Data from SampC_HRD10591_00003.txt Node
Date: Mon Jan 19 11:37:30 EST 2026
User: Yrep
Spectrometer: HR+D1059
Trigger mode: 0
Integration Time (sec): 3.443000E-1
Scans to average: 1
Electric dark correction enabled: true
Nonlinearity correction enabled: false
Boxcar width: 0
XAxis mode: Wavelengths
Number of Pixels in Spectrum: 2048
>>>>>Begin Spectral Data<<<<<
223.165	-40.94
223.4	-40.94
223.635	-40.94
223.869	-12.94
224.104	-12.94
224.338	-7.94
224.573	-25.94
224.808	-17.94
225.042	-9.94
225.277	-17.94
225.511	-7.94
225.746	12.06
225.98	17.06
226.215	31.06
226.449	14.06
226.683	27.06
226.918	18.06
227.152	35.06
227.387	39.06
227.621	33.06
227.856	41.06
228.09	34.06
228.324	54.06
228.559	81.06
228.793	67.06
229.027	80.06
229.262	91.06
229.496	106.06
229.73	88.06
229.964	113.06
230.199	85.06
230.433	97.06
230.667	112.06
230.901	102.06
231.136	105.06
231.37	134.06
231.604	122.06
231.838	114.06
232.072	112.06
232.306	110.06
232.541	122.06
232.775	109.06
233.009	111.06
233.243	112.06
233.477	115.06
233.711	104.06
233.945	113.06
234.179	116.06
234.413	117.06
234.647	122.06
234.881	124.06
235.115	117.06
235.349	120.06
235.583	121.06
235.817	120.06
236.051	135.06
236.285	137.06
236.519	163.06
236.753	174.06
236.987	204.06
237.221	224.06
237.455	258.06
237.689	254.06
237.922	219.06
238.156	175.06
238.39	150.06
238.624	140.06
238.858	133.06
239.091	122.06
239.325	119.06
239.559	118.06
239.793	129.06
240.027	129.06
240.26	115.06
240.494	130.06
240.728	109.06
240.961	116.06
241.195	132.06
241.429	121.06
241.662	111.06
241.896	127.06
242.13	120.06
242.363	126.06
242.597	118.06
242.83	126.06
243.064	129.06
243.298	143.06
243.531	152.06
243.765	135.06
243.998	138.06
244.232	124.06
244.465	118.06
244.699	121.06
244.932	138.06
245.166	132.06
245.399	129.06
245.633	144.06
245.866	152.06
246.099	133.06
246.333	157.06
246.566	131.06
246.8	139.06
247.033	153.06
247.266	153.06
247.5	150.06
247.733	141.06
247.966	142.06
248.2	145.06
248.433	157.06
248.666	137.06
248.899	161.06
249.133	160.06
249.366	149.06
249.599	145.06
249.832	147.06
250.066	150.06
250.299	153.06
250.532	166.06
250.765	135.06
250.998	156.06
251.231	155.06
251.465	161.06
251.698	167.06
251.931	169.06
252.164	157.06
252.397	137.06
252.63	153.06
252.863	140.06
253.096	153.06
253.329	168.06
253.562	162.06
253.795	168.06
254.028	166.06
254.261	157.06
254.494	166.06
254.727	168.06
254.96	160.06
255.193	176.06
255.426	147.06
255.659	172.06
255.892	166.06
256.124	174.06
256.357	185.06
256.59	205.06
256.823	244.06
257.056	296.06
257.289	297.06
257.521	311.06
257.754	365.06
257.987	336.06
258.22	255.06
258.452	225.06
258.685	197.06
258.918	202.06
259.151	199.06
259.383	184.06
259.616	176.06
259.849	185.06
260.081	193.06
260.314	185.06
260.547	199.06
260.779	189.06
261.012	190.06
261.244	174.06
261.477	202.06
261.71	188.06
261.942	184.06
262.175	190.06
262.407	200.06
262.64	214.06
262.872	230.06
263.105	239.06
263.337	288.06
263.57	288.06
263.802	265.06
264.035	249.06
264.267	239.06
264.499	236.06
264.732	224.06
264.964	226.06
265.197	237.06
265.429	288.06
265.661	304.06
265.894	278.06
266.126	331.06
266.358	338.06
266.591	298.06
266.823	244.06
267.055	228.06
267.287	214.06
267.52	216.06
267.752	216.06
267.984	207.06
268.216	209.06
268.448	217.06
268.681	207.06
268.913	196.06
269.145	211.06
269.377	199.06
269.609	197.06
269.841	200.06
270.073	204.06
270.306	192.06
270.538	191.06
270.77	187.06
271.002	210.06
271.234	209.06
271.466	194.06
271.698	202.06
271.93	214.06
272.162	207.06
272.394	212.06
272.626	192.06
272.858	191.06
273.09	217.06
273.322	223.06
273.553	218.06
273.785	223.06
274.017	215.06
274.249	211.06
274.481	227.06
274.713	214.06
274.945	229.06
275.176	233.06
275.408	236.06
275.64	226.06
275.872	223.06
276.104	238.06
276.335	228.06
276.567	232.06
276.799	223.06
277.031	235.06
277.262	232.06
277.494	250.06
277.726	272.06
277.957	278.06
278.189	282.06
278.421	283.06
278.652	302.06
278.884	358.06
279.115	444.06
279.347	611.06
279.579	859.06
279.81	968.06
280.042	796.06
280.273	714.06
280.505	715.06
280.736	496.06
280.968	368.06
281.199	375.06
281.431	458.06
281.662	566.06
281.894	654.06
282.125	508.06
282.356	416.06
282.588	368.06
282.819	322.06
283.051	304.06
283.282	306.06
283.513	285.06
283.745	274.06
283.976	289.06
284.207	280.06
284.439	280.06
284.67	294.06
284.901	298.06
285.132	349.06
285.364	399.06
285.595	364.06
285.826	270.06
286.057	264.06
286.288	251.06
286.52	274.06
286.751	260.06
286.982	264.06
287.213	253.06
287.444	270.06
287.675	267.06
287.906	274.06
288.138	265.06
288.369	267.06
288.6	278.06
288.831	256.06
289.062	249.06
289.293	276.06
289.524	266.06
289.755	264.06
289.986	266.06
290.217	277.06
290.448	266.06
290.679	271.06
290.91	269.06
291.141	264.06
291.371	284.06
291.602	278.06
291.833	285.06
292.064	287.06
292.295	289.06
292.526	313.06
292.757	322.06
292.987	313.06
293.218	308.06
293.449	299.06
293.68	304.06
293.91	312.06
294.141	288.06
294.372	273.06
294.603	289.06
294.833	272.06
295.064	275.06
295.295	272.06
295.525	270.06
295.756	284.06
295.987	286.06
296.217	282.06
296.448	281.06
296.679	271.06
296.909	275.06
297.14	268.06
297.37	291.06
297.601	270.06
297.831	273.06
298.062	277.06
298.292	270.06
298.523	298.06
298.753	286.06
298.984	301.06
299.214	298.06
299.445	281.06
299.675	303.06
299.905	305.06
300.136	288.06
300.366	291.06
300.597	310.06
300.827	308.06
301.057	308.06
301.288	304.06
301.518	312.06
301.748	302.06
301.979	353.06
302.209	333.06
302.439	330.06
302.669	331.06
302.9	358.06
303.13	362.06
303.36	374.06
303.59	372.06
303.82	382.06
304.051	378.06
304.281	393.06
304.511	415.06
304.741	438.06
304.971	512.06
305.201	582.06
305.431	644.06
305.661	744.06
305.891	826.06
306.121	764.06
306.352	681.06
306.582	690.06
306.812	698.06
307.042	606.06
307.272	601.06
307.502	674.06
307.731	872.06
307.961	1260.06
308.191	1770.06
308.421	2075.06
308.651	1756.06
308.881	1628.06
309.111	2038.06
309.341	2534.06
309.571	2418.06
309.8	1549.06
310.03	1016.06
310.26	774.06
310.49	634.06
310.72	590.06
310.949	511.06
311.179	481.06
311.409	462.06
311.639	430.06
311.868	421.06
312.098	412.06
312.328	414.06
312.557	408.06
312.787	378.06
313.017	384.06
313.246	396.06
313.476	351.06
313.706	370.06
313.935	374.06
314.165	366.06
314.394	354.06
314.624	365.06
314.853	342.06
315.083	356.06
315.312	350.06
315.542	351.06
315.771	350.06
316.001	333.06
316.23	341.06
316.46	345.06
316.689	335.06
316.919	319.06
317.148	345.06
317.377	331.06
317.607	338.06
317.836	329.06
318.065	321.06
318.295	337.06
318.524	329.06
318.753	333.06
318.983	324.06
319.212	319.06
319.441	324.06
319.67	341.06
319.9	322.06
320.129	319.06
320.358	331.06
320.587	346.06
320.816	331.06
321.046	348.06
321.275	346.06
321.504	335.06
321.733	305.06
321.962	341.06
322.191	336.06
322.42	321.06
322.649	328.06
322.878	328.06
323.108	354.06
323.337	359.06
323.566	340.06
323.795	343.06
324.024	337.06
324.253	349.06
324.482	351.06
324.71	335.06
324.939	348.06
325.168	347.06
325.397	333.06
325.626	350.06
325.855	320.06
326.084	342.06
326.313	344.06
326.542	352.06
326.77	354.06
326.999	346.06
327.228	327.06
327.457	344.06
327.686	337.06
327.914	361.06
328.143	357.06
328.372	334.06
328.6	325.06
328.829	344.06
329.058	349.06
329.287	338.06
329.515	352.06
329.744	352.06
329.972	347.06
330.201	356.06
330.43	352.06
330.658	361.06
330.887	346.06
331.115	366.06
331.344	357.06
331.572	356.06
331.801	354.06
332.03	359.06
332.258	364.06
332.486	392.06
332.715	394.06
332.943	405.06
333.172	408.06
333.4	406.06
333.629	388.06
333.857	423.06
334.085	375.06
334.314	422.06
334.542	412.06
334.771	405.06
334.999	377.06
335.227	403.06
335.455	395.06
335.684	392.06
335.912	397.06
336.14	377.06
336.369	412.06
336.597	413.06
336.825	389.06
337.053	393.06
337.281	362.06
337.51	355.06
337.738	369.06
337.966	369.06
338.194	368.06
338.422	366.06
338.65	363.06
338.878	366.06
339.106	369.06
339.334	380.06
339.562	358.06
339.79	363.06
340.018	358.06
340.246	346.06
340.474	378.06
340.702	364.06
340.93	358.06
341.158	369.06
341.386	361.06
341.614	356.06
341.842	366.06
342.07	354.06
342.298	364.06
342.526	346.06
342.754	377.06
342.981	361.06
343.209	370.06
343.437	402.06
343.665	400.06
343.893	418.06
344.12	428.06
344.348	424.06
344.576	392.06
344.804	383.06
345.031	381.06
345.259	378.06
345.487	373.06
345.714	362.06
345.942	373.06
346.17	372.06
346.397	354.06
346.625	375.06
346.853	357.06
347.08	348.06
347.308	357.06
347.535	358.06
347.763	361.06
347.99	356.06
348.218	377.06
348.445	363.06
348.673	371.06
348.9	369.06
349.128	363.06
349.355	369.06
349.583	370.06
349.81	349.06
350.037	360.06
350.265	379.06
350.492	378.06
350.72	382.06
350.947	373.06
351.174	359.06
351.402	386.06
351.629	366.06
351.856	365.06
352.083	396.06
352.311	407.06
352.538	402.06
352.765	392.06
352.992	419.06
353.22	428.06
353.447	420.06
353.674	404.06
353.901	417.06
354.128	433.06
354.355	410.06
354.583	411.06
354.81	440.06
355.037	450.06
355.264	445.06
355.491	463.06
355.718	467.06
355.945	474.06
356.172	506.06
356.399	520.06
356.626	526.06
356.853	570.06
357.08	569.06
357.307	618.06
357.534	664.06
357.761	720.06
357.988	810.06
358.215	922.06
358.441	1056.06
358.668	1170.06
358.895	1177.06
359.122	968.06
359.349	791.06
359.576	703.06
359.802	672.06
360.029	625.06
360.256	603.06
360.483	581.06
360.709	557.06
360.936	580.06
361.163	526.06
361.39	514.06
361.616	500.06
361.843	490.06
362.07	493.06
362.296	476.06
362.523	454.06
362.749	461.06
362.976	453.06
363.203	461.06
363.429	419.06
363.656	456.06
363.882	434.06
364.109	440.06
364.335	428.06
364.562	421.06
364.788	431.06
365.015	437.06
365.241	423.06
365.468	397.06
365.694	420.06
365.92	424.06
366.147	395.06
366.373	386.06
366.599	414.06
366.826	382.06
367.052	412.06
367.278	415.06
367.505	389.06
367.731	435.06
367.957	388.06
368.184	399.06
368.41	404.06
368.636	412.06
368.862	411.06
369.089	399.06
369.315	401.06
369.541	389.06
369.767	419.06
369.993	418.06
370.219	404.06
370.445	421.06
370.672	397.06
370.898	381.06
371.124	419.06
371.35	421.06
371.576	432.06
371.802	417.06
372.028	432.06
372.254	414.06
372.48	426.06
372.706	433.06
372.932	428.06
373.158	426.06
373.384	438.06
373.61	414.06
373.835	406.06
374.061	412.06
374.287	437.06
374.513	417.06
374.739	444.06
374.965	427.06
375.191	428.06
375.416	440.06
375.642	434.06
375.868	415.06
376.094	428.06
376.319	432.06
376.545	425.06
376.771	425.06
376.997	410.06
377.222	416.06
377.448	404.06
377.674	406.06
377.899	397.06
378.125	414.06
378.35	425.06
378.576	417.06
378.802	412.06
379.027	416.06
379.253	419.06
379.478	390.06
379.704	413.06
379.929	402.06
380.155	420.06
380.38	400.06
380.606	440.06
380.831	433.06
381.057	442.06
381.282	428.06
381.507	437.06
381.733	437.06
381.958	449.06
382.184	468.06
382.409	458.06
382.634	513.06
382.86	510.06
383.085	551.06
383.31	566.06
383.535	546.06
383.761	569.06
383.986	588.06
384.211	520.06
384.436	473.06
384.662	489.06
384.887	466.06
385.112	475.06
385.337	480.06
385.562	475.06
385.787	473.06
386.013	493.06
386.238	514.06
386.463	505.06
386.688	533.06
386.913	494.06
387.138	479.06
387.363	486.06
387.588	482.06
387.813	485.06
388.038	490.06
388.263	508.06
388.488	509.06
388.713	505.06
388.938	492.06
389.163	506.06
389.387	498.06
389.612	492.06
389.837	502.06
390.062	517.06
390.287	502.06
390.512	504.06
390.736	509.06
390.961	521.06
391.186	512.06
391.411	528.06
391.636	524.06
391.86	559.06
392.085	558.06
392.31	556.06
392.534	565.06
392.759	595.06
392.984	601.06
393.208	679.06
393.433	729.06
393.658	797.06
393.882	1032.06
394.107	1644.06
394.331	2877.06
394.556	3742.06
394.78	2646.06
395.005	1511.06
395.229	1170.06
395.454	1179.06
395.678	1510.06
395.903	2492.06
396.127	4162.06
396.352	4888.06
396.576	2938.06
396.801	1715.06
397.025	1257.06
397.249	1000.06
397.474	924.06
397.698	820.06
397.922	767.06
398.147	749.06
398.371	729.06
398.595	699.06
398.82	685.06
399.044	705.06
399.268	717.06
399.492	736.06
399.717	733.06
399.941	710.06
400.165	684.06
400.389	650.06
400.613	631.06
400.837	619.06
401.062	613.06
401.286	590.06
401.51	584.06
401.734	584.06
401.958	622.06
402.182	591.06
402.406	577.06
402.63	590.06
402.854	564.06
403.078	591.06
403.302	601.06
403.526	597.06
403.75	606.06
403.974	600.06
404.198	610.06
404.422	628.06
404.645	602.06
404.869	626.06
405.093	607.06
405.317	594.06
405.541	588.06
405.765	587.06
405.988	591.06
406.212	592.06
406.436	605.06
406.66	601.06
406.883	606.06
407.107	625.06
407.331	645.06
407.555	658.06
407.778	623.06
408.002	623.06
408.226	635.06
408.449	615.06
408.673	613.06
408.896	605.06
409.12	599.06
409.344	593.06
409.567	584.06
409.791	583.06
410.014	599.06
410.238	599.06
410.461	560.06
410.685	586.06
410.908	595.06
411.132	572.06
411.355	580.06
411.578	585.06
411.802	578.06
412.025	575.06
412.249	593.06
412.472	570.06
412.695	577.06
412.919	573.06
413.142	573.06
413.365	550.06
413.589	565.06
413.812	565.06
414.035	574.06
414.258	598.06
414.482	582.06
414.705	568.06
414.928	575.06
415.151	547.06
415.374	573.06
415.597	574.06
415.821	561.06
416.044	542.06
416.267	558.06
416.49	554.06
416.713	565.06
416.936	566.06
417.159	544.06
417.382	547.06
417.605	566.06
417.828	572.06
418.051	566.06
418.274	574.06
418.497	568.06
418.72	562.06
418.943	560.06
419.166	563.06
419.389	610.06
419.611	593.06
419.834	573.06
420.057	570.06
420.28	589.06
420.503	552.06
420.726	558.06
420.948	560.06
421.171	545.06
421.394	570.06
421.617	563.06
421.839	569.06
422.062	570.06
422.285	542.06
422.507	555.06
422.73	571.06
422.953	564.06
423.175	558.06
423.398	575.06
423.621	566.06
423.843	564.06
424.066	562.06
424.288	574.06
424.511	569.06
424.733	584.06
424.956	559.06
425.178	566.06
425.401	548.06
425.623	588.06
425.846	536.06
426.068	569.06
426.291	552.06
426.513	545.06
426.735	540.06
426.958	557.06
427.18	517.06
427.402	538.06
427.625	551.06
427.847	535.06
428.069	513.06
428.292	526.06
428.514	532.06
428.736	536.06
428.958	546.06
429.181	526.06
429.403	536.06
429.625	502.06
429.847	543.06
430.069	546.06
430.292	558.06
430.514	535.06
430.736	538.06
430.958	534.06
431.18	538.06
431.402	529.06
431.624	502.06
431.846	496.06
432.068	483.06
432.29	524.06
432.512	524.06
432.734	522.06
432.956	543.06
433.178	552.06
433.4	543.06
433.622	546.06
433.844	560.06
434.066	523.06
434.287	530.06
434.509	489.06
434.731	518.06
434.953	557.06
435.175	546.06
435.397	572.06
435.618	519.06
435.84	538.06
436.062	520.06
436.284	529.06
436.505	541.06
436.727	556.06
436.949	536.06
437.17	527.06
437.392	544.06
437.614	520.06
437.835	499.06
438.057	492.06
438.278	519.06
438.5	512.06
438.721	538.06
438.943	528.06
439.165	536.06
439.386	556.06
439.608	576.06
439.829	532.06
440.05	550.06
440.272	547.06
440.493	569.06
440.715	549.06
440.936	585.06
441.158	583.06
441.379	577.06
441.6	582.06
441.822	614.06
442.043	582.06
442.264	569.06
442.486	554.06
442.707	567.06
442.928	549.06
443.149	594.06
443.371	566.06
443.592	568.06
443.813	591.06
444.034	592.06
444.255	598.06
444.476	607.06
444.698	621.06
444.919	624.06
445.14	836.06
445.361	696.06
445.582	622.06
445.803	560.06
446.024	564.06
446.245	581.06
446.466	574.06
446.687	580.06
446.908	577.06
447.129	589.06
447.35	581.06
447.571	569.06
447.792	570.06
448.013	573.06
448.234	568.06
448.455	550.06
448.675	541.06
448.896	548.06
449.117	524.06
449.338	529.06
449.559	526.06
449.779	529.06
450	538.06
450.221	523.06
450.442	513.06
450.662	520.06
450.883	525.06
451.104	540.06
451.324	532.06
451.545	509.06
451.766	519.06
451.986	530.06
452.207	507.06
452.428	526.06
452.648	535.06
452.869	547.06
453.089	511.06
453.31	505.06
453.53	510.06
453.751	481.06
453.971	502.06
454.192	504.06
454.412	481.06
454.633	489.06
454.853	481.06
455.073	483.06
455.294	489.06
455.514	487.06
455.734	482.06
455.955	482.06
456.175	470.06
456.395	476.06
456.616	473.06
456.836	477.06
457.056	488.06
457.276	430.06
457.497	440.06
457.717	449.06
457.937	474.06
458.157	458.06
458.377	458.06
458.598	474.06
458.818	463.06
459.038	462.06
459.258	474.06
459.478	481.06
459.698	492.06
459.918	511.06
460.138	524.06
460.358	552.06
460.578	557.06
460.798	561.06
461.018	582.06
461.238	573.06
461.458	551.06
461.678	548.06
461.898	558.06
462.118	568.06
462.338	575.06
462.558	607.06
462.777	610.06
462.997	651.06
463.217	679.06
463.437	663.06
463.657	626.06
463.876	615.06
464.096	611.06
464.316	611.06
464.536	598.06
464.755	605.06
464.975	588.06
465.195	596.06
465.414	589.06
465.634	599.06
465.854	585.06
466.073	602.06
466.293	660.06
466.512	692.06
466.732	687.06
466.951	644.06
467.171	608.06
467.391	599.06
467.61	588.06
467.829	592.06
468.049	582.06
468.268	534.06
468.488	531.06
468.707	532.06
468.927	559.06
469.146	544.06
469.365	540.06
469.585	550.06
469.804	577.06
470.023	569.06
470.243	552.06
470.462	568.06
470.681	565.06
470.901	525.06
471.12	569.06
471.339	545.06
471.558	549.06
471.777	521.06
471.997	523.06
472.216	542.06
472.435	532.06
472.654	509.06
472.873	526.06
473.092	540.06
473.311	566.06
473.53	589.06
473.749	628.06
473.968	631.06
474.187	611.06
474.406	625.06
474.625	653.06
474.844	671.06
475.063	621.06
475.282	599.06
475.501	545.06
475.72	567.06
475.939	573.06
476.158	542.06
476.377	546.06
476.596	554.06
476.814	504.06
477.033	516.06
477.252	518.06
477.471	547.06
477.69	570.06
477.908	574.06
478.127	584.06
478.346	566.06
478.564	566.06
478.783	571.06
479.002	596.06
479.22	582.06
479.439	584.06
479.658	606.06
479.876	555.06
480.095	568.06
480.313	565.06
480.532	572.06
480.751	575.06
480.969	521.06
481.188	548.06
481.406	514.06
481.624	520.06
481.843	530.06
482.061	529.06
482.28	545.06
482.498	544.06
482.717	521.06
482.935	552.06
483.153	550.06
483.372	565.06
483.59	589.06
483.808	554.06
484.027	563.06
484.245	590.06
484.463	652.06
484.681	646.06
484.9	617.06
485.118	620.06
485.336	610.06
485.554	616.06
485.772	576.06
485.99	564.06
486.209	607.06
486.427	588.06
486.645	591.06
486.863	633.06
487.081	625.06
487.299	626.06
487.517	641.06
487.735	672.06
487.953	692.06
488.171	666.06
488.389	646.06
488.607	622.06
488.825	606.06
489.043	608.06
489.261	623.06
489.479	614.06
489.696	601.06
489.914	609.06
490.132	623.06
490.35	640.06
490.568	629.06
490.786	644.06
491.003	649.06
491.221	664.06
491.439	647.06
491.657	685.06
491.874	698.06
492.092	729.06
492.31	756.06
492.527	718.06
492.745	688.06
492.963	701.06
493.18	668.06
493.398	693.06
493.615	658.06
493.833	649.06
494.05	648.06
494.268	669.06
494.485	650.06
494.703	651.06
494.92	660.06
495.138	628.06
495.355	649.06
495.573	662.06
495.79	642.06
496.008	657.06
496.225	648.06
496.442	672.06
496.66	672.06
496.877	667.06
497.094	675.06
497.312	655.06
497.529	665.06
497.746	685.06
497.963	696.06
498.181	699.06
498.398	697.06
498.615	719.06
498.832	744.06
499.049	783.06
499.267	818.06
499.484	873.06
499.701	929.06
499.918	963.06
500.135	1046.06
500.352	1107.06
500.569	1121.06
500.786	1078.06
501.003	1078.06
501.22	1015.06
501.437	942.06
501.654	864.06
501.871	832.06
502.088	788.06
502.305	777.06
502.522	743.06
502.739	732.06
502.956	690.06
503.172	702.06
503.389	681.06
503.606	644.06
503.823	635.06
504.04	612.06
504.256	660.06
504.473	650.06
504.69	641.06
504.907	655.06
505.123	608.06
505.34	596.06
505.557	585.06
505.773	567.06
505.99	569.06
506.207	556.06
506.423	538.06
506.64	543.06
506.856	544.06
507.073	537.06
507.289	534.06
507.506	525.06
507.722	545.06
507.939	524.06
508.155	560.06
508.372	540.06
508.588	520.06
508.805	528.06
509.021	524.06
509.238	508.06
509.454	516.06
509.67	505.06
509.887	495.06
510.103	479.06
510.319	496.06
510.536	518.06
510.752	500.06
510.968	495.06
511.184	486.06
511.401	498.06
511.617	487.06
511.833	494.06
512.049	502.06
512.265	504.06
512.481	531.06
512.698	538.06
512.914	530.06
513.13	517.06
513.346	505.06
513.562	517.06
513.778	573.06
513.994	577.06
514.21	555.06
514.426	560.06
514.642	541.06
514.858	569.06
515.074	564.06
515.29	611.06
515.506	605.06
515.721	564.06
515.937	569.06
516.153	554.06
516.369	553.06
516.585	565.06
516.801	585.06
517.016	628.06
517.232	597.06
517.448	671.06
517.664	642.06
517.879	634.06
518.095	602.06
518.311	615.06
518.527	720.06
518.742	656.06
518.958	583.06
519.173	566.06
519.389	570.06
519.605	517.06
519.82	543.06
520.036	528.06
520.251	505.06
520.467	505.06
520.682	507.06
520.898	480.06
521.113	472.06
521.329	473.06
521.544	474.06
521.76	475.06
521.975	480.06
522.19	459.06
522.406	458.06
522.621	509.06
522.836	456.06
523.052	482.06
523.267	488.06
523.482	475.06
523.698	479.06
523.913	491.06
524.128	484.06
524.343	489.06
524.559	484.06
524.774	472.06
524.989	482.06
525.204	484.06
525.419	481.06
525.634	471.06
525.849	504.06
526.064	482.06
526.28	489.06
526.495	464.06
526.71	479.06
526.925	472.06
527.14	477.06
527.355	463.06
527.57	434.06
527.785	438.06
527.999	448.06
528.214	458.06
528.429	464.06
528.644	457.06
528.859	493.06
529.074	488.06
529.289	513.06
529.503	502.06
529.718	471.06
529.933	444.06
530.148	465.06
530.363	479.06
530.577	471.06
530.792	485.06
531.007	484.06
531.221	454.06
531.436	448.06
531.651	464.06
531.865	460.06
532.08	451.06
532.295	495.06
532.509	458.06
532.724	466.06
532.938	480.06
533.153	455.06
533.367	467.06
533.582	487.06
533.796	462.06
534.011	462.06
534.225	430.06
534.44	430.06
534.654	456.06
534.868	425.06
535.083	439.06
535.297	441.06
535.511	449.06
535.726	447.06
535.94	426.06
536.154	436.06
536.369	412.06
536.583	416.06
536.797	419.06
537.011	403.06
537.225	414.06
537.44	421.06
537.654	433.06
537.868	421.06
538.082	418.06
538.296	432.06
538.51	426.06
538.724	434.06
538.938	442.06
539.153	458.06
539.367	462.06
539.581	449.06
539.795	439.06
540.009	431.06
540.222	419.06
540.436	419.06
540.65	437.06
540.864	412.06
541.078	470.06
541.292	485.06
541.506	488.06
541.72	512.06
541.934	519.06
542.147	505.06
542.361	482.06
542.575	479.06
542.789	475.06
543.002	445.06
543.216	437.06
543.43	464.06
543.644	463.06
543.857	463.06
544.071	479.06
544.285	490.06
544.498	497.06
544.712	495.06
544.925	488.06
545.139	492.06
545.352	503.06
545.566	482.06
545.779	508.06
545.993	500.06
546.206	488.06
546.42	505.06
546.633	492.06
546.847	528.06
547.06	499.06
547.274	509.06
547.487	496.06
547.7	500.06
547.914	476.06
548.127	496.06
548.34	506.06
548.554	488.06
548.767	490.06
548.98	487.06
549.193	476.06
549.407	490.06
549.62	472.06
549.833	491.06
550.046	505.06
550.259	478.06
550.473	486.06
550.686	493.06
550.899	468.06
551.112	478.06
551.325	459.06
551.538	457.06
551.751	436.06
551.964	438.06
552.177	455.06
552.39	456.06
552.603	489.06
552.816	506.06
553.029	539.06
553.242	511.06
553.455	518.06
553.667	513.06
553.88	514.06
554.093	487.06
554.306	483.06
554.519	490.06
554.732	460.06
554.944	444.06
555.157	461.06
555.37	449.06
555.583	460.06
555.795	447.06
556.008	442.06
556.221	470.06
556.433	461.06
556.646	426.06
556.859	431.06
557.071	447.06
557.284	436.06
557.496	442.06
557.709	426.06
557.921	465.06
558.134	456.06
558.346	468.06
558.559	466.06
558.771	447.06
558.984	470.06
559.196	522.06
559.409	565.06
559.621	505.06
559.833	484.06
560.046	468.06
560.258	450.06
560.47	464.06
560.683	518.06
560.895	501.06
561.107	445.06
561.32	421.06
561.532	430.06
561.744	427.06
561.956	405.06
562.168	412.06
562.381	436.06
562.593	420.06
562.805	416.06
563.017	419.06
563.229	427.06
563.441	463.06
563.653	461.06
563.865	429.06
564.077	434.06
564.289	441.06
564.501	419.06
564.713	414.06
564.925	420.06
565.137	429.06
565.349	417.06
565.561	430.06
565.773	458.06
565.985	457.06
566.197	471.06
566.408	486.06
566.62	469.06
566.832	506.06
567.044	507.06
567.255	508.06
567.467	509.06
567.679	544.06
567.891	532.06
568.102	555.06
568.314	505.06
568.526	484.06
568.737	450.06
568.949	443.06
569.161	414.06
569.372	393.06
569.584	390.06
569.795	401.06
570.007	369.06
570.218	379.06
570.43	378.06
570.641	385.06
570.853	386.06
571.064	374.06
571.276	382.06
571.487	380.06
571.698	376.06
571.91	367.06
572.121	359.06
572.333	344.06
572.544	344.06
572.755	340.06
572.966	330.06
573.178	336.06
573.389	321.06
573.6	320.06
573.811	314.06
574.023	318.06
574.234	320.06
574.445	331.06
574.656	317.06
574.867	325.06
575.078	315.06
575.289	326.06
575.501	325.06
575.712	300.06
575.923	282.06
576.134	290.06
576.345	296.06
576.556	328.06
576.767	321.06
576.978	316.06
577.188	305.06
577.399	297.06
577.61	272.06
577.821	296.06
578.032	298.06
578.243	310.06
578.454	283.06
578.665	278.06
578.875	271.06
579.086	294.06
579.297	272.06
579.508	286.06
579.718	273.06
579.929	278.06
580.14	278.06
580.35	277.06
580.561	276.06
580.772	279.06
580.982	270.06
581.193	268.06
581.403	272.06
581.614	274.06
581.825	268.06
582.035	293.06
582.246	286.06
582.456	279.06
582.667	267.06
582.877	269.06
583.087	268.06
583.298	261.06
583.508	258.06
583.719	269.06
583.929	280.06
584.139	281.06
584.35	277.06
584.56	262.06
584.77	255.06
584.981	250.06
585.191	258.06
585.401	245.06
585.611	265.06
585.821	264.06
586.032	271.06
586.242	270.06
586.452	278.06
586.662	253.06
586.872	262.06
587.082	264.06
587.292	251.06
587.502	262.06
587.713	253.06
587.923	253.06
588.133	267.06
588.343	252.06
588.553	263.06
588.762	276.06
588.972	282.06
589.182	369.06
589.392	319.06
589.602	284.06
589.812	327.06
590.022	303.06
590.232	261.06
590.441	244.06
590.651	270.06
590.861	246.06
591.071	260.06
591.281	254.06
591.49	270.06
591.7	264.06
591.91	267.06
592.119	282.06
592.329	270.06
592.539	284.06
592.748	275.06
592.958	280.06
593.167	294.06
593.377	294.06
593.587	313.06
593.796	299.06
594.006	290.06
594.215	294.06
594.424	284.06
594.634	297.06
594.843	278.06
595.053	279.06
595.262	256.06
595.472	274.06
595.681	258.06
595.89	264.06
596.1	253.06
596.309	250.06
596.518	256.06
596.727	258.06
596.937	227.06
597.146	246.06
597.355	255.06
597.564	236.06
597.774	237.06
597.983	249.06
598.192	232.06
598.401	228.06
598.61	250.06
598.819	232.06
599.028	237.06
599.237	236.06
599.446	235.06
599.655	233.06
599.864	247.06
600.073	232.06
600.282	228.06
600.491	234.06
600.7	220.06
600.909	235.06
601.118	238.06
601.327	260.06
601.536	230.06
601.745	242.06
601.953	260.06
602.162	247.06
602.371	248.06
602.58	245.06
602.789	230.06
602.997	237.06
603.206	241.06
603.415	241.06
603.623	239.06
603.832	245.06
604.041	239.06
604.249	241.06
604.458	222.06
604.666	229.06
604.875	213.06
605.084	231.06
605.292	218.06
605.501	235.06
605.709	249.06
605.918	241.06
606.126	230.06
606.334	234.06
606.543	240.06
606.751	257.06
606.96	248.06
607.168	227.06
607.376	247.06
607.585	238.06
607.793	247.06
608.001	229.06
608.21	234.06
608.418	248.06
608.626	248.06
608.834	241.06
609.043	251.06
609.251	245.06
609.459	229.06
609.667	222.06
609.875	234.06
610.083	243.06
610.291	246.06
610.499	244.06
610.707	232.06
610.916	249.06
611.124	278.06
611.332	237.06
611.54	251.06
611.748	250.06
611.955	233.06
612.163	231.06
612.371	240.06
612.579	212.06
612.787	233.06
612.995	234.06
613.203	256.06
613.411	224.06
613.618	242.06
613.826	248.06
614.034	224.06
614.242	246.06
614.449	234.06
614.657	229.06
614.865	241.06
615.072	253.06
615.28	253.06
615.488	250.06
615.695	236.06
615.903	249.06
616.111	267.06
616.318	280.06
616.526	286.06
616.733	312.06
616.941	272.06
617.148	264.06
617.356	250.06
617.563	258.06
617.771	241.06
617.978	232.06
618.185	260.06
618.393	248.06
618.6	295.06
618.807	305.06
619.015	294.06
619.222	257.06
619.429	256.06
619.637	239.06
619.844	240.06
620.051	240.06
620.258	220.06
620.466	215.06
620.673	222.06
620.88	225.06
621.087	221.06
621.294	220.06
621.501	221.06
621.708	242.06
621.915	216.06
622.122	237.06
622.329	234.06
622.536	241.06
622.743	233.06
622.95	244.06
623.157	261.06
623.364	245.06
623.571	243.06
623.778	252.06
623.985	264.06
624.192	266.06
624.399	252.06
624.606	296.06
624.812	259.06
625.019	282.06
625.226	263.06
625.433	255.06
625.639	259.06
625.846	239.06
626.053	221.06
626.259	219.06
626.466	217.06
626.673	234.06
626.879	226.06
627.086	217.06
627.293	246.06
627.499	217.06
627.706	225.06
627.912	236.06
628.119	212.06
628.325	207.06
628.532	224.06
628.738	207.06
628.945	207.06
629.151	213.06
629.357	214.06
629.564	204.06
629.77	198.06
629.976	205.06
630.183	206.06
630.389	196.06
630.595	207.06
630.802	212.06
631.008	191.06
631.214	186.06
631.42	200.06
631.627	215.06
631.833	191.06
632.039	189.06
632.245	182.06
632.451	196.06
632.657	176.06
632.863	166.06
633.069	190.06
633.275	198.06
633.481	189.06
633.688	212.06
633.893	188.06
634.099	190.06
634.305	189.06
634.511	185.06
634.717	172.06
634.923	178.06
635.129	172.06
635.335	181.06
635.541	179.06
635.747	173.06
635.952	184.06
636.158	173.06
636.364	182.06
636.57	172.06
636.775	190.06
636.981	194.06
637.187	180.06
637.392	166.06
637.598	180.06
637.804	177.06
638.009	156.06
638.215	175.06
638.421	163.06
638.626	165.06
638.832	170.06
639.037	163.06
639.243	168.06
639.448	168.06
639.654	194.06
639.859	181.06
640.065	169.06
640.27	177.06
640.475	188.06
640.681	164.06
640.886	166.06
641.091	169.06
641.297	166.06
641.502	176.06
641.707	175.06
641.913	174.06
642.118	158.06
642.323	166.06
642.528	175.06
642.733	182.06
642.939	175.06
643.144	172.06
643.349	168.06
643.554	162.06
643.759	167.06
643.964	154.06
644.169	164.06
644.374	169.06
644.579	184.06
644.784	165.06
644.989	162.06
645.194	162.06
645.399	169.06
645.604	163.06
645.809	150.06
646.014	168.06
646.219	169.06
646.423	177.06
646.628	162.06
646.833	165.06
647.038	169.06
647.243	163.06
647.447	168.06
647.652	160.06
647.857	172.06
648.062	169.06
648.266	175.06
648.471	155.06
648.676	166.06
648.88	149.06
649.085	170.06
649.289	170.06
649.494	165.06
649.698	160.06
649.903	152.06
650.107	156.06
650.312	170.06
650.516	162.06
650.721	163.06
650.925	158.06
651.13	153.06
651.334	144.06
651.539	130.06
651.743	133.06
651.947	164.06
652.152	161.06
652.356	154.06
652.56	169.06
652.764	134.06
652.969	160.06
653.173	159.06
653.377	137.06
653.581	145.06
653.785	127.06
653.99	143.06
654.194	138.06
654.398	138.06
654.602	132.06
654.806	137.06
655.01	135.06
655.214	126.06
655.418	148.06
655.622	164.06
655.826	139.06
656.03	149.06
656.234	164.06
656.438	167.06
656.642	162.06
656.846	138.06
657.049	136.06
657.253	136.06
657.457	138.06
657.661	123.06
657.865	119.06
658.068	123.06
658.272	114.06
658.476	120.06
658.68	118.06
658.883	101.06
659.087	116.06
659.291	100.06
659.494	96.06
659.698	98.06
659.901	88.06
660.105	86.06
660.309	101.06
660.512	80.06
660.716	94.06
660.919	90.06
661.123	110.06
661.326	95.06
661.53	86.06
661.733	100.06
661.936	88.06
662.14	79.06
662.343	81.06
662.546	84.06
662.75	92.06
662.953	94.06
663.156	98.06
663.36	69.06
663.563	83.06
663.766	83.06
663.969	80.06
664.173	79.06
664.376	74.06
664.579	62.06
664.782	78.06
664.985	88.06
665.188	81.06
665.391	88.06
665.594	82.06
665.797	73.06
666	78.06
666.203	78.06
666.406	78.06
666.609	84.06
666.812	96.06
667.015	70.06
667.218	82.06
667.421	79.06
667.624	82.06
667.827	76.06
668.03	93.06
668.232	78.06
668.435	84.06
668.638	77.06
668.841	85.06
669.043	58.06
669.246	77.06
669.449	78.06
669.651	77.06
669.854	73.06
670.057	84.06
670.259	74.06
670.462	68.06
670.665	61.06
670.867	89.06
671.07	72.06
671.272	74.06
671.475	89.06
671.677	72.06
671.88	87.06
672.082	66.06
672.284	77.06
672.487	80.06
672.689	72.06
672.892	78.06
