Data from Uncirc_1980_H10_HRD10591_00081.txt Node
Date: Wed Jan 03 12:37:11 EST 2024
User: Yrep
Spectrometer: HR+D1059
Trigger mode: 1
Integration Time (sec): 1.000000E-1
Scans to average: 1
Electric dark correction enabled: true
Nonlinearity correction enabled: false
Boxcar width: 0
XAxis mode: Wavelengths
Number of Pixels in Spectrum: 2048
>>>>>Begin Spectral Data<<<<<
223.165	-20
223.4	-20
223.635	-20
223.869	-24
224.104	-18
224.338	-10
224.573	-19
224.808	-11
225.042	-6
225.277	-1
225.511	4
225.746	16
225.98	13
226.215	5
226.449	17
226.683	21
226.918	10
227.152	23
227.387	38
227.621	40
227.856	44
228.09	55
228.324	51
228.559	51
228.793	48
229.027	56
229.262	63
229.496	61
229.73	80
229.964	74
230.199	65
230.433	65
230.667	80
230.901	80
231.136	68
231.37	82
231.604	81
231.838	82
232.072	94
232.306	65
232.541	85
232.775	92
233.009	66
233.243	80
233.477	77
233.711	76
233.945	72
234.179	80
234.413	58
234.647	95
234.881	88
235.115	76
235.349	64
235.583	70
235.817	66
236.051	89
236.285	71
236.519	68
236.753	84
236.987	71
237.221	77
237.455	69
237.689	81
237.922	72
238.156	80
238.39	73
238.624	83
238.858	92
239.091	71
239.325	64
239.559	83
239.793	92
240.027	85
240.26	77
240.494	74
240.728	65
240.961	75
241.195	76
241.429	76
241.662	67
241.896	72
242.13	77
242.363	76
242.597	73
242.83	93
243.064	88
243.298	73
243.531	76
243.765	74
243.998	85
244.232	72
244.465	84
244.699	66
244.932	77
245.166	80
245.399	78
245.633	75
245.866	85
246.099	68
246.333	90
246.566	80
246.8	72
247.033	66
247.266	85
247.5	76
247.733	85
247.966	64
248.2	80
248.433	69
248.666	80
248.899	73
249.133	91
249.366	98
249.599	93
249.832	67
250.066	82
250.299	72
250.532	72
250.765	75
250.998	89
251.231	79
251.465	81
251.698	75
251.931	80
252.164	90
252.397	84
252.63	67
252.863	73
253.096	73
253.329	80
253.562	77
253.795	71
254.028	88
254.261	93
254.494	91
254.727	76
254.96	75
255.193	80
255.426	84
255.659	76
255.892	86
256.124	68
256.357	84
256.59	80
256.823	85
257.056	78
257.289	83
257.521	88
257.754	80
257.987	82
258.22	83
258.452	74
258.685	80
258.918	90
259.151	96
259.383	76
259.616	78
259.849	74
260.081	73
260.314	84
260.547	85
260.779	93
261.012	84
261.244	88
261.477	100
261.71	94
261.942	90
262.175	106
262.407	81
262.64	90
262.872	84
263.105	80
263.337	81
263.57	72
263.802	92
264.035	81
264.267	85
264.499	89
264.732	89
264.964	87
265.197	92
265.429	93
265.661	79
265.894	80
266.126	82
266.358	75
266.591	81
266.823	78
267.055	80
267.287	74
267.52	84
267.752	92
267.984	85
268.216	85
268.448	74
268.681	96
268.913	86
269.145	74
269.377	81
269.609	88
269.841	84
270.073	88
270.306	90
270.538	81
270.77	96
271.002	73
271.234	84
271.466	82
271.698	68
271.93	75
272.162	78
272.394	84
272.626	90
272.858	90
273.09	77
273.322	88
273.553	83
273.785	84
274.017	74
274.249	89
274.481	79
274.713	81
274.945	85
275.176	76
275.408	80
275.64	91
275.872	88
276.104	77
276.335	86
276.567	91
276.799	98
277.031	83
277.262	90
277.494	77
277.726	93
277.957	88
278.189	77
278.421	86
278.652	75
278.884	83
279.115	79
279.347	83
279.579	80
279.81	97
280.042	75
280.273	80
280.505	77
280.736	89
280.968	86
281.199	93
281.431	87
281.662	82
281.894	87
282.125	87
282.356	100
282.588	106
282.819	100
283.051	94
283.282	92
283.513	89
283.745	93
283.976	68
284.207	82
284.439	100
284.67	87
284.901	77
285.132	80
285.364	86
285.595	88
285.826	88
286.057	79
286.288	87
286.52	92
286.751	88
286.982	80
287.213	66
287.444	91
287.675	86
287.906	74
288.138	80
288.369	101
288.6	89
288.831	69
289.062	100
289.293	78
289.524	86
289.755	75
289.986	86
290.217	82
290.448	83
290.679	100
290.91	93
291.141	102
291.371	90
291.602	86
291.833	88
292.064	85
292.295	96
292.526	97
292.757	77
292.987	76
293.218	93
293.449	80
293.68	85
293.91	85
294.141	84
294.372	81
294.603	90
294.833	85
295.064	91
295.295	86
295.525	101
295.756	90
295.987	117
296.217	109
296.448	126
296.679	107
296.909	89
297.14	96
297.37	84
297.601	92
297.831	104
298.062	84
298.292	77
298.523	73
298.753	84
298.984	82
299.214	81
299.445	81
299.675	85
299.905	100
300.136	86
300.366	84
300.597	89
300.827	89
301.057	92
301.288	105
301.518	98
301.748	93
301.979	96
302.209	104
302.439	91
302.669	81
302.9	83
303.13	94
303.36	96
303.59	94
303.82	98
304.051	92
304.281	85
304.511	100
304.741	84
304.971	90
305.201	96
305.431	95
305.661	94
305.891	93
306.121	87
306.352	100
306.582	86
306.812	85
307.042	89
307.272	85
307.502	89
307.731	81
307.961	86
308.191	86
308.421	93
308.651	82
308.881	90
309.111	89
309.341	85
309.571	94
309.8	84
310.03	101
310.26	80
310.49	93
310.72	102
310.949	87
311.179	88
311.409	106
311.639	101
311.868	90
312.098	82
312.328	104
312.557	89
312.787	92
313.017	97
313.246	77
313.476	104
313.706	100
313.935	89
314.165	102
314.394	87
314.624	85
314.853	101
315.083	85
315.312	95
315.542	98
315.771	84
316.001	70
316.23	97
316.46	101
316.689	84
316.919	91
317.148	87
317.377	92
317.607	97
317.836	88
318.065	98
318.295	77
318.524	87
318.753	82
318.983	92
319.212	104
319.441	99
319.67	95
319.9	88
320.129	87
320.358	91
320.587	84
320.816	96
321.046	87
321.275	91
321.504	102
321.733	87
321.962	92
322.191	94
322.42	105
322.649	106
322.878	87
323.108	108
323.337	112
323.566	110
323.795	139
324.024	175
324.253	288
324.482	572
324.71	1146
324.939	1490
325.168	548
325.397	182
325.626	113
325.855	121
326.084	110
326.313	118
326.542	123
326.77	176
326.999	320
327.228	646
327.457	1170
327.686	921
327.914	279
328.143	149
328.372	117
328.6	93
328.829	123
329.058	109
329.287	104
329.515	93
329.744	100
329.972	98
330.201	117
330.43	135
330.658	109
330.887	115
331.115	101
331.344	102
331.572	102
331.801	90
332.03	100
332.258	92
332.486	85
332.715	92
332.943	84
333.172	100
333.4	106
333.629	97
333.857	93
334.085	98
334.314	109
334.542	115
334.771	97
334.999	95
335.227	93
335.455	87
335.684	100
335.912	85
336.14	99
336.369	89
336.597	96
336.825	84
337.053	93
337.281	92
337.51	84
337.738	97
337.966	80
338.194	100
338.422	94
338.65	95
338.878	105
339.106	91
339.334	87
339.562	98
339.79	93
340.018	95
340.246	82
340.474	79
340.702	102
340.93	94
341.158	91
341.386	94
341.614	81
341.842	91
342.07	83
342.298	101
342.526	91
342.754	89
342.981	84
343.209	90
343.437	86
343.665	86
343.893	85
344.12	90
344.348	83
344.576	92
344.804	90
345.031	72
345.259	84
345.487	91
345.714	94
345.942	95
346.17	82
346.397	83
346.625	82
346.853	96
347.08	94
347.308	90
347.535	105
347.763	101
347.99	86
348.218	95
348.445	84
348.673	93
348.9	100
349.128	74
349.355	70
349.583	97
349.81	89
350.037	88
350.265	79
350.492	96
350.72	97
350.947	91
351.174	93
351.402	104
351.629	110
351.856	97
352.083	106
352.311	100
352.538	101
352.765	102
352.992	107
353.22	90
353.447	96
353.674	80
353.901	73
354.128	90
354.355	88
354.583	103
354.81	87
355.037	84
355.264	84
355.491	76
355.718	82
355.945	86
356.172	85
356.399	94
356.626	98
356.853	86
357.08	84
357.307	93
357.534	92
357.761	82
357.988	88
358.215	95
358.441	85
358.668	93
358.895	86
359.122	89
359.349	90
359.576	91
359.802	89
360.029	98
360.256	101
360.483	83
360.709	95
360.936	88
361.163	100
361.39	88
361.616	79
361.843	81
362.07	78
362.296	96
362.523	100
362.749	93
362.976	88
363.203	94
363.429	80
363.656	80
363.882	76
364.109	86
364.335	100
364.562	82
364.788	84
365.015	86
365.241	86
365.468	103
365.694	102
365.92	107
366.147	101
366.373	77
366.599	91
366.826	91
367.052	96
367.278	99
367.505	86
367.731	88
367.957	93
368.184	84
368.41	90
368.636	98
368.862	115
369.089	90
369.315	80
369.541	86
369.767	82
369.993	82
370.219	97
370.445	102
370.672	86
370.898	96
371.124	84
371.35	82
371.576	90
371.802	89
372.028	89
372.254	89
372.48	56
372.706	76
372.932	78
373.158	83
373.384	98
373.61	90
373.835	70
374.061	83
374.287	107
374.513	87
374.739	90
374.965	98
375.191	76
375.416	92
375.642	87
375.868	86
376.094	92
376.319	90
376.545	107
376.771	89
376.997	99
377.222	84
377.448	102
377.674	89
377.899	76
378.125	90
378.35	102
378.576	88
378.802	101
379.027	89
379.253	72
379.478	86
379.704	88
379.929	92
380.155	104
380.38	105
380.606	85
380.831	92
381.057	86
381.282	89
381.507	91
381.733	77
381.958	86
382.184	98
382.409	98
382.634	101
382.86	102
383.085	104
383.31	92
383.535	97
383.761	102
383.986	104
384.211	77
384.436	86
384.662	104
384.887	94
385.112	95
385.337	106
385.562	109
385.787	97
386.013	98
386.238	97
386.463	100
386.688	112
386.913	104
387.138	107
387.363	106
387.588	104
387.813	105
388.038	99
388.263	114
388.488	109
388.713	104
388.938	86
389.163	77
389.387	97
389.612	102
389.837	84
390.062	102
390.287	87
390.512	89
390.736	99
390.961	88
391.186	99
391.411	93
391.636	100
391.86	96
392.085	70
392.31	80
392.534	77
392.759	84
392.984	80
393.208	74
393.433	84
393.658	83
393.882	74
394.107	86
394.331	81
394.556	90
394.78	98
395.005	82
395.229	81
395.454	82
395.678	77
395.903	89
396.127	97
396.352	81
396.576	79
396.801	80
397.025	78
397.249	69
397.474	78
397.698	94
397.922	73
398.147	76
398.371	88
398.595	84
398.82	108
399.044	74
399.268	82
399.492	76
399.717	70
399.941	88
400.165	97
400.389	87
400.613	92
400.837	99
401.062	93
401.286	92
401.51	93
401.734	96
401.958	99
402.182	104
402.406	123
402.63	103
402.854	85
403.078	83
403.302	105
403.526	92
403.75	109
403.974	82
404.198	97
404.422	85
404.645	80
404.869	84
405.093	88
405.317	87
405.541	108
405.765	98
405.988	101
406.212	149
406.436	179
406.66	126
406.883	91
407.107	78
407.331	98
407.555	100
407.778	93
408.002	89
408.226	85
408.449	94
408.673	86
408.896	83
409.12	84
409.344	78
409.567	94
409.791	99
410.014	98
410.238	89
410.461	84
410.685	94
410.908	105
411.132	83
411.355	84
411.578	102
411.802	97
412.025	107
412.249	98
412.472	94
412.695	91
412.919	81
413.142	87
413.365	90
413.589	80
413.812	80
414.035	109
414.258	107
414.482	87
414.705	83
414.928	69
415.151	91
415.374	77
415.597	87
415.821	86
416.044	90
416.267	80
416.49	92
416.713	80
416.936	70
417.159	80
417.382	86
417.605	88
417.828	92
418.051	76
418.274	93
418.497	82
418.72	67
418.943	92
419.166	102
419.389	102
419.611	95
419.834	91
420.057	80
420.28	80
420.503	83
420.726	80
420.948	82
421.171	100
421.394	88
421.617	83
421.839	80
422.062	93
422.285	81
422.507	90
422.73	93
422.953	83
423.175	71
423.398	89
423.621	80
423.843	98
424.066	83
424.288	81
424.511	83
424.733	94
424.956	90
425.178	87
425.401	90
425.623	89
425.846	88
426.068	84
426.291	92
426.513	96
426.735	84
426.958	88
427.18	100
427.402	123
427.625	131
427.847	116
428.069	80
428.292	97
428.514	83
428.736	75
428.958	75
429.181	88
429.403	88
429.625	81
429.847	74
430.069	92
430.292	84
430.514	88
430.736	91
430.958	87
431.18	76
431.402	96
431.624	74
431.846	82
432.068	92
432.29	77
432.512	78
432.734	88
432.956	86
433.178	97
433.4	92
433.622	97
433.844	98
434.066	87
434.287	68
434.509	84
434.731	88
434.953	89
435.175	83
435.397	83
435.618	82
435.84	99
436.062	101
436.284	98
436.505	102
436.727	93
436.949	92
437.17	93
437.392	90
437.614	86
437.835	84
438.057	101
438.278	103
438.5	102
438.721	106
438.943	90
439.165	83
439.386	80
439.608	98
439.829	99
440.05	99
440.272	121
440.493	84
440.715	86
440.936	88
441.158	89
441.379	101
441.6	98
441.822	69
442.043	88
442.264	90
442.486	93
442.707	83
442.928	91
443.149	94
443.371	105
443.592	100
443.813	91
444.034	90
444.255	81
444.476	80
444.698	86
444.919	90
445.14	116
445.361	100
445.582	100
445.803	117
446.024	110
446.245	106
446.466	102
446.687	84
446.908	83
447.129	77
447.35	91
447.571	103
447.792	87
448.013	101
448.234	109
448.455	92
448.675	121
448.896	104
449.117	98
449.338	107
449.559	118
449.779	98
450	87
450.221	95
450.442	78
450.662	99
450.883	96
451.104	83
451.324	85
451.545	91
451.766	77
451.986	78
452.207	88
452.428	77
452.648	88
452.869	107
453.089	82
453.31	106
453.53	83
453.751	87
453.971	111
454.192	103
454.412	81
454.633	99
454.853	85
455.073	89
455.294	78
455.514	94
455.734	92
455.955	97
456.175	77
456.395	81
456.616	80
456.836	81
457.056	86
457.276	87
457.497	71
457.717	72
457.937	85
458.157	72
458.377	102
458.598	92
458.818	122
459.038	123
459.258	90
459.478	98
459.698	78
459.918	93
460.138	91
460.358	100
460.578	96
460.798	91
461.018	90
461.238	100
461.458	89
461.678	80
461.898	92
462.118	79
462.338	91
462.558	82
462.777	78
462.997	82
463.217	90
463.437	89
463.657	85
463.876	104
464.096	93
464.316	72
464.536	98
464.755	96
464.975	99
465.195	123
465.414	129
465.634	70
465.854	87
466.073	81
466.293	94
466.512	84
466.732	85
466.951	91
467.171	108
467.391	81
467.61	98
467.829	83
468.049	94
468.268	84
468.488	88
468.707	96
468.927	89
469.146	93
469.365	89
469.585	82
469.804	96
470.023	100
470.243	95
470.462	83
470.681	90
470.901	87
471.12	85
471.339	85
471.558	88
471.777	85
471.997	87
472.216	102
472.435	118
472.654	100
472.873	96
473.092	88
473.311	80
473.53	80
473.749	83
473.968	78
474.187	104
474.406	90
474.625	88
474.844	86
475.063	86
475.282	94
475.501	66
475.72	83
475.939	75
476.158	93
476.377	91
476.596	86
476.814	93
477.033	75
477.252	77
477.471	62
477.69	97
477.908	93
478.127	100
478.346	93
478.564	74
478.783	75
479.002	76
479.22	93
479.439	86
479.658	97
479.876	90
480.095	78
480.313	96
480.532	77
480.751	84
480.969	108
481.188	158
481.406	115
481.624	78
481.843	90
482.061	85
482.28	82
482.498	100
482.717	86
482.935	92
483.153	79
483.372	85
483.59	77
483.808	100
484.027	98
484.245	97
484.463	80
484.681	80
484.9	85
485.118	92
485.336	73
485.554	103
485.772	105
485.99	90
486.209	100
486.427	98
486.645	102
486.863	102
487.081	96
487.299	95
487.517	94
487.735	86
487.953	88
488.171	85
488.389	94
488.607	91
488.825	87
489.043	76
489.261	91
489.479	84
489.696	85
489.914	82
490.132	86
490.35	96
490.568	105
490.786	82
491.003	85
491.221	98
491.439	92
491.657	101
491.874	90
492.092	74
492.31	85
492.527	88
492.745	74
492.963	96
493.18	92
493.398	90
493.615	95
493.833	88
494.05	90
494.268	97
494.485	96
494.703	90
494.92	86
495.138	93
495.355	87
495.573	97
495.79	72
496.008	84
496.225	85
496.442	96
496.66	73
496.877	86
497.094	110
497.312	98
497.529	86
497.746	92
497.963	94
498.181	99
498.398	96
498.615	88
498.832	95
499.049	67
499.267	91
499.484	82
499.701	96
499.918	84
500.135	106
500.352	84
500.569	80
500.786	90
501.003	92
501.22	89
501.437	81
501.654	100
501.871	94
502.088	100
502.305	96
502.522	96
502.739	86
502.956	76
503.172	91
503.389	80
503.606	106
503.823	90
504.04	91
504.256	87
504.473	79
504.69	87
504.907	84
505.123	76
505.34	84
505.557	94
505.773	80
505.99	88
506.207	84
506.423	110
506.64	83
506.856	102
507.073	85
507.289	93
507.506	92
507.722	99
507.939	93
508.155	92
508.372	74
508.588	83
508.805	92
509.021	97
509.238	91
509.454	92
509.67	93
509.887	112
510.103	120
510.319	191
510.536	574
510.752	1774
510.968	496
511.184	125
511.401	100
511.617	94
511.833	78
512.049	78
512.265	88
512.481	86
512.698	98
512.914	78
513.13	89
513.346	86
513.562	80
513.778	85
513.994	88
514.21	93
514.426	118
514.642	106
514.858	113
515.074	138
515.29	328
515.506	993
515.721	389
515.937	131
516.153	99
516.369	92
516.585	105
516.801	91
517.016	86
517.232	93
517.448	108
517.664	98
517.879	84
518.095	88
518.311	88
518.527	98
518.742	84
518.958	87
519.173	86
519.389	94
519.605	89
519.82	90
520.036	107
520.251	102
520.467	104
520.682	103
520.898	88
521.113	105
521.329	124
521.544	149
521.76	408
521.975	1639
522.19	942
522.406	227
522.621	119
522.836	106
523.052	88
523.267	92
523.482	82
523.698	88
523.913	115
524.128	96
524.343	92
524.559	80
524.774	83
524.989	85
525.204	93
525.419	98
525.634	96
525.849	89
526.064	88
526.28	91
526.495	84
526.71	103
526.925	115
527.14	84
527.355	82
527.57	80
527.785	91
527.999	86
528.214	91
528.429	98
528.644	97
528.859	95
529.074	92
529.289	118
529.503	154
529.718	105
529.933	96
530.148	91
530.363	104
530.577	86
530.792	90
531.007	86
531.221	99
531.436	78
531.651	101
531.865	109
532.08	84
532.295	92
532.509	96
532.724	73
532.938	90
533.153	99
533.367	66
533.582	94
533.796	94
534.011	86
534.225	89
534.44	80
534.654	84
534.868	96
535.083	115
535.297	84
535.511	81
535.726	93
535.94	99
536.154	64
536.369	83
536.583	84
536.797	93
537.011	72
537.225	84
537.44	76
537.654	102
537.868	86
538.082	66
538.296	84
538.51	78
538.724	84
538.938	92
539.153	102
539.367	98
539.581	106
539.795	107
540.009	97
540.222	85
540.436	84
540.65	66
540.864	86
541.078	98
541.292	97
541.506	84
541.72	85
541.934	98
542.147	81
542.361	89
542.575	94
542.789	89
543.002	89
543.216	85
543.43	109
543.644	89
543.857	87
544.071	86
544.285	97
544.498	90
544.712	87
544.925	88
545.139	95
545.352	86
545.566	81
545.779	82
545.993	78
546.206	84
546.42	77
546.633	100
546.847	98
547.06	94
547.274	96
547.487	89
547.7	88
547.914	98
548.127	88
548.34	88
548.554	93
548.767	91
548.98	93
549.193	91
549.407	76
549.62	74
549.833	81
550.046	76
550.259	84
550.473	84
550.686	82
550.899	93
551.112	106
551.325	80
551.538	77
551.751	89
551.964	98
552.177	90
552.39	79
552.603	97
552.816	87
553.029	93
553.242	83
553.455	75
553.667	94
553.88	90
554.093	86
554.306	99
554.519	92
554.732	86
554.944	85
555.157	90
555.37	88
555.583	104
555.795	96
556.008	85
556.221	100
556.433	104
556.646	91
556.859	98
557.071	92
557.284	78
557.496	108
557.709	86
557.921	74
558.134	86
558.346	84
558.559	83
558.771	70
558.984	91
559.196	90
559.409	92
559.621	88
559.833	89
560.046	85
560.258	81
560.47	80
560.683	95
560.895	92
561.107	93
561.32	93
561.532	93
561.744	73
561.956	93
562.168	93
562.381	86
562.593	83
562.805	94
563.017	89
563.229	84
563.441	77
563.653	83
563.865	84
564.077	84
564.289	76
564.501	84
564.713	92
564.925	105
565.137	89
565.349	88
565.561	90
565.773	91
565.985	107
566.197	100
566.408	90
566.62	80
566.832	73
567.044	78
567.255	86
567.467	85
567.679	82
567.891	76
568.102	83
568.314	84
568.526	94
568.737	75
568.949	96
569.161	74
569.372	93
569.584	89
569.795	94
570.007	95
570.218	202
570.43	121
570.641	78
570.853	86
571.064	92
571.276	87
571.487	88
571.698	90
571.91	81
572.121	84
572.333	104
572.544	81
572.755	80
572.966	85
573.178	83
573.389	90
573.6	84
573.811	98
574.023	80
574.234	93
574.445	81
574.656	69
574.867	91
575.078	88
575.289	87
575.501	87
575.712	83
575.923	86
576.134	85
576.345	91
576.556	97
576.767	92
576.978	84
577.188	77
577.399	74
577.61	86
577.821	88
578.032	117
578.243	229
578.454	586
578.665	176
578.875	98
579.086	96
579.297	90
579.508	90
579.718	98
579.929	91
580.14	94
580.35	84
580.561	87
580.772	84
580.982	82
581.193	93
581.403	83
581.614	98
581.825	84
582.035	84
582.246	86
582.456	81
582.667	100
582.877	88
583.087	88
583.298	75
583.508	86
583.719	66
583.929	87
584.139	82
584.35	98
584.56	101
584.77	74
584.981	88
585.191	89
585.401	81
585.611	85
585.821	80
586.032	94
586.242	76
586.452	87
586.662	80
586.872	72
587.082	87
587.292	75
587.502	80
587.713	83
587.923	81
588.133	74
588.343	83
588.553	92
588.762	85
588.972	104
589.182	100
589.392	86
589.602	90
589.812	81
590.022	101
590.232	82
590.441	92
590.651	86
590.861	92
591.071	91
591.281	88
591.49	86
591.7	84
591.91	82
592.119	85
592.329	94
592.539	92
592.748	95
592.958	70
593.167	84
593.377	80
593.587	84
593.796	84
594.006	85
594.215	88
594.424	81
594.634	91
594.843	82
595.053	94
595.262	100
595.472	94
595.681	86
595.89	84
596.1	96
596.309	84
596.518	89
596.727	92
596.937	92
597.146	96
597.355	84
597.564	68
597.774	88
597.983	83
598.192	83
598.401	89
598.61	88
598.819	86
599.028	94
599.237	90
599.446	82
599.655	77
599.864	86
600.073	86
600.282	91
600.491	68
600.7	96
600.909	74
601.118	105
601.327	90
601.536	101
601.745	83
601.953	86
602.162	74
602.371	98
602.58	80
602.789	95
602.997	73
603.206	81
603.415	78
603.623	78
603.832	86
604.041	90
604.249	93
604.458	96
604.666	87
604.875	92
605.084	94
605.292	93
605.501	87
605.709	76
605.918	93
606.126	90
606.334	93
606.543	100
606.751	79
606.96	87
607.168	95
607.376	81
607.585	90
607.793	85
608.001	73
608.21	81
608.418	78
608.626	75
608.834	84
609.043	95
609.251	84
609.459	78
609.667	97
609.875	84
610.083	91
610.291	84
610.499	93
610.707	87
610.916	80
611.124	76
611.332	86
611.54	87
611.748	86
611.955	84
612.163	79
612.371	74
612.579	91
612.787	80
612.995	92
613.203	83
613.411	84
613.618	93
613.826	84
614.034	88
614.242	91
614.449	90
614.657	66
614.865	90
615.072	90
615.28	85
615.488	81
615.695	98
615.903	91
616.111	103
616.318	93
616.526	99
616.733	90
616.941	91
617.148	101
617.356	84
617.563	94
617.771	101
617.978	75
618.185	81
618.393	72
618.6	88
618.807	85
619.015	95
619.222	85
619.429	103
619.637	89
619.844	85
620.051	80
620.258	87
620.466	75
620.673	86
620.88	84
621.087	91
621.294	85
621.501	96
621.708	81
621.915	98
622.122	77
622.329	94
622.536	93
622.743	91
622.95	88
623.157	69
623.364	78
623.571	95
623.778	92
623.985	82
624.192	87
624.399	80
624.606	91
624.812	83
625.019	84
625.226	65
625.433	99
625.639	89
625.846	88
626.053	88
626.259	81
626.466	80
626.673	88
626.879	85
627.086	82
627.293	76
627.499	82
627.706	93
627.912	75
628.119	80
628.325	87
628.532	92
628.738	80
628.945	88
629.151	82
629.357	82
629.564	73
629.77	73
629.976	80
630.183	78
630.389	90
630.595	87
630.802	83
631.008	80
631.214	67
631.42	70
631.627	85
631.833	66
632.039	83
632.245	93
632.451	81
632.657	92
632.863	72
633.069	78
633.275	89
633.481	74
633.688	86
633.893	89
634.099	92
634.305	88
634.511	85
634.717	86
634.923	68
635.129	84
635.335	88
635.541	86
635.747	84
635.952	78
636.158	86
636.364	97
636.57	80
636.775	82
636.981	81
637.187	78
637.392	95
637.598	94
637.804	81
638.009	89
638.215	82
638.421	70
638.626	83
638.832	86
639.037	73
639.243	80
639.448	91
639.654	82
639.859	91
640.065	92
640.27	93
640.475	80
640.681	91
640.886	71
641.091	86
641.297	92
641.502	89
641.707	80
641.913	76
642.118	69
642.323	77
642.528	77
642.733	66
642.939	88
643.144	83
643.349	85
643.554	90
643.759	94
643.964	81
644.169	92
644.374	84
644.579	82
644.784	70
644.989	87
645.194	94
645.399	88
645.604	77
645.809	72
646.014	85
646.219	82
646.423	75
646.628	80
646.833	81
647.038	98
647.243	90
647.447	93
647.652	94
647.857	74
648.062	84
648.266	91
648.471	91
648.676	89
648.88	93
649.085	72
649.289	76
649.494	107
649.698	105
649.903	89
650.107	89
650.312	92
650.516	80
650.721	84
650.925	74
651.13	84
651.334	88
651.539	89
651.743	77
651.947	80
652.152	93
652.356	86
652.56	92
652.764	74
652.969	71
653.173	77
653.377	81
653.581	86
653.785	96
653.99	89
654.194	92
654.398	71
654.602	78
654.806	80
655.01	92
655.214	93
655.418	95
655.622	78
655.826	84
656.03	89
656.234	86
656.438	80
656.642	97
656.846	82
657.049	83
657.253	76
657.457	80
657.661	77
657.865	83
658.068	88
658.272	88
658.476	74
658.68	90
658.883	92
659.087	70
659.291	70
659.494	69
659.698	67
659.901	86
660.105	62
660.309	80
660.512	91
660.716	90
660.919	80
661.123	89
661.326	68
661.53	72
661.733	86
661.936	86
662.14	70
662.343	67
662.546	90
662.75	61
662.953	75
663.156	78
663.36	69
663.563	73
663.766	68
663.969	94
664.173	84
664.376	71
664.579	88
664.782	87
664.985	80
665.188	78
665.391	72
665.594	66
665.797	69
666	70
666.203	88
666.406	70
666.609	72
666.812	73
667.015	89
667.218	80
667.421	80
667.624	78
667.827	78
668.03	70
668.232	74
668.435	84
668.638	84
668.841	87
669.043	72
669.246	85
669.449	90
669.651	85
669.854	91
670.057	77
670.259	95
670.462	69
670.665	72
670.867	80
671.07	95
671.272	101
671.475	101
671.677	70
671.88	74
672.082	71
672.284	76
672.487	77
672.689	80
672.892	78
