Data from Uncirc_1980_H10_HRD10591_00023.txt Node
Date: Wed Jan 03 12:37:00 EST 2024
User: Yrep
Spectrometer: HR+D1059
Trigger mode: 1
Integration Time (sec): 1.000000E-1
Scans to average: 1
Electric dark correction enabled: true
Nonlinearity correction enabled: false
Boxcar width: 0
XAxis mode: Wavelengths
Number of Pixels in Spectrum: 2048
>>>>>Begin Spectral Data<<<<<
223.165	-7
223.4	-7
223.635	-7
223.869	-20
224.104	-18
224.338	-9
224.573	-11
224.808	-22
225.042	-21
225.277	-16
225.511	-6
225.746	13
225.98	8
226.215	21
226.449	17
226.683	13
226.918	19
227.152	39
227.387	23
227.621	34
227.856	51
228.09	57
228.324	54
228.559	67
228.793	41
229.027	67
229.262	53
229.496	70
229.73	76
229.964	87
230.199	79
230.433	75
230.667	78
230.901	81
231.136	85
231.37	84
231.604	78
231.838	79
232.072	76
232.306	89
232.541	97
232.775	86
233.009	73
233.243	71
233.477	80
233.711	89
233.945	78
234.179	89
234.413	78
234.647	73
234.881	92
235.115	81
235.349	96
235.583	86
235.817	66
236.051	71
236.285	77
236.519	72
236.753	77
236.987	97
237.221	83
237.455	84
237.689	82
237.922	85
238.156	66
238.39	81
238.624	81
238.858	72
239.091	78
239.325	63
239.559	81
239.793	77
240.027	90
240.26	70
240.494	97
240.728	74
240.961	72
241.195	73
241.429	75
241.662	74
241.896	71
242.13	65
242.363	68
242.597	74
242.83	69
243.064	62
243.298	75
243.531	70
243.765	88
243.998	89
244.232	82
244.465	82
244.699	90
244.932	78
245.166	81
245.399	79
245.633	83
245.866	80
246.099	73
246.333	71
246.566	76
246.8	55
247.033	79
247.266	76
247.5	71
247.733	78
247.966	72
248.2	69
248.433	70
248.666	63
248.899	90
249.133	74
249.366	97
249.599	108
249.832	80
250.066	67
250.299	85
250.532	74
250.765	84
250.998	77
251.231	80
251.465	83
251.698	75
251.931	98
252.164	77
252.397	73
252.63	71
252.863	77
253.096	83
253.329	77
253.562	81
253.795	70
254.028	93
254.261	83
254.494	83
254.727	90
254.96	81
255.193	70
255.426	76
255.659	71
255.892	94
256.124	73
256.357	78
256.59	76
256.823	74
257.056	81
257.289	76
257.521	83
257.754	80
257.987	74
258.22	85
258.452	87
258.685	76
258.918	82
259.151	79
259.383	78
259.616	82
259.849	82
260.081	91
260.314	87
260.547	74
260.779	81
261.012	85
261.244	92
261.477	87
261.71	77
261.942	94
262.175	95
262.407	83
262.64	74
262.872	83
263.105	81
263.337	100
263.57	83
263.802	106
264.035	76
264.267	77
264.499	75
264.732	85
264.964	93
265.197	90
265.429	82
265.661	89
265.894	92
266.126	101
266.358	94
266.591	83
266.823	68
267.055	83
267.287	87
267.52	92
267.752	92
267.984	82
268.216	86
268.448	69
268.681	87
268.913	87
269.145	79
269.377	78
269.609	76
269.841	74
270.073	86
270.306	88
270.538	88
270.77	72
271.002	89
271.234	87
271.466	91
271.698	82
271.93	85
272.162	82
272.394	79
272.626	79
272.858	87
273.09	89
273.322	99
273.553	91
273.785	93
274.017	63
274.249	97
274.481	85
274.713	81
274.945	89
275.176	90
275.408	78
275.64	85
275.872	99
276.104	94
276.335	99
276.567	83
276.799	77
277.031	88
277.262	84
277.494	94
277.726	102
277.957	89
278.189	76
278.421	72
278.652	79
278.884	83
279.115	71
279.347	83
279.579	87
279.81	95
280.042	87
280.273	101
280.505	106
280.736	81
280.968	92
281.199	86
281.431	76
281.662	79
281.894	92
282.125	80
282.356	101
282.588	121
282.819	105
283.051	90
283.282	100
283.513	103
283.745	93
283.976	82
284.207	85
284.439	77
284.67	86
284.901	83
285.132	93
285.364	87
285.595	82
285.826	91
286.057	83
286.288	75
286.52	78
286.751	92
286.982	92
287.213	92
287.444	86
287.675	95
287.906	98
288.138	89
288.369	100
288.6	108
288.831	89
289.062	101
289.293	85
289.524	92
289.755	98
289.986	94
290.217	77
290.448	94
290.679	85
290.91	79
291.141	80
291.371	95
291.602	88
291.833	85
292.064	91
292.295	95
292.526	90
292.757	89
292.987	83
293.218	83
293.449	87
293.68	79
293.91	95
294.141	83
294.372	89
294.603	90
294.833	84
295.064	89
295.295	85
295.525	90
295.756	106
295.987	102
296.217	110
296.448	101
296.679	92
296.909	91
297.14	81
297.37	87
297.601	85
297.831	82
298.062	84
298.292	93
298.523	87
298.753	94
298.984	92
299.214	88
299.445	85
299.675	99
299.905	87
300.136	89
300.366	109
300.597	89
300.827	94
301.057	82
301.288	96
301.518	98
301.748	89
301.979	99
302.209	97
302.439	91
302.669	85
302.9	85
303.13	95
303.36	78
303.59	95
303.82	100
304.051	86
304.281	94
304.511	86
304.741	103
304.971	92
305.201	94
305.431	86
305.661	99
305.891	94
306.121	105
306.352	114
306.582	95
306.812	95
307.042	89
307.272	89
307.502	102
307.731	99
307.961	90
308.191	86
308.421	92
308.651	93
308.881	99
309.111	98
309.341	93
309.571	86
309.8	93
310.03	104
310.26	94
310.49	100
310.72	98
310.949	100
311.179	83
311.409	89
311.639	85
311.868	85
312.098	109
312.328	82
312.557	92
312.787	104
313.017	105
313.246	101
313.476	94
313.706	103
313.935	106
314.165	102
314.394	117
314.624	84
314.853	86
315.083	83
315.312	94
315.542	102
315.771	103
316.001	79
316.23	93
316.46	87
316.689	89
316.919	92
317.148	101
317.377	95
317.607	91
317.836	89
318.065	97
318.295	79
318.524	79
318.753	81
318.983	95
319.212	87
319.441	111
319.67	85
319.9	94
320.129	76
320.358	89
320.587	95
320.816	95
321.046	102
321.275	88
321.504	88
321.733	106
321.962	95
322.191	102
322.42	91
322.649	100
322.878	97
323.108	108
323.337	115
323.566	105
323.795	110
324.024	163
324.253	293
324.482	579
324.71	1170
324.939	1524
325.168	569
325.397	184
325.626	117
325.855	124
326.084	120
326.313	108
326.542	129
326.77	187
326.999	342
327.228	669
327.457	1195
327.686	939
327.914	279
328.143	153
328.372	129
328.6	110
328.829	100
329.058	118
329.287	110
329.515	93
329.744	87
329.972	98
330.201	104
330.43	122
330.658	122
330.887	121
331.115	100
331.344	89
331.572	101
331.801	87
332.03	104
332.258	96
332.486	84
332.715	101
332.943	77
333.172	102
333.4	86
333.629	118
333.857	108
334.085	94
334.314	109
334.542	124
334.771	122
334.999	94
335.227	95
335.455	86
335.684	86
335.912	90
336.14	93
336.369	94
336.597	91
336.825	101
337.053	93
337.281	86
337.51	111
337.738	103
337.966	93
338.194	90
338.422	99
338.65	116
338.878	93
339.106	88
339.334	89
339.562	79
339.79	83
340.018	92
340.246	93
340.474	98
340.702	88
340.93	74
341.158	90
341.386	112
341.614	83
341.842	91
342.07	88
342.298	99
342.526	91
342.754	89
342.981	100
343.209	90
343.437	104
343.665	95
343.893	88
344.12	75
344.348	87
344.576	84
344.804	98
345.031	91
345.259	97
345.487	91
345.714	92
345.942	92
346.17	85
346.397	87
346.625	98
346.853	81
347.08	92
347.308	100
347.535	97
347.763	83
347.99	88
348.218	101
348.445	100
348.673	99
348.9	108
349.128	109
349.355	97
349.583	106
349.81	93
350.037	105
350.265	90
350.492	101
350.72	102
350.947	90
351.174	100
351.402	113
351.629	103
351.856	91
352.083	85
352.311	100
352.538	98
352.765	103
352.992	126
353.22	109
353.447	93
353.674	94
353.901	94
354.128	96
354.355	89
354.583	100
354.81	100
355.037	90
355.264	99
355.491	92
355.718	100
355.945	101
356.172	79
356.399	90
356.626	94
356.853	103
357.08	95
357.307	93
357.534	110
357.761	99
357.988	90
358.215	102
358.441	115
358.668	81
358.895	95
359.122	73
359.349	85
359.576	81
359.802	92
360.029	102
360.256	91
360.483	101
360.709	88
360.936	101
361.163	97
361.39	88
361.616	86
361.843	89
362.07	103
362.296	100
362.523	93
362.749	93
362.976	92
363.203	99
363.429	82
363.656	84
363.882	78
364.109	89
364.335	103
364.562	79
364.788	88
365.015	92
365.241	110
365.468	100
365.694	105
365.92	89
366.147	90
366.373	85
366.599	93
366.826	92
367.052	88
367.278	85
367.505	77
367.731	95
367.957	96
368.184	98
368.41	82
368.636	103
368.862	92
369.089	89
369.315	100
369.541	93
369.767	97
369.993	95
370.219	89
370.445	102
370.672	98
370.898	103
371.124	98
371.35	89
371.576	102
371.802	86
372.028	89
372.254	67
372.48	92
372.706	89
372.932	92
373.158	81
373.384	93
373.61	105
373.835	95
374.061	86
374.287	101
374.513	86
374.739	94
374.965	98
375.191	91
375.416	88
375.642	84
375.868	83
376.094	110
376.319	96
376.545	83
376.771	90
376.997	97
377.222	87
377.448	98
377.674	94
377.899	78
378.125	113
378.35	95
378.576	90
378.802	107
379.027	103
379.253	95
379.478	88
379.704	103
379.929	89
380.155	102
380.38	102
380.606	92
380.831	86
381.057	102
381.282	103
381.507	97
381.733	105
381.958	101
382.184	105
382.409	107
382.634	115
382.86	126
383.085	120
383.31	100
383.535	99
383.761	98
383.986	101
384.211	117
384.436	113
384.662	101
384.887	106
385.112	104
385.337	119
385.562	109
385.787	122
386.013	131
386.238	132
386.463	118
386.688	138
386.913	115
387.138	119
387.363	106
387.588	113
387.813	107
388.038	125
388.263	125
388.488	118
388.713	113
388.938	100
389.163	111
389.387	103
389.612	81
389.837	97
390.062	101
390.287	95
390.512	98
390.736	90
390.961	89
391.186	111
391.411	86
391.636	86
391.86	83
392.085	87
392.31	93
392.534	89
392.759	94
392.984	99
393.208	107
393.433	101
393.658	101
393.882	85
394.107	81
394.331	85
394.556	83
394.78	95
395.005	96
395.229	94
395.454	91
395.678	100
395.903	86
396.127	82
396.352	82
396.576	78
396.801	87
397.025	102
397.249	85
397.474	85
397.698	86
397.922	87
398.147	72
398.371	96
398.595	91
398.82	94
399.044	80
399.268	86
399.492	89
399.717	99
399.941	94
400.165	99
400.389	90
400.613	101
400.837	79
401.062	83
401.286	90
401.51	94
401.734	103
401.958	104
402.182	108
402.406	140
402.63	98
402.854	91
403.078	87
403.302	77
403.526	78
403.75	71
403.974	92
404.198	99
404.422	88
404.645	86
404.869	93
405.093	106
405.317	94
405.541	93
405.765	92
405.988	108
406.212	146
406.436	184
406.66	126
406.883	105
407.107	83
407.331	86
407.555	98
407.778	79
408.002	87
408.226	86
408.449	100
408.673	87
408.896	87
409.12	93
409.344	101
409.567	95
409.791	92
410.014	83
410.238	99
410.461	86
410.685	85
410.908	100
411.132	99
411.355	89
411.578	89
411.802	92
412.025	92
412.249	97
412.472	91
412.695	96
412.919	103
413.142	89
413.365	86
413.589	95
413.812	90
414.035	89
414.258	87
414.482	103
414.705	87
414.928	101
415.151	86
415.374	97
415.597	97
415.821	94
416.044	86
416.267	83
416.49	87
416.713	98
416.936	91
417.159	73
417.382	78
417.605	93
417.828	100
418.051	99
418.274	94
418.497	97
418.72	90
418.943	104
419.166	98
419.389	104
419.611	100
419.834	78
420.057	84
420.28	97
420.503	98
420.726	88
420.948	99
421.171	85
421.394	60
421.617	77
421.839	106
422.062	85
422.285	113
422.507	97
422.73	106
422.953	100
423.175	86
423.398	77
423.621	92
423.843	85
424.066	85
424.288	82
424.511	83
424.733	108
424.956	89
425.178	89
425.401	87
425.623	87
425.846	97
426.068	88
426.291	96
426.513	82
426.735	94
426.958	102
427.18	102
427.402	117
427.625	126
427.847	119
428.069	97
428.292	96
428.514	84
428.736	90
428.958	86
429.181	73
429.403	79
429.625	88
429.847	83
430.069	83
430.292	97
430.514	78
430.736	79
430.958	77
431.18	86
431.402	91
431.624	79
431.846	90
432.068	89
432.29	85
432.512	99
432.734	85
432.956	93
433.178	87
433.4	94
433.622	88
433.844	90
434.066	98
434.287	90
434.509	97
434.731	85
434.953	97
435.175	98
435.397	93
435.618	90
435.84	99
436.062	103
436.284	105
436.505	86
436.727	96
436.949	85
437.17	93
437.392	77
437.614	97
437.835	100
438.057	110
438.278	99
438.5	93
438.721	114
438.943	88
439.165	91
439.386	81
439.608	103
439.829	98
440.05	105
440.272	118
440.493	101
440.715	98
440.936	88
441.158	96
441.379	87
441.6	73
441.822	96
442.043	110
442.264	96
442.486	109
442.707	84
442.928	98
443.149	116
443.371	108
443.592	93
443.813	94
444.034	95
444.255	78
444.476	95
444.698	78
444.919	92
445.14	146
445.361	120
445.582	98
445.803	108
446.024	100
446.245	112
446.466	102
446.687	76
446.908	75
447.129	88
447.35	95
447.571	104
447.792	75
448.013	98
448.234	89
448.455	97
448.675	99
448.896	101
449.117	91
449.338	101
449.559	104
449.779	119
450	89
450.221	98
450.442	85
450.662	91
450.883	101
451.104	83
451.324	86
451.545	89
451.766	77
451.986	94
452.207	71
452.428	87
452.648	97
452.869	93
453.089	111
453.31	105
453.53	87
453.751	96
453.971	104
454.192	87
454.412	94
454.633	85
454.853	79
455.073	99
455.294	84
455.514	89
455.734	93
455.955	92
456.175	88
456.395	93
456.616	90
456.836	81
457.056	76
457.276	73
457.497	77
457.717	87
457.937	84
458.157	85
458.377	99
458.598	100
458.818	113
459.038	125
459.258	104
459.478	87
459.698	85
459.918	99
460.138	88
460.358	90
460.578	91
460.798	94
461.018	81
461.238	72
461.458	75
461.678	85
461.898	88
462.118	85
462.338	87
462.558	91
462.777	96
462.997	87
463.217	84
463.437	96
463.657	81
463.876	89
464.096	82
464.316	84
464.536	82
464.755	81
464.975	86
465.195	117
465.414	129
465.634	110
465.854	93
466.073	86
466.293	113
466.512	88
466.732	93
466.951	90
467.171	101
467.391	79
467.61	104
467.829	89
468.049	82
468.268	105
468.488	83
468.707	86
468.927	92
469.146	96
469.365	91
469.585	78
469.804	81
470.023	80
470.243	107
470.462	102
470.681	108
470.901	88
471.12	83
471.339	90
471.558	90
471.777	83
471.997	94
472.216	99
472.435	134
472.654	85
472.873	87
473.092	84
473.311	71
473.53	90
473.749	78
473.968	91
474.187	97
474.406	88
474.625	80
474.844	82
475.063	99
475.282	86
475.501	83
475.72	88
475.939	93
476.158	77
476.377	81
476.596	84
476.814	90
477.033	101
477.252	83
477.471	86
477.69	99
477.908	88
478.127	86
478.346	86
478.564	84
478.783	95
479.002	90
479.22	92
479.439	106
479.658	97
479.876	95
480.095	89
480.313	100
480.532	89
480.751	89
480.969	110
481.188	165
481.406	126
481.624	89
481.843	75
482.061	85
482.28	91
482.498	95
482.717	98
482.935	89
483.153	82
483.372	98
483.59	87
483.808	89
484.027	77
484.245	86
484.463	102
484.681	104
484.9	92
485.118	103
485.336	100
485.554	95
485.772	89
485.99	87
486.209	104
486.427	108
486.645	100
486.863	104
487.081	102
487.299	94
487.517	87
487.735	96
487.953	93
488.171	78
488.389	84
488.607	101
488.825	73
489.043	102
489.261	101
489.479	82
489.696	91
489.914	79
490.132	95
490.35	87
490.568	89
490.786	87
491.003	83
491.221	98
491.439	86
491.657	100
491.874	97
492.092	72
492.31	89
492.527	96
492.745	98
492.963	113
493.18	77
493.398	97
493.615	87
493.833	88
494.05	79
494.268	103
494.485	81
494.703	97
494.92	91
495.138	81
495.355	90
495.573	95
495.79	82
496.008	97
496.225	85
496.442	78
496.66	93
496.877	99
497.094	94
497.312	95
497.529	94
497.746	89
497.963	90
498.181	92
498.398	103
498.615	105
498.832	93
499.049	97
499.267	92
499.484	93
499.701	105
499.918	88
500.135	97
500.352	97
500.569	75
500.786	85
501.003	83
501.22	78
501.437	82
501.654	95
501.871	91
502.088	100
502.305	102
502.522	90
502.739	91
502.956	99
503.172	84
503.389	84
503.606	98
503.823	96
504.04	94
504.256	85
504.473	91
504.69	86
504.907	93
505.123	66
505.34	88
505.557	87
505.773	92
505.99	78
506.207	95
506.423	92
506.64	92
506.856	85
507.073	71
507.289	97
507.506	85
507.722	85
507.939	108
508.155	102
508.372	89
508.588	94
508.805	92
509.021	85
509.238	100
509.454	97
509.67	100
509.887	102
510.103	125
510.319	171
510.536	590
510.752	1745
510.968	503
511.184	140
511.401	93
511.617	92
511.833	99
512.049	78
512.265	100
512.481	97
512.698	89
512.914	88
513.13	86
513.346	86
513.562	96
513.778	110
513.994	98
514.21	79
514.426	107
514.642	120
514.858	99
515.074	133
515.29	341
515.506	995
515.721	379
515.937	147
516.153	99
516.369	111
516.585	105
516.801	91
517.016	95
517.232	86
517.448	85
517.664	90
517.879	99
518.095	85
518.311	85
518.527	89
518.742	93
518.958	94
519.173	94
519.389	82
519.605	103
519.82	100
520.036	98
520.251	99
520.467	95
520.682	105
520.898	103
521.113	111
521.329	132
521.544	167
521.76	394
521.975	1625
522.19	995
522.406	228
522.621	101
522.836	94
523.052	97
523.267	93
523.482	82
523.698	92
523.913	118
524.128	104
524.343	98
524.559	91
524.774	103
524.989	109
525.204	93
525.419	106
525.634	91
525.849	83
526.064	68
526.28	99
526.495	87
526.71	81
526.925	91
527.14	103
527.355	90
527.57	84
527.785	91
527.999	91
528.214	89
528.429	102
528.644	89
528.859	87
529.074	82
529.289	129
529.503	139
529.718	96
529.933	79
530.148	77
530.363	96
530.577	89
530.792	102
531.007	91
531.221	88
531.436	98
531.651	88
531.865	107
532.08	84
532.295	94
532.509	81
532.724	98
532.938	94
533.153	97
533.367	93
533.582	78
533.796	102
534.011	98
534.225	101
534.44	95
534.654	96
534.868	100
535.083	106
535.297	104
535.511	96
535.726	92
535.94	93
536.154	91
536.369	87
536.583	88
536.797	81
537.011	86
537.225	79
537.44	90
537.654	99
537.868	81
538.082	86
538.296	90
538.51	97
538.724	75
538.938	85
539.153	90
539.367	89
539.581	88
539.795	76
540.009	95
540.222	87
540.436	91
540.65	87
540.864	104
541.078	89
541.292	95
541.506	82
541.72	91
541.934	95
542.147	90
542.361	90
542.575	97
542.789	87
543.002	82
543.216	78
543.43	108
543.644	76
543.857	91
544.071	91
544.285	108
544.498	91
544.712	84
544.925	95
545.139	86
545.352	93
545.566	89
545.779	103
545.993	93
546.206	91
546.42	94
546.633	95
546.847	103
547.06	73
547.274	73
547.487	85
547.7	76
547.914	89
548.127	70
548.34	85
548.554	87
548.767	83
548.98	91
549.193	85
549.407	91
549.62	97
549.833	99
550.046	103
550.259	99
550.473	99
550.686	84
550.899	92
551.112	99
551.325	86
551.538	78
551.751	94
551.964	85
552.177	92
552.39	84
552.603	82
552.816	91
553.029	96
553.242	81
553.455	101
553.667	109
553.88	98
554.093	96
554.306	86
554.519	86
554.732	100
554.944	85
555.157	94
555.37	89
555.583	107
555.795	100
556.008	100
556.221	75
556.433	91
556.646	92
556.859	98
557.071	90
557.284	70
557.496	93
557.709	91
557.921	93
558.134	86
558.346	91
558.559	114
558.771	98
558.984	89
559.196	77
559.409	89
559.621	93
559.833	85
560.046	87
560.258	95
560.47	83
560.683	86
560.895	96
561.107	94
561.32	89
561.532	81
561.744	83
561.956	96
562.168	89
562.381	88
562.593	91
562.805	90
563.017	94
563.229	93
563.441	88
563.653	94
563.865	88
564.077	102
564.289	80
564.501	103
564.713	87
564.925	99
565.137	99
565.349	91
565.561	96
565.773	101
565.985	90
566.197	87
566.408	102
566.62	95
566.832	85
567.044	90
567.255	98
567.467	81
567.679	78
567.891	81
568.102	89
568.314	87
568.526	89
568.737	78
568.949	81
569.161	76
569.372	88
569.584	88
569.795	97
570.007	121
570.218	212
570.43	125
570.641	104
570.853	96
571.064	93
571.276	74
571.487	90
571.698	100
571.91	81
572.121	98
572.333	73
572.544	69
572.755	89
572.966	92
573.178	94
573.389	83
573.6	89
573.811	85
574.023	87
574.234	93
574.445	93
574.656	77
574.867	94
575.078	81
575.289	87
575.501	92
575.712	90
575.923	95
576.134	86
576.345	87
576.556	89
576.767	80
576.978	84
577.188	93
577.399	93
577.61	93
577.821	92
578.032	110
578.243	219
578.454	586
578.665	175
578.875	77
579.086	95
579.297	83
579.508	87
579.718	104
579.929	95
580.14	87
580.35	90
580.561	97
580.772	87
580.982	81
581.193	87
581.403	99
581.614	88
581.825	95
582.035	90
582.246	85
582.456	90
582.667	88
582.877	89
583.087	80
583.298	105
583.508	94
583.719	90
583.929	87
584.139	85
584.35	103
584.56	108
584.77	95
584.981	85
585.191	91
585.401	93
585.611	80
585.821	76
586.032	75
586.242	99
586.452	84
586.662	80
586.872	80
587.082	92
587.292	84
587.502	78
587.713	89
587.923	81
588.133	93
588.343	85
588.553	77
588.762	99
588.972	93
589.182	117
589.392	85
589.602	90
589.812	101
590.022	103
590.232	90
590.441	74
590.651	87
590.861	79
591.071	82
591.281	83
591.49	81
591.7	92
591.91	85
592.119	84
592.329	83
592.539	90
592.748	101
592.958	87
593.167	87
593.377	84
593.587	92
593.796	95
594.006	85
594.215	79
594.424	96
594.634	81
594.843	93
595.053	105
595.262	89
595.472	74
595.681	92
595.89	80
596.1	90
596.309	101
596.518	92
596.727	86
596.937	86
597.146	81
597.355	85
597.564	93
597.774	88
597.983	81
598.192	95
598.401	84
598.61	93
598.819	95
599.028	86
599.237	91
599.446	96
599.655	87
599.864	78
600.073	93
600.282	94
600.491	92
600.7	89
600.909	97
601.118	100
601.327	85
601.536	111
601.745	77
601.953	102
602.162	91
602.371	101
602.58	93
602.789	88
602.997	83
603.206	90
603.415	111
603.623	85
603.832	121
604.041	89
604.249	91
604.458	96
604.666	93
604.875	91
605.084	95
605.292	67
605.501	87
605.709	83
605.918	83
606.126	83
606.334	83
606.543	98
606.751	88
606.96	70
607.168	73
607.376	82
607.585	88
607.793	78
608.001	85
608.21	77
608.418	94
608.626	85
608.834	90
609.043	82
609.251	89
609.459	92
609.667	87
609.875	68
610.083	77
610.291	89
610.499	85
610.707	78
610.916	100
611.124	90
611.332	86
611.54	101
611.748	87
611.955	72
612.163	83
612.371	78
612.579	87
612.787	87
612.995	87
613.203	85
613.411	84
613.618	92
613.826	88
614.034	94
614.242	86
614.449	90
614.657	93
614.865	91
615.072	101
615.28	73
615.488	89
615.695	83
615.903	112
616.111	95
616.318	101
616.526	97
616.733	102
616.941	70
617.148	83
617.356	97
617.563	88
617.771	85
617.978	79
618.185	93
618.393	89
618.6	94
618.807	77
619.015	84
619.222	78
619.429	69
619.637	89
619.844	73
620.051	87
620.258	91
620.466	85
620.673	83
620.88	84
621.087	97
621.294	90
621.501	84
621.708	84
621.915	77
622.122	94
622.329	98
622.536	92
622.743	77
622.95	85
623.157	81
623.364	93
623.571	97
623.778	85
623.985	93
624.192	84
624.399	76
624.606	91
624.812	76
625.019	85
625.226	91
625.433	97
625.639	90
625.846	81
626.053	91
626.259	82
626.466	87
626.673	82
626.879	82
627.086	87
627.293	91
627.499	83
627.706	84
627.912	106
628.119	83
628.325	86
628.532	91
628.738	81
628.945	69
629.151	79
629.357	79
629.564	77
629.77	83
629.976	82
630.183	72
630.389	83
630.595	89
630.802	84
631.008	77
631.214	91
631.42	83
631.627	97
631.833	103
632.039	87
632.245	90
632.451	87
632.657	80
632.863	93
633.069	91
633.275	79
633.481	81
633.688	83
633.893	88
634.099	83
634.305	70
634.511	75
634.717	81
634.923	69
635.129	106
635.335	93
635.541	88
635.747	94
635.952	82
636.158	89
636.364	89
636.57	92
636.775	86
636.981	84
637.187	77
637.392	98
637.598	88
637.804	85
638.009	83
638.215	83
638.421	84
638.626	79
638.832	83
639.037	76
639.243	92
639.448	92
639.654	89
639.859	99
640.065	92
640.27	94
640.475	93
640.681	65
640.886	82
641.091	72
641.297	76
641.502	91
641.707	80
641.913	84
642.118	87
642.323	85
642.528	89
642.733	92
642.939	80
643.144	74
643.349	86
643.554	78
643.759	83
643.964	89
644.169	90
644.374	93
644.579	101
644.784	90
644.989	91
645.194	97
645.399	82
645.604	78
645.809	86
646.014	88
646.219	78
646.423	77
646.628	86
646.833	74
647.038	86
647.243	92
647.447	91
647.652	78
647.857	85
648.062	85
648.266	85
648.471	87
648.676	89
648.88	86
649.085	73
649.289	90
649.494	101
649.698	120
649.903	98
650.107	87
650.312	89
650.516	91
650.721	91
650.925	87
651.13	91
651.334	101
651.539	81
651.743	79
651.947	92
652.152	73
652.356	79
652.56	85
652.764	62
652.969	68
653.173	77
653.377	104
653.581	98
653.785	69
653.99	75
654.194	84
654.398	83
654.602	82
654.806	89
655.01	101
655.214	90
655.418	99
655.622	82
655.826	90
656.03	92
656.234	92
656.438	77
656.642	94
656.846	81
657.049	81
657.253	88
657.457	78
657.661	88
657.865	79
658.068	95
658.272	73
658.476	89
658.68	83
658.883	84
659.087	86
659.291	90
659.494	81
659.698	76
659.901	89
660.105	81
660.309	86
660.512	95
660.716	91
660.919	90
661.123	92
661.326	82
661.53	82
661.733	92
661.936	85
662.14	72
662.343	70
662.546	75
662.75	86
662.953	70
663.156	83
663.36	79
663.563	78
663.766	81
663.969	81
664.173	84
664.376	90
664.579	74
664.782	89
664.985	75
665.188	85
665.391	85
665.594	90
665.797	89
666	91
666.203	84
666.406	69
666.609	76
666.812	70
667.015	82
667.218	78
667.421	76
667.624	76
667.827	71
668.03	84
668.232	75
668.435	75
668.638	75
668.841	90
669.043	88
669.246	75
669.449	81
669.651	83
669.854	74
670.057	84
670.259	65
670.462	75
670.665	87
670.867	81
671.07	75
671.272	86
671.475	68
671.677	68
671.88	70
672.082	94
672.284	75
672.487	86
672.689	81
672.892	76
