Data from Dirtheat1_HRD10591_00004.txt Node
Date: Fri Dec 27 15:13:27 EST 2024
User: Yrep
Spectrometer: HR+D1059
Trigger mode: 1
Integration Time (sec): 1.000000E-1
Scans to average: 1
Electric dark correction enabled: true
Nonlinearity correction enabled: false
Boxcar width: 0
XAxis mode: Wavelengths
Number of Pixels in Spectrum: 2048
>>>>>Begin Spectral Data<<<<<
223.165	-19.31
223.4	-19.31
223.635	-19.31
223.869	-12.31
224.104	-18.31
224.338	-24.31
224.573	-18.31
224.808	-14.31
225.042	-5.31
225.277	-13.31
225.511	-0.31
225.746	5.69
225.98	22.69
226.215	18.69
226.449	14.69
226.683	21.69
226.918	16.69
227.152	25.69
227.387	30.69
227.621	56.69
227.856	36.69
228.09	47.69
228.324	53.69
228.559	61.69
228.793	64.69
229.027	66.69
229.262	66.69
229.496	90.69
229.73	72.69
229.964	74.69
230.199	70.69
230.433	78.69
230.667	87.69
230.901	70.69
231.136	80.69
231.37	87.69
231.604	94.69
231.838	85.69
232.072	74.69
232.306	83.69
232.541	72.69
232.775	70.69
233.009	66.69
233.243	85.69
233.477	74.69
233.711	90.69
233.945	81.69
234.179	83.69
234.413	78.69
234.647	67.69
234.881	86.69
235.115	77.69
235.349	75.69
235.583	79.69
235.817	82.69
236.051	71.69
236.285	87.69
236.519	75.69
236.753	81.69
236.987	71.69
237.221	75.69
237.455	73.69
237.689	67.69
237.922	85.69
238.156	61.69
238.39	66.69
238.624	57.69
238.858	66.69
239.091	86.69
239.325	75.69
239.559	74.69
239.793	77.69
240.027	103.69
240.26	73.69
240.494	84.69
240.728	78.69
240.961	82.69
241.195	94.69
241.429	78.69
241.662	77.69
241.896	74.69
242.13	73.69
242.363	80.69
242.597	92.69
242.83	71.69
243.064	82.69
243.298	84.69
243.531	70.69
243.765	89.69
243.998	83.69
244.232	82.69
244.465	76.69
244.699	78.69
244.932	84.69
245.166	79.69
245.399	93.69
245.633	84.69
245.866	75.69
246.099	76.69
246.333	73.69
246.566	77.69
246.8	85.69
247.033	77.69
247.266	76.69
247.5	77.69
247.733	68.69
247.966	76.69
248.2	83.69
248.433	71.69
248.666	76.69
248.899	72.69
249.133	72.69
249.366	72.69
249.599	69.69
249.832	82.69
250.066	77.69
250.299	85.69
250.532	76.69
250.765	76.69
250.998	64.69
251.231	82.69
251.465	64.69
251.698	78.69
251.931	81.69
252.164	62.69
252.397	78.69
252.63	72.69
252.863	83.69
253.096	59.69
253.329	77.69
253.562	88.69
253.795	102.69
254.028	81.69
254.261	79.69
254.494	81.69
254.727	84.69
254.96	86.69
255.193	89.69
255.426	78.69
255.659	74.69
255.892	78.69
256.124	88.69
256.357	85.69
256.59	86.69
256.823	75.69
257.056	81.69
257.289	69.69
257.521	70.69
257.754	75.69
257.987	70.69
258.22	76.69
258.452	73.69
258.685	83.69
258.918	79.69
259.151	69.69
259.383	88.69
259.616	75.69
259.849	73.69
260.081	80.69
260.314	81.69
260.547	70.69
260.779	83.69
261.012	85.69
261.244	91.69
261.477	86.69
261.71	68.69
261.942	69.69
262.175	78.69
262.407	89.69
262.64	72.69
262.872	73.69
263.105	83.69
263.337	88.69
263.57	82.69
263.802	75.69
264.035	74.69
264.267	70.69
264.499	88.69
264.732	76.69
264.964	83.69
265.197	82.69
265.429	74.69
265.661	76.69
265.894	78.69
266.126	90.69
266.358	84.69
266.591	69.69
266.823	78.69
267.055	80.69
267.287	85.69
267.52	73.69
267.752	77.69
267.984	85.69
268.216	79.69
268.448	78.69
268.681	71.69
268.913	79.69
269.145	78.69
269.377	97.69
269.609	77.69
269.841	74.69
270.073	74.69
270.306	73.69
270.538	88.69
270.77	71.69
271.002	86.69
271.234	87.69
271.466	64.69
271.698	77.69
271.93	86.69
272.162	70.69
272.394	84.69
272.626	96.69
272.858	85.69
273.09	82.69
273.322	85.69
273.553	73.69
273.785	92.69
274.017	74.69
274.249	65.69
274.481	84.69
274.713	88.69
274.945	75.69
275.176	76.69
275.408	74.69
275.64	73.69
275.872	103.69
276.104	83.69
276.335	90.69
276.567	74.69
276.799	77.69
277.031	88.69
277.262	79.69
277.494	91.69
277.726	75.69
277.957	74.69
278.189	86.69
278.421	88.69
278.652	83.69
278.884	77.69
279.115	77.69
279.347	83.69
279.579	70.69
279.81	102.69
280.042	86.69
280.273	91.69
280.505	94.69
280.736	68.69
280.968	87.69
281.199	85.69
281.431	83.69
281.662	75.69
281.894	80.69
282.125	77.69
282.356	61.69
282.588	84.69
282.819	88.69
283.051	76.69
283.282	75.69
283.513	76.69
283.745	86.69
283.976	90.69
284.207	81.69
284.439	78.69
284.67	85.69
284.901	81.69
285.132	89.69
285.364	69.69
285.595	77.69
285.826	83.69
286.057	82.69
286.288	80.69
286.52	56.69
286.751	71.69
286.982	78.69
287.213	90.69
287.444	92.69
287.675	85.69
287.906	84.69
288.138	77.69
288.369	88.69
288.6	85.69
288.831	86.69
289.062	78.69
289.293	76.69
289.524	77.69
289.755	81.69
289.986	85.69
290.217	84.69
290.448	95.69
290.679	75.69
290.91	75.69
291.141	83.69
291.371	82.69
291.602	79.69
291.833	85.69
292.064	77.69
292.295	83.69
292.526	92.69
292.757	91.69
292.987	80.69
293.218	78.69
293.449	78.69
293.68	85.69
293.91	75.69
294.141	81.69
294.372	79.69
294.603	85.69
294.833	68.69
295.064	101.69
295.295	93.69
295.525	82.69
295.756	91.69
295.987	65.69
296.217	83.69
296.448	91.69
296.679	78.69
296.909	75.69
297.14	82.69
297.37	74.69
297.601	93.69
297.831	75.69
298.062	76.69
298.292	79.69
298.523	90.69
298.753	83.69
298.984	90.69
299.214	85.69
299.445	80.69
299.675	67.69
299.905	86.69
300.136	91.69
300.366	74.69
300.597	83.69
300.827	90.69
301.057	78.69
301.288	94.69
301.518	86.69
301.748	80.69
301.979	92.69
302.209	85.69
302.439	69.69
302.669	78.69
302.9	81.69
303.13	89.69
303.36	85.69
303.59	81.69
303.82	82.69
304.051	79.69
304.281	92.69
304.511	89.69
304.741	77.69
304.971	74.69
305.201	78.69
305.431	76.69
305.661	81.69
305.891	76.69
306.121	91.69
306.352	91.69
306.582	87.69
306.812	77.69
307.042	74.69
307.272	75.69
307.502	87.69
307.731	88.69
307.961	77.69
308.191	73.69
308.421	79.69
308.651	82.69
308.881	88.69
309.111	82.69
309.341	83.69
309.571	74.69
309.8	101.69
310.03	87.69
310.26	88.69
310.49	80.69
310.72	66.69
310.949	80.69
311.179	82.69
311.409	76.69
311.639	78.69
311.868	85.69
312.098	92.69
312.328	72.69
312.557	77.69
312.787	74.69
313.017	84.69
313.246	85.69
313.476	90.69
313.706	74.69
313.935	72.69
314.165	91.69
314.394	80.69
314.624	83.69
314.853	100.69
315.083	70.69
315.312	77.69
315.542	75.69
315.771	89.69
316.001	90.69
316.23	82.69
316.46	87.69
316.689	75.69
316.919	80.69
317.148	92.69
317.377	87.69
317.607	84.69
317.836	78.69
318.065	93.69
318.295	91.69
318.524	87.69
318.753	75.69
318.983	82.69
319.212	81.69
319.441	83.69
319.67	82.69
319.9	63.69
320.129	79.69
320.358	90.69
320.587	89.69
320.816	76.69
321.046	92.69
321.275	87.69
321.504	81.69
321.733	88.69
321.962	89.69
322.191	93.69
322.42	83.69
322.649	95.69
322.878	89.69
323.108	67.69
323.337	72.69
323.566	79.69
323.795	69.69
324.024	70.69
324.253	80.69
324.482	81.69
324.71	71.69
324.939	97.69
325.168	71.69
325.397	90.69
325.626	102.69
325.855	73.69
326.084	69.69
326.313	82.69
326.542	83.69
326.77	87.69
326.999	90.69
327.228	74.69
327.457	79.69
327.686	88.69
327.914	91.69
328.143	90.69
328.372	77.69
328.6	72.69
328.829	82.69
329.058	95.69
329.287	90.69
329.515	103.69
329.744	80.69
329.972	83.69
330.201	70.69
330.43	68.69
330.658	90.69
330.887	82.69
331.115	77.69
331.344	85.69
331.572	66.69
331.801	76.69
332.03	88.69
332.258	82.69
332.486	72.69
332.715	70.69
332.943	74.69
333.172	69.69
333.4	72.69
333.629	91.69
333.857	92.69
334.085	89.69
334.314	84.69
334.542	72.69
334.771	75.69
334.999	93.69
335.227	74.69
335.455	81.69
335.684	85.69
335.912	77.69
336.14	71.69
336.369	93.69
336.597	81.69
336.825	80.69
337.053	84.69
337.281	101.69
337.51	89.69
337.738	89.69
337.966	79.69
338.194	80.69
338.422	77.69
338.65	80.69
338.878	79.69
339.106	65.69
339.334	83.69
339.562	83.69
339.79	84.69
340.018	89.69
340.246	81.69
340.474	87.69
340.702	88.69
340.93	78.69
341.158	81.69
341.386	86.69
341.614	67.69
341.842	80.69
342.07	70.69
342.298	93.69
342.526	67.69
342.754	83.69
342.981	81.69
343.209	82.69
343.437	90.69
343.665	73.69
343.893	74.69
344.12	90.69
344.348	72.69
344.576	82.69
344.804	90.69
345.031	74.69
345.259	98.69
345.487	67.69
345.714	70.69
345.942	85.69
346.17	82.69
346.397	75.69
346.625	78.69
346.853	76.69
347.08	79.69
347.308	93.69
347.535	87.69
347.763	73.69
347.99	88.69
348.218	75.69
348.445	83.69
348.673	84.69
348.9	80.69
349.128	101.69
349.355	93.69
349.583	80.69
349.81	77.69
350.037	86.69
350.265	80.69
350.492	85.69
350.72	84.69
350.947	75.69
351.174	77.69
351.402	71.69
351.629	71.69
351.856	77.69
352.083	80.69
352.311	88.69
352.538	77.69
352.765	81.69
352.992	84.69
353.22	77.69
353.447	73.69
353.674	81.69
353.901	93.69
354.128	93.69
354.355	78.69
354.583	74.69
354.81	83.69
355.037	102.69
355.264	79.69
355.491	74.69
355.718	81.69
355.945	78.69
356.172	78.69
356.399	78.69
356.626	78.69
356.853	84.69
357.08	71.69
357.307	86.69
357.534	94.69
357.761	85.69
357.988	76.69
358.215	75.69
358.441	68.69
358.668	74.69
358.895	79.69
359.122	74.69
359.349	89.69
359.576	73.69
359.802	83.69
360.029	89.69
360.256	94.69
360.483	92.69
360.709	93.69
360.936	82.69
361.163	89.69
361.39	77.69
361.616	94.69
361.843	78.69
362.07	76.69
362.296	81.69
362.523	75.69
362.749	86.69
362.976	82.69
363.203	101.69
363.429	86.69
363.656	76.69
363.882	80.69
364.109	80.69
364.335	80.69
364.562	75.69
364.788	81.69
365.015	94.69
365.241	88.69
365.468	82.69
365.694	83.69
365.92	97.69
366.147	85.69
366.373	74.69
366.599	71.69
366.826	94.69
367.052	86.69
367.278	85.69
367.505	76.69
367.731	81.69
367.957	78.69
368.184	88.69
368.41	79.69
368.636	89.69
368.862	82.69
369.089	68.69
369.315	72.69
369.541	75.69
369.767	90.69
369.993	82.69
370.219	84.69
370.445	79.69
370.672	77.69
370.898	61.69
371.124	83.69
371.35	84.69
371.576	78.69
371.802	73.69
372.028	80.69
372.254	76.69
372.48	68.69
372.706	71.69
372.932	84.69
373.158	87.69
373.384	81.69
373.61	76.69
373.835	75.69
374.061	84.69
374.287	72.69
374.513	75.69
374.739	75.69
374.965	73.69
375.191	74.69
375.416	79.69
375.642	79.69
375.868	82.69
376.094	81.69
376.319	73.69
376.545	79.69
376.771	68.69
376.997	80.69
377.222	81.69
377.448	88.69
377.674	70.69
377.899	86.69
378.125	71.69
378.35	86.69
378.576	73.69
378.802	89.69
379.027	78.69
379.253	80.69
379.478	91.69
379.704	80.69
379.929	77.69
380.155	81.69
380.38	81.69
380.606	78.69
380.831	79.69
381.057	85.69
381.282	91.69
381.507	85.69
381.733	88.69
381.958	83.69
382.184	85.69
382.409	73.69
382.634	83.69
382.86	73.69
383.085	85.69
383.31	105.69
383.535	83.69
383.761	78.69
383.986	94.69
384.211	71.69
384.436	81.69
384.662	83.69
384.887	80.69
385.112	80.69
385.337	70.69
385.562	83.69
385.787	73.69
386.013	84.69
386.238	89.69
386.463	64.69
386.688	89.69
386.913	68.69
387.138	83.69
387.363	71.69
387.588	81.69
387.813	87.69
388.038	75.69
388.263	91.69
388.488	88.69
388.713	64.69
388.938	75.69
389.163	61.69
389.387	67.69
389.612	67.69
389.837	78.69
390.062	76.69
390.287	85.69
390.512	75.69
390.736	73.69
390.961	69.69
391.186	81.69
391.411	85.69
391.636	78.69
391.86	85.69
392.085	77.69
392.31	85.69
392.534	71.69
392.759	100.69
392.984	79.69
393.208	86.69
393.433	72.69
393.658	82.69
393.882	88.69
394.107	73.69
394.331	85.69
394.556	80.69
394.78	80.69
395.005	85.69
395.229	71.69
395.454	85.69
395.678	65.69
395.903	84.69
396.127	82.69
396.352	81.69
396.576	82.69
396.801	89.69
397.025	85.69
397.249	77.69
397.474	76.69
397.698	82.69
397.922	69.69
398.147	74.69
398.371	78.69
398.595	79.69
398.82	92.69
399.044	73.69
399.268	86.69
399.492	75.69
399.717	83.69
399.941	71.69
400.165	81.69
400.389	65.69
400.613	76.69
400.837	78.69
401.062	71.69
401.286	73.69
401.51	70.69
401.734	70.69
401.958	79.69
402.182	90.69
402.406	74.69
402.63	76.69
402.854	74.69
403.078	58.69
403.302	83.69
403.526	84.69
403.75	76.69
403.974	82.69
404.198	78.69
404.422	78.69
404.645	92.69
404.869	77.69
405.093	62.69
405.317	66.69
405.541	76.69
405.765	71.69
405.988	83.69
406.212	73.69
406.436	73.69
406.66	90.69
406.883	85.69
407.107	67.69
407.331	67.69
407.555	89.69
407.778	77.69
408.002	76.69
408.226	83.69
408.449	86.69
408.673	79.69
408.896	80.69
409.12	89.69
409.344	93.69
409.567	66.69
409.791	85.69
410.014	87.69
410.238	69.69
410.461	76.69
410.685	82.69
410.908	71.69
411.132	77.69
411.355	81.69
411.578	75.69
411.802	90.69
412.025	60.69
412.249	83.69
412.472	76.69
412.695	81.69
412.919	81.69
413.142	77.69
413.365	66.69
413.589	77.69
413.812	75.69
414.035	89.69
414.258	83.69
414.482	93.69
414.705	82.69
414.928	97.69
415.151	75.69
415.374	90.69
415.597	89.69
415.821	89.69
416.044	74.69
416.267	77.69
416.49	81.69
416.713	81.69
416.936	78.69
417.159	76.69
417.382	70.69
417.605	81.69
417.828	97.69
418.051	83.69
418.274	89.69
418.497	74.69
418.72	77.69
418.943	78.69
419.166	69.69
419.389	74.69
419.611	92.69
419.834	88.69
420.057	84.69
420.28	83.69
420.503	78.69
420.726	87.69
420.948	78.69
421.171	81.69
421.394	75.69
421.617	74.69
421.839	66.69
422.062	78.69
422.285	83.69
422.507	83.69
422.73	91.69
422.953	106.69
423.175	81.69
423.398	85.69
423.621	79.69
423.843	79.69
424.066	55.69
424.288	83.69
424.511	93.69
424.733	76.69
424.956	67.69
425.178	70.69
425.401	85.69
425.623	89.69
425.846	83.69
426.068	81.69
426.291	75.69
426.513	75.69
426.735	82.69
426.958	94.69
427.18	81.69
427.402	72.69
427.625	80.69
427.847	81.69
428.069	76.69
428.292	68.69
428.514	83.69
428.736	81.69
428.958	86.69
429.181	85.69
429.403	89.69
429.625	74.69
429.847	73.69
430.069	83.69
430.292	87.69
430.514	79.69
430.736	83.69
430.958	91.69
431.18	75.69
431.402	83.69
431.624	75.69
431.846	87.69
432.068	87.69
432.29	87.69
432.512	100.69
432.734	85.69
432.956	72.69
433.178	73.69
433.4	89.69
433.622	80.69
433.844	71.69
434.066	86.69
434.287	75.69
434.509	85.69
434.731	70.69
434.953	81.69
435.175	84.69
435.397	76.69
435.618	90.69
435.84	67.69
436.062	82.69
436.284	84.69
436.505	78.69
436.727	81.69
436.949	59.69
437.17	83.69
437.392	73.69
437.614	81.69
437.835	70.69
438.057	60.69
438.278	77.69
438.5	67.69
438.721	92.69
438.943	85.69
439.165	77.69
439.386	74.69
439.608	79.69
439.829	71.69
440.05	72.69
440.272	89.69
440.493	92.69
440.715	78.69
440.936	69.69
441.158	75.69
441.379	82.69
441.6	85.69
441.822	88.69
442.043	77.69
442.264	91.69
442.486	82.69
442.707	84.69
442.928	88.69
443.149	83.69
443.371	79.69
443.592	81.69
443.813	79.69
444.034	77.69
444.255	84.69
444.476	75.69
444.698	97.69
444.919	90.69
445.14	156.69
445.361	108.69
445.582	84.69
445.803	73.69
446.024	82.69
446.245	80.69
446.466	90.69
446.687	90.69
446.908	88.69
447.129	75.69
447.35	80.69
447.571	84.69
447.792	78.69
448.013	81.69
448.234	82.69
448.455	70.69
448.675	79.69
448.896	63.69
449.117	86.69
449.338	84.69
449.559	86.69
449.779	82.69
450	81.69
450.221	81.69
450.442	98.69
450.662	85.69
450.883	89.69
451.104	78.69
451.324	68.69
451.545	77.69
451.766	82.69
451.986	81.69
452.207	92.69
452.428	76.69
452.648	85.69
452.869	85.69
453.089	90.69
453.31	89.69
453.53	80.69
453.751	82.69
453.971	97.69
454.192	81.69
454.412	75.69
454.633	72.69
454.853	88.69
455.073	86.69
455.294	74.69
455.514	83.69
455.734	78.69
455.955	92.69
456.175	78.69
456.395	74.69
456.616	84.69
456.836	75.69
457.056	81.69
457.276	74.69
457.497	77.69
457.717	73.69
457.937	68.69
458.157	83.69
458.377	73.69
458.598	78.69
458.818	84.69
459.038	67.69
459.258	79.69
459.478	88.69
459.698	91.69
459.918	79.69
460.138	84.69
460.358	90.69
460.578	83.69
460.798	79.69
461.018	68.69
461.238	79.69
461.458	88.69
461.678	84.69
461.898	82.69
462.118	91.69
462.338	87.69
462.558	77.69
462.777	80.69
462.997	91.69
463.217	69.69
463.437	98.69
463.657	81.69
463.876	66.69
464.096	81.69
464.316	69.69
464.536	67.69
464.755	80.69
464.975	92.69
465.195	72.69
465.414	67.69
465.634	88.69
465.854	85.69
466.073	79.69
466.293	85.69
466.512	83.69
466.732	89.69
466.951	64.69
467.171	73.69
467.391	78.69
467.61	75.69
467.829	80.69
468.049	85.69
468.268	88.69
468.488	70.69
468.707	83.69
468.927	79.69
469.146	81.69
469.365	80.69
469.585	83.69
469.804	94.69
470.023	78.69
470.243	87.69
470.462	77.69
470.681	85.69
470.901	91.69
471.12	86.69
471.339	77.69
471.558	71.69
471.777	61.69
471.997	95.69
472.216	72.69
472.435	83.69
472.654	79.69
472.873	81.69
473.092	84.69
473.311	82.69
473.53	83.69
473.749	91.69
473.968	94.69
474.187	75.69
474.406	82.69
474.625	74.69
474.844	82.69
475.063	78.69
475.282	81.69
475.501	61.69
475.72	89.69
475.939	69.69
476.158	71.69
476.377	86.69
476.596	70.69
476.814	80.69
477.033	86.69
477.252	77.69
477.471	86.69
477.69	89.69
477.908	81.69
478.127	76.69
478.346	74.69
478.564	72.69
478.783	67.69
479.002	82.69
479.22	87.69
479.439	92.69
479.658	84.69
479.876	81.69
480.095	77.69
480.313	77.69
480.532	81.69
480.751	89.69
480.969	86.69
481.188	79.69
481.406	86.69
481.624	88.69
481.843	81.69
482.061	71.69
482.28	79.69
482.498	81.69
482.717	86.69
482.935	92.69
483.153	86.69
483.372	78.69
483.59	85.69
483.808	84.69
484.027	90.69
484.245	101.69
484.463	81.69
484.681	77.69
484.9	74.69
485.118	77.69
485.336	79.69
485.554	78.69
485.772	85.69
485.99	80.69
486.209	97.69
486.427	89.69
486.645	92.69
486.863	87.69
487.081	87.69
487.299	77.69
487.517	83.69
487.735	96.69
487.953	94.69
488.171	97.69
488.389	76.69
488.607	90.69
488.825	71.69
489.043	86.69
489.261	86.69
489.479	76.69
489.696	87.69
489.914	80.69
490.132	85.69
490.35	87.69
490.568	90.69
490.786	91.69
491.003	73.69
491.221	76.69
491.439	83.69
491.657	86.69
491.874	91.69
492.092	77.69
492.31	82.69
492.527	79.69
492.745	89.69
492.963	87.69
493.18	62.69
493.398	80.69
493.615	61.69
493.833	83.69
494.05	82.69
494.268	75.69
494.485	82.69
494.703	87.69
494.92	79.69
495.138	90.69
495.355	92.69
495.573	93.69
495.79	82.69
496.008	83.69
496.225	90.69
496.442	91.69
496.66	80.69
496.877	74.69
497.094	77.69
497.312	70.69
497.529	88.69
497.746	68.69
497.963	87.69
498.181	91.69
498.398	94.69
498.615	82.69
498.832	82.69
499.049	88.69
499.267	89.69
499.484	73.69
499.701	98.69
499.918	72.69
500.135	85.69
500.352	83.69
500.569	91.69
500.786	76.69
501.003	76.69
501.22	84.69
501.437	76.69
501.654	82.69
501.871	66.69
502.088	81.69
502.305	79.69
502.522	81.69
502.739	87.69
502.956	86.69
503.172	77.69
503.389	72.69
503.606	90.69
503.823	85.69
504.04	85.69
504.256	93.69
504.473	83.69
504.69	73.69
504.907	84.69
505.123	77.69
505.34	83.69
505.557	87.69
505.773	82.69
505.99	79.69
506.207	65.69
506.423	94.69
506.64	86.69
506.856	78.69
507.073	69.69
507.289	75.69
507.506	89.69
507.722	85.69
507.939	91.69
508.155	105.69
508.372	79.69
508.588	92.69
508.805	71.69
509.021	75.69
509.238	87.69
509.454	88.69
509.67	67.69
509.887	82.69
510.103	75.69
510.319	75.69
510.536	87.69
510.752	88.69
510.968	76.69
511.184	83.69
511.401	69.69
511.617	67.69
511.833	77.69
512.049	95.69
512.265	83.69
512.481	86.69
512.698	84.69
512.914	72.69
513.13	76.69
513.346	90.69
513.562	79.69
513.778	89.69
513.994	82.69
514.21	86.69
514.426	77.69
514.642	78.69
514.858	90.69
515.074	89.69
515.29	90.69
515.506	83.69
515.721	89.69
515.937	89.69
516.153	94.69
516.369	86.69
516.585	94.69
516.801	87.69
517.016	78.69
517.232	78.69
517.448	88.69
517.664	81.69
517.879	81.69
518.095	70.69
518.311	100.69
518.527	91.69
518.742	99.69
518.958	87.69
519.173	89.69
519.389	78.69
519.605	75.69
519.82	79.69
520.036	79.69
520.251	89.69
520.467	107.69
520.682	86.69
520.898	80.69
521.113	82.69
521.329	87.69
521.544	79.69
521.76	83.69
521.975	85.69
522.19	83.69
522.406	79.69
522.621	68.69
522.836	79.69
523.052	86.69
523.267	84.69
523.482	64.69
523.698	78.69
523.913	83.69
524.128	65.69
524.343	85.69
524.559	96.69
524.774	75.69
524.989	86.69
525.204	89.69
525.419	82.69
525.634	80.69
525.849	88.69
526.064	83.69
526.28	91.69
526.495	93.69
526.71	81.69
526.925	84.69
527.14	96.69
527.355	71.69
527.57	78.69
527.785	88.69
527.999	78.69
528.214	74.69
528.429	100.69
528.644	86.69
528.859	71.69
529.074	83.69
529.289	83.69
529.503	85.69
529.718	78.69
529.933	81.69
530.148	75.69
530.363	91.69
530.577	90.69
530.792	74.69
531.007	87.69
531.221	89.69
531.436	71.69
531.651	71.69
531.865	98.69
532.08	82.69
532.295	77.69
532.509	78.69
532.724	81.69
532.938	97.69
533.153	69.69
533.367	88.69
533.582	81.69
533.796	71.69
534.011	88.69
534.225	74.69
534.44	87.69
534.654	75.69
534.868	91.69
535.083	79.69
535.297	85.69
535.511	78.69
535.726	93.69
535.94	91.69
536.154	86.69
536.369	75.69
536.583	79.69
536.797	103.69
537.011	101.69
537.225	87.69
537.44	81.69
537.654	67.69
537.868	81.69
538.082	69.69
538.296	94.69
538.51	87.69
538.724	103.69
538.938	78.69
539.153	89.69
539.367	90.69
539.581	78.69
539.795	70.69
540.009	84.69
540.222	83.69
540.436	74.69
540.65	92.69
540.864	86.69
541.078	89.69
541.292	93.69
541.506	86.69
541.72	96.69
541.934	84.69
542.147	97.69
542.361	81.69
542.575	75.69
542.789	102.69
543.002	88.69
543.216	89.69
543.43	79.69
543.644	72.69
543.857	81.69
544.071	86.69
544.285	81.69
544.498	81.69
544.712	82.69
544.925	82.69
545.139	94.69
545.352	86.69
545.566	90.69
545.779	98.69
545.993	111.69
546.206	94.69
546.42	97.69
546.633	89.69
546.847	85.69
547.06	88.69
547.274	94.69
547.487	108.69
547.7	101.69
547.914	82.69
548.127	83.69
548.34	105.69
548.554	89.69
548.767	106.69
548.98	108.69
549.193	106.69
549.407	107.69
549.62	107.69
549.833	97.69
550.046	101.69
550.259	102.69
550.473	113.69
550.686	109.69
550.899	115.69
551.112	109.69
551.325	117.69
551.538	124.69
551.751	112.69
551.964	120.69
552.177	112.69
552.39	122.69
552.603	122.69
552.816	118.69
553.029	125.69
553.242	119.69
553.455	135.69
553.667	138.69
553.88	138.69
554.093	139.69
554.306	146.69
554.519	133.69
554.732	143.69
554.944	139.69
555.157	142.69
555.37	142.69
555.583	117.69
555.795	132.69
556.008	129.69
556.221	130.69
556.433	107.69
556.646	117.69
556.859	109.69
557.071	109.69
557.284	102.69
557.496	112.69
557.709	98.69
557.921	92.69
558.134	94.69
558.346	101.69
558.559	94.69
558.771	99.69
558.984	107.69
559.196	109.69
559.409	105.69
559.621	82.69
559.833	97.69
560.046	99.69
560.258	86.69
560.47	110.69
560.683	107.69
560.895	85.69
561.107	87.69
561.32	84.69
561.532	101.69
561.744	84.69
561.956	87.69
562.168	83.69
562.381	107.69
562.593	97.69
562.805	83.69
563.017	92.69
563.229	88.69
563.441	83.69
563.653	78.69
563.865	79.69
564.077	75.69
564.289	95.69
564.501	75.69
564.713	94.69
564.925	97.69
565.137	99.69
565.349	90.69
565.561	99.69
565.773	97.69
565.985	95.69
566.197	78.69
566.408	79.69
566.62	83.69
566.832	92.69
567.044	84.69
567.255	92.69
567.467	90.69
567.679	85.69
567.891	83.69
568.102	87.69
568.314	84.69
568.526	90.69
568.737	92.69
568.949	78.69
569.161	77.69
569.372	83.69
569.584	72.69
569.795	86.69
570.007	86.69
570.218	75.69
570.43	74.69
570.641	76.69
570.853	78.69
571.064	89.69
571.276	88.69
571.487	106.69
571.698	99.69
571.91	95.69
572.121	83.69
572.333	91.69
572.544	86.69
572.755	84.69
572.966	88.69
573.178	95.69
573.389	83.69
573.6	91.69
573.811	73.69
574.023	94.69
574.234	90.69
574.445	82.69
574.656	85.69
574.867	77.69
575.078	83.69
575.289	88.69
575.501	95.69
575.712	79.69
575.923	73.69
576.134	87.69
576.345	75.69
576.556	86.69
576.767	90.69
576.978	87.69
577.188	76.69
577.399	92.69
577.61	93.69
577.821	92.69
578.032	76.69
578.243	81.69
578.454	94.69
578.665	100.69
578.875	80.69
579.086	90.69
579.297	63.69
579.508	79.69
579.718	93.69
579.929	89.69
580.14	97.69
580.35	85.69
580.561	77.69
580.772	80.69
580.982	85.69
581.193	81.69
581.403	97.69
581.614	75.69
581.825	86.69
582.035	99.69
582.246	91.69
582.456	90.69
582.667	87.69
582.877	91.69
583.087	78.69
583.298	79.69
583.508	86.69
583.719	74.69
583.929	89.69
584.139	82.69
584.35	77.69
584.56	89.69
584.77	78.69
584.981	96.69
585.191	81.69
585.401	75.69
585.611	92.69
585.821	96.69
586.032	90.69
586.242	88.69
586.452	96.69
586.662	85.69
586.872	79.69
587.082	83.69
587.292	81.69
587.502	92.69
587.713	87.69
587.923	90.69
588.133	93.69
588.343	85.69
588.553	85.69
588.762	90.69
588.972	108.69
589.182	109.69
589.392	99.69
589.602	113.69
589.812	106.69
590.022	97.69
590.232	93.69
590.441	87.69
590.651	81.69
590.861	97.69
591.071	79.69
591.281	97.69
591.49	81.69
591.7	91.69
591.91	96.69
592.119	90.69
592.329	96.69
592.539	94.69
592.748	90.69
592.958	88.69
593.167	97.69
593.377	91.69
593.587	101.69
593.796	86.69
594.006	89.69
594.215	86.69
594.424	99.69
594.634	85.69
594.843	94.69
595.053	89.69
595.262	90.69
595.472	86.69
595.681	98.69
595.89	89.69
596.1	94.69
596.309	102.69
596.518	85.69
596.727	103.69
596.937	98.69
597.146	93.69
597.355	107.69
597.564	99.69
597.774	107.69
597.983	109.69
598.192	100.69
598.401	110.69
598.61	100.69
598.819	110.69
599.028	105.69
599.237	124.69
599.446	99.69
599.655	100.69
599.864	102.69
600.073	92.69
600.282	105.69
600.491	109.69
600.7	111.69
600.909	110.69
601.118	100.69
601.327	105.69
601.536	93.69
601.745	109.69
601.953	103.69
602.162	111.69
602.371	110.69
602.58	101.69
602.789	97.69
602.997	100.69
603.206	111.69
603.415	106.69
603.623	98.69
603.832	109.69
604.041	102.69
604.249	105.69
604.458	110.69
604.666	113.69
604.875	91.69
605.084	102.69
605.292	115.69
605.501	97.69
605.709	99.69
605.918	93.69
606.126	104.69
606.334	115.69
606.543	113.69
606.751	107.69
606.96	119.69
607.168	103.69
607.376	104.69
607.585	94.69
607.793	113.69
608.001	109.69
608.21	113.69
608.418	107.69
608.626	91.69
608.834	99.69
609.043	109.69
609.251	97.69
609.459	109.69
609.667	114.69
609.875	106.69
610.083	84.69
610.291	99.69
610.499	104.69
610.707	113.69
610.916	101.69
611.124	110.69
611.332	114.69
611.54	110.69
611.748	116.69
611.955	117.69
612.163	117.69
612.371	113.69
612.579	117.69
612.787	113.69
612.995	112.69
613.203	107.69
613.411	120.69
613.618	101.69
613.826	117.69
614.034	114.69
614.242	104.69
614.449	114.69
614.657	111.69
614.865	107.69
615.072	119.69
615.28	112.69
615.488	101.69
615.695	123.69
615.903	117.69
616.111	115.69
616.318	139.69
616.526	117.69
616.733	119.69
616.941	117.69
617.148	118.69
617.356	93.69
617.563	113.69
617.771	129.69
617.978	114.69
618.185	121.69
618.393	122.69
618.6	105.69
618.807	105.69
619.015	115.69
619.222	116.69
619.429	122.69
619.637	106.69
619.844	115.69
620.051	113.69
620.258	98.69
620.466	126.69
620.673	124.69
620.88	110.69
621.087	104.69
621.294	123.69
621.501	135.69
621.708	117.69
621.915	116.69
622.122	113.69
622.329	125.69
622.536	116.69
622.743	116.69
622.95	124.69
623.157	118.69
623.364	115.69
623.571	117.69
623.778	109.69
623.985	121.69
624.192	125.69
624.399	126.69
624.606	118.69
624.812	115.69
625.019	91.69
625.226	119.69
625.433	119.69
625.639	101.69
625.846	118.69
626.053	103.69
626.259	117.69
626.466	110.69
626.673	99.69
626.879	95.69
627.086	107.69
627.293	97.69
627.499	97.69
627.706	86.69
627.912	91.69
628.119	98.69
628.325	95.69
628.532	97.69
628.738	91.69
628.945	101.69
629.151	93.69
629.357	85.69
629.564	93.69
629.77	85.69
629.976	86.69
630.183	86.69
630.389	87.69
630.595	86.69
630.802	82.69
631.008	86.69
631.214	79.69
631.42	89.69
631.627	72.69
631.833	86.69
632.039	83.69
632.245	83.69
632.451	93.69
632.657	91.69
632.863	79.69
633.069	86.69
633.275	93.69
633.481	74.69
633.688	80.69
633.893	101.69
634.099	79.69
634.305	83.69
634.511	101.69
634.717	87.69
634.923	79.69
635.129	92.69
635.335	82.69
635.541	80.69
635.747	99.69
635.952	83.69
636.158	100.69
636.364	77.69
636.57	84.69
636.775	93.69
636.981	78.69
637.187	89.69
637.392	72.69
637.598	88.69
637.804	87.69
638.009	84.69
638.215	84.69
638.421	78.69
638.626	85.69
638.832	89.69
639.037	95.69
639.243	100.69
639.448	83.69
639.654	105.69
639.859	96.69
640.065	85.69
640.27	92.69
640.475	79.69
640.681	87.69
640.886	84.69
641.091	75.69
641.297	100.69
641.502	103.69
641.707	90.69
641.913	86.69
642.118	79.69
642.323	80.69
642.528	88.69
642.733	88.69
642.939	85.69
643.144	85.69
643.349	84.69
643.554	88.69
643.759	93.69
643.964	95.69
644.169	91.69
644.374	83.69
644.579	84.69
644.784	73.69
644.989	84.69
645.194	97.69
645.399	97.69
645.604	82.69
645.809	76.69
646.014	87.69
646.219	93.69
646.423	76.69
646.628	91.69
646.833	88.69
647.038	85.69
647.243	74.69
647.447	78.69
647.652	79.69
647.857	100.69
648.062	99.69
648.266	77.69
648.471	82.69
648.676	92.69
648.88	78.69
649.085	69.69
649.289	78.69
649.494	85.69
649.698	91.69
649.903	80.69
650.107	73.69
650.312	103.69
650.516	90.69
650.721	75.69
650.925	84.69
651.13	79.69
651.334	71.69
651.539	77.69
651.743	84.69
651.947	83.69
652.152	77.69
652.356	82.69
652.56	78.69
652.764	75.69
652.969	78.69
653.173	72.69
653.377	77.69
653.581	85.69
653.785	79.69
653.99	81.69
654.194	85.69
654.398	77.69
654.602	87.69
654.806	80.69
655.01	82.69
655.214	85.69
655.418	86.69
655.622	75.69
655.826	66.69
656.03	89.69
656.234	87.69
656.438	88.69
656.642	72.69
656.846	79.69
657.049	83.69
657.253	89.69
657.457	94.69
657.661	85.69
657.865	83.69
658.068	84.69
658.272	78.69
658.476	85.69
658.68	85.69
658.883	85.69
659.087	82.69
659.291	91.69
659.494	62.69
659.698	70.69
659.901	83.69
660.105	83.69
660.309	79.69
660.512	80.69
660.716	83.69
660.919	82.69
661.123	83.69
661.326	85.69
661.53	76.69
661.733	71.69
661.936	85.69
662.14	66.69
662.343	84.69
662.546	75.69
662.75	85.69
662.953	79.69
663.156	84.69
663.36	70.69
663.563	76.69
663.766	73.69
663.969	73.69
664.173	87.69
664.376	82.69
664.579	62.69
664.782	71.69
664.985	71.69
665.188	70.69
665.391	82.69
665.594	71.69
665.797	75.69
666	75.69
666.203	77.69
666.406	74.69
666.609	77.69
666.812	74.69
667.015	74.69
667.218	75.69
667.421	74.69
667.624	82.69
667.827	65.69
668.03	71.69
668.232	68.69
668.435	70.69
668.638	66.69
668.841	85.69
669.043	85.69
669.246	83.69
669.449	86.69
669.651	69.69
669.854	71.69
670.057	82.69
670.259	84.69
670.462	82.69
670.665	89.69
670.867	69.69
671.07	73.69
671.272	82.69
671.475	87.69
671.677	93.69
671.88	80.69
672.082	77.69
672.284	81.69
672.487	69.69
672.689	81.69
672.892	88.69
