Data from Circ_2015_H10_HRD10591_00091.txt Node
Date: Wed Jan 03 10:00:41 EST 2024
User: Yrep
Spectrometer: HR+D1059
Trigger mode: 1
Integration Time (sec): 1.000000E-1
Scans to average: 1
Electric dark correction enabled: true
Nonlinearity correction enabled: false
Boxcar width: 0
XAxis mode: Wavelengths
Number of Pixels in Spectrum: 2048
>>>>>Begin Spectral Data<<<<<
223.165	-3.5
223.4	-3.5
223.635	-3.5
223.869	-10.5
224.104	-9.5
224.338	-24.5
224.573	-15.5
224.808	-7.5
225.042	-19.5
225.277	-10.5
225.511	5.5
225.746	-3.5
225.98	11.5
226.215	12.5
226.449	17.5
226.683	28.5
226.918	18.5
227.152	10.5
227.387	32.5
227.621	25.5
227.856	43.5
228.09	34.5
228.324	41.5
228.559	62.5
228.793	36.5
229.027	65.5
229.262	77.5
229.496	72.5
229.73	102.5
229.964	82.5
230.199	72.5
230.433	70.5
230.667	89.5
230.901	76.5
231.136	84.5
231.37	81.5
231.604	72.5
231.838	75.5
232.072	70.5
232.306	81.5
232.541	84.5
232.775	87.5
233.009	87.5
233.243	75.5
233.477	73.5
233.711	81.5
233.945	80.5
234.179	77.5
234.413	81.5
234.647	78.5
234.881	69.5
235.115	65.5
235.349	66.5
235.583	77.5
235.817	64.5
236.051	70.5
236.285	85.5
236.519	91.5
236.753	92.5
236.987	62.5
237.221	85.5
237.455	83.5
237.689	80.5
237.922	70.5
238.156	74.5
238.39	78.5
238.624	83.5
238.858	81.5
239.091	59.5
239.325	64.5
239.559	80.5
239.793	74.5
240.027	70.5
240.26	84.5
240.494	78.5
240.728	82.5
240.961	85.5
241.195	75.5
241.429	79.5
241.662	75.5
241.896	75.5
242.13	79.5
242.363	68.5
242.597	77.5
242.83	92.5
243.064	71.5
243.298	92.5
243.531	69.5
243.765	71.5
243.998	78.5
244.232	97.5
244.465	85.5
244.699	90.5
244.932	77.5
245.166	73.5
245.399	82.5
245.633	90.5
245.866	85.5
246.099	66.5
246.333	66.5
246.566	80.5
246.8	81.5
247.033	65.5
247.266	73.5
247.5	76.5
247.733	81.5
247.966	82.5
248.2	86.5
248.433	84.5
248.666	85.5
248.899	77.5
249.133	88.5
249.366	96.5
249.599	105.5
249.832	83.5
250.066	71.5
250.299	93.5
250.532	75.5
250.765	73.5
250.998	65.5
251.231	80.5
251.465	75.5
251.698	98.5
251.931	85.5
252.164	89.5
252.397	80.5
252.63	86.5
252.863	82.5
253.096	85.5
253.329	63.5
253.562	70.5
253.795	78.5
254.028	94.5
254.261	75.5
254.494	67.5
254.727	86.5
254.96	87.5
255.193	70.5
255.426	75.5
255.659	74.5
255.892	76.5
256.124	77.5
256.357	88.5
256.59	92.5
256.823	88.5
257.056	84.5
257.289	74.5
257.521	77.5
257.754	90.5
257.987	75.5
258.22	89.5
258.452	98.5
258.685	98.5
258.918	92.5
259.151	79.5
259.383	83.5
259.616	86.5
259.849	80.5
260.081	82.5
260.314	75.5
260.547	70.5
260.779	84.5
261.012	90.5
261.244	88.5
261.477	90.5
261.71	93.5
261.942	120.5
262.175	112.5
262.407	88.5
262.64	76.5
262.872	88.5
263.105	97.5
263.337	78.5
263.57	84.5
263.802	75.5
264.035	76.5
264.267	75.5
264.499	83.5
264.732	85.5
264.964	82.5
265.197	84.5
265.429	81.5
265.661	94.5
265.894	85.5
266.126	89.5
266.358	97.5
266.591	73.5
266.823	92.5
267.055	89.5
267.287	84.5
267.52	76.5
267.752	78.5
267.984	88.5
268.216	85.5
268.448	87.5
268.681	87.5
268.913	79.5
269.145	90.5
269.377	96.5
269.609	64.5
269.841	100.5
270.073	86.5
270.306	94.5
270.538	82.5
270.77	85.5
271.002	80.5
271.234	80.5
271.466	85.5
271.698	94.5
271.93	70.5
272.162	77.5
272.394	72.5
272.626	75.5
272.858	91.5
273.09	85.5
273.322	80.5
273.553	73.5
273.785	89.5
274.017	92.5
274.249	75.5
274.481	76.5
274.713	86.5
274.945	87.5
275.176	81.5
275.408	92.5
275.64	104.5
275.872	102.5
276.104	97.5
276.335	91.5
276.567	89.5
276.799	109.5
277.031	108.5
277.262	109.5
277.494	108.5
277.726	99.5
277.957	91.5
278.189	98.5
278.421	90.5
278.652	96.5
278.884	93.5
279.115	78.5
279.347	83.5
279.579	88.5
279.81	97.5
280.042	130.5
280.273	138.5
280.505	108.5
280.736	88.5
280.968	89.5
281.199	74.5
281.431	81.5
281.662	103.5
281.894	92.5
282.125	96.5
282.356	131.5
282.588	135.5
282.819	113.5
283.051	90.5
283.282	78.5
283.513	68.5
283.745	92.5
283.976	85.5
284.207	70.5
284.439	87.5
284.67	81.5
284.901	78.5
285.132	81.5
285.364	88.5
285.595	88.5
285.826	82.5
286.057	80.5
286.288	84.5
286.52	78.5
286.751	91.5
286.982	82.5
287.213	96.5
287.444	78.5
287.675	86.5
287.906	109.5
288.138	92.5
288.369	84.5
288.6	95.5
288.831	84.5
289.062	101.5
289.293	87.5
289.524	88.5
289.755	87.5
289.986	84.5
290.217	85.5
290.448	88.5
290.679	88.5
290.91	88.5
291.141	93.5
291.371	90.5
291.602	102.5
291.833	81.5
292.064	82.5
292.295	78.5
292.526	80.5
292.757	72.5
292.987	81.5
293.218	86.5
293.449	89.5
293.68	85.5
293.91	99.5
294.141	91.5
294.372	90.5
294.603	80.5
294.833	85.5
295.064	90.5
295.295	93.5
295.525	88.5
295.756	104.5
295.987	116.5
296.217	148.5
296.448	133.5
296.679	101.5
296.909	100.5
297.14	96.5
297.37	90.5
297.601	85.5
297.831	89.5
298.062	87.5
298.292	92.5
298.523	91.5
298.753	80.5
298.984	82.5
299.214	93.5
299.445	91.5
299.675	94.5
299.905	102.5
300.136	93.5
300.366	82.5
300.597	83.5
300.827	101.5
301.057	96.5
301.288	105.5
301.518	94.5
301.748	68.5
301.979	99.5
302.209	101.5
302.439	91.5
302.669	88.5
302.9	94.5
303.13	77.5
303.36	105.5
303.59	100.5
303.82	106.5
304.051	93.5
304.281	94.5
304.511	75.5
304.741	87.5
304.971	89.5
305.201	100.5
305.431	84.5
305.661	101.5
305.891	83.5
306.121	87.5
306.352	110.5
306.582	114.5
306.812	99.5
307.042	115.5
307.272	109.5
307.502	121.5
307.731	101.5
307.961	106.5
308.191	85.5
308.421	89.5
308.651	83.5
308.881	94.5
309.111	86.5
309.341	89.5
309.571	97.5
309.8	95.5
310.03	105.5
310.26	108.5
310.49	97.5
310.72	105.5
310.949	114.5
311.179	103.5
311.409	83.5
311.639	115.5
311.868	96.5
312.098	100.5
312.328	97.5
312.557	89.5
312.787	112.5
313.017	105.5
313.246	112.5
313.476	81.5
313.706	92.5
313.935	89.5
314.165	107.5
314.394	94.5
314.624	90.5
314.853	86.5
315.083	84.5
315.312	90.5
315.542	97.5
315.771	93.5
316.001	86.5
316.23	93.5
316.46	87.5
316.689	92.5
316.919	114.5
317.148	101.5
317.377	88.5
317.607	88.5
317.836	99.5
318.065	82.5
318.295	95.5
318.524	78.5
318.753	92.5
318.983	104.5
319.212	101.5
319.441	105.5
319.67	102.5
319.9	107.5
320.129	98.5
320.358	96.5
320.587	104.5
320.816	102.5
321.046	102.5
321.275	100.5
321.504	96.5
321.733	94.5
321.962	99.5
322.191	90.5
322.42	103.5
322.649	109.5
322.878	118.5
323.108	126.5
323.337	122.5
323.566	137.5
323.795	164.5
324.024	220.5
324.253	447.5
324.482	966.5
324.71	1982.5
324.939	2654.5
325.168	950.5
325.397	276.5
325.626	156.5
325.855	138.5
326.084	122.5
326.313	143.5
326.542	167.5
326.77	250.5
326.999	540.5
327.228	1093.5
327.457	2048.5
327.686	1639.5
327.914	449.5
328.143	299.5
328.372	310.5
328.6	194.5
328.829	123.5
329.058	133.5
329.287	147.5
329.515	129.5
329.744	157.5
329.972	228.5
330.201	372.5
330.43	504.5
330.658	281.5
330.887	193.5
331.115	132.5
331.344	90.5
331.572	105.5
331.801	113.5
332.03	109.5
332.258	112.5
332.486	96.5
332.715	110.5
332.943	102.5
333.172	108.5
333.4	106.5
333.629	116.5
333.857	145.5
334.085	206.5
334.314	381.5
334.542	644.5
334.771	603.5
334.999	214.5
335.227	98.5
335.455	112.5
335.684	92.5
335.912	102.5
336.14	85.5
336.369	92.5
336.597	104.5
336.825	98.5
337.053	91.5
337.281	82.5
337.51	86.5
337.738	86.5
337.966	97.5
338.194	107.5
338.422	79.5
338.65	78.5
338.878	88.5
339.106	83.5
339.334	89.5
339.562	97.5
339.79	87.5
340.018	89.5
340.246	86.5
340.474	85.5
340.702	89.5
340.93	76.5
341.158	99.5
341.386	96.5
341.614	91.5
341.842	99.5
342.07	82.5
342.298	95.5
342.526	96.5
342.754	64.5
342.981	92.5
343.209	88.5
343.437	90.5
343.665	86.5
343.893	85.5
344.12	93.5
344.348	88.5
344.576	82.5
344.804	87.5
345.031	98.5
345.259	95.5
345.487	92.5
345.714	88.5
345.942	84.5
346.17	97.5
346.397	96.5
346.625	79.5
346.853	85.5
347.08	96.5
347.308	94.5
347.535	99.5
347.763	85.5
347.99	98.5
348.218	102.5
348.445	94.5
348.673	106.5
348.9	93.5
349.128	107.5
349.355	89.5
349.583	83.5
349.81	95.5
350.037	84.5
350.265	92.5
350.492	85.5
350.72	92.5
350.947	102.5
351.174	106.5
351.402	125.5
351.629	89.5
351.856	106.5
352.083	108.5
352.311	88.5
352.538	92.5
352.765	127.5
352.992	114.5
353.22	116.5
353.447	106.5
353.674	107.5
353.901	89.5
354.128	112.5
354.355	92.5
354.583	92.5
354.81	87.5
355.037	86.5
355.264	85.5
355.491	92.5
355.718	97.5
355.945	98.5
356.172	83.5
356.399	93.5
356.626	85.5
356.853	92.5
357.08	78.5
357.307	86.5
357.534	85.5
357.761	93.5
357.988	99.5
358.215	96.5
358.441	104.5
358.668	76.5
358.895	97.5
359.122	93.5
359.349	93.5
359.576	96.5
359.802	110.5
360.029	110.5
360.256	118.5
360.483	96.5
360.709	92.5
360.936	82.5
361.163	86.5
361.39	94.5
361.616	98.5
361.843	99.5
362.07	92.5
362.296	97.5
362.523	96.5
362.749	94.5
362.976	83.5
363.203	95.5
363.429	81.5
363.656	91.5
363.882	83.5
364.109	95.5
364.335	95.5
364.562	88.5
364.788	107.5
365.015	92.5
365.241	91.5
365.468	109.5
365.694	112.5
365.92	87.5
366.147	85.5
366.373	96.5
366.599	84.5
366.826	97.5
367.052	82.5
367.278	84.5
367.505	89.5
367.731	92.5
367.957	84.5
368.184	98.5
368.41	96.5
368.636	107.5
368.862	116.5
369.089	110.5
369.315	98.5
369.541	83.5
369.767	84.5
369.993	89.5
370.219	96.5
370.445	93.5
370.672	84.5
370.898	76.5
371.124	90.5
371.35	85.5
371.576	98.5
371.802	83.5
372.028	76.5
372.254	91.5
372.48	85.5
372.706	97.5
372.932	90.5
373.158	77.5
373.384	72.5
373.61	84.5
373.835	91.5
374.061	88.5
374.287	96.5
374.513	93.5
374.739	101.5
374.965	100.5
375.191	106.5
375.416	91.5
375.642	82.5
375.868	83.5
376.094	70.5
376.319	94.5
376.545	93.5
376.771	77.5
376.997	93.5
377.222	80.5
377.448	90.5
377.674	85.5
377.899	86.5
378.125	83.5
378.35	90.5
378.576	98.5
378.802	85.5
379.027	89.5
379.253	104.5
379.478	96.5
379.704	81.5
379.929	97.5
380.155	89.5
380.38	97.5
380.606	109.5
380.831	100.5
381.057	103.5
381.282	97.5
381.507	92.5
381.733	92.5
381.958	86.5
382.184	101.5
382.409	92.5
382.634	96.5
382.86	90.5
383.085	96.5
383.31	93.5
383.535	97.5
383.761	103.5
383.986	83.5
384.211	94.5
384.436	106.5
384.662	98.5
384.887	89.5
385.112	104.5
385.337	105.5
385.562	95.5
385.787	108.5
386.013	93.5
386.238	101.5
386.463	124.5
386.688	110.5
386.913	100.5
387.138	97.5
387.363	102.5
387.588	104.5
387.813	89.5
388.038	110.5
388.263	93.5
388.488	93.5
388.713	90.5
388.938	97.5
389.163	104.5
389.387	89.5
389.612	85.5
389.837	99.5
390.062	91.5
390.287	90.5
390.512	99.5
390.736	104.5
390.961	100.5
391.186	101.5
391.411	98.5
391.636	63.5
391.86	97.5
392.085	89.5
392.31	81.5
392.534	91.5
392.759	78.5
392.984	88.5
393.208	93.5
393.433	96.5
393.658	96.5
393.882	82.5
394.107	88.5
394.331	81.5
394.556	80.5
394.78	84.5
395.005	98.5
395.229	88.5
395.454	75.5
395.678	86.5
395.903	94.5
396.127	77.5
396.352	83.5
396.576	81.5
396.801	72.5
397.025	94.5
397.249	110.5
397.474	102.5
397.698	108.5
397.922	72.5
398.147	68.5
398.371	96.5
398.595	86.5
398.82	100.5
399.044	105.5
399.268	87.5
399.492	88.5
399.717	90.5
399.941	82.5
400.165	96.5
400.389	92.5
400.613	98.5
400.837	94.5
401.062	86.5
401.286	89.5
401.51	79.5
401.734	92.5
401.958	98.5
402.182	124.5
402.406	159.5
402.63	119.5
402.854	96.5
403.078	100.5
403.302	96.5
403.526	84.5
403.75	83.5
403.974	78.5
404.198	86.5
404.422	82.5
404.645	92.5
404.869	100.5
405.093	103.5
405.317	109.5
405.541	100.5
405.765	103.5
405.988	124.5
406.212	173.5
406.436	242.5
406.66	156.5
406.883	105.5
407.107	97.5
407.331	108.5
407.555	126.5
407.778	100.5
408.002	81.5
408.226	84.5
408.449	89.5
408.673	93.5
408.896	89.5
409.12	96.5
409.344	86.5
409.567	90.5
409.791	101.5
410.014	95.5
410.238	91.5
410.461	103.5
410.685	97.5
410.908	102.5
411.132	103.5
411.355	98.5
411.578	91.5
411.802	102.5
412.025	93.5
412.249	91.5
412.472	94.5
412.695	126.5
412.919	99.5
413.142	81.5
413.365	91.5
413.589	111.5
413.812	98.5
414.035	86.5
414.258	96.5
414.482	76.5
414.705	83.5
414.928	89.5
415.151	96.5
415.374	105.5
415.597	89.5
415.821	90.5
416.044	92.5
416.267	85.5
416.49	112.5
416.713	103.5
416.936	105.5
417.159	89.5
417.382	85.5
417.605	89.5
417.828	100.5
418.051	100.5
418.274	87.5
418.497	94.5
418.72	96.5
418.943	76.5
419.166	78.5
419.389	87.5
419.611	87.5
419.834	101.5
420.057	83.5
420.28	96.5
420.503	81.5
420.726	85.5
420.948	74.5
421.171	102.5
421.394	97.5
421.617	95.5
421.839	94.5
422.062	80.5
422.285	93.5
422.507	104.5
422.73	109.5
422.953	99.5
423.175	83.5
423.398	94.5
423.621	87.5
423.843	101.5
424.066	88.5
424.288	84.5
424.511	93.5
424.733	91.5
424.956	97.5
425.178	94.5
425.401	118.5
425.623	100.5
425.846	99.5
426.068	94.5
426.291	95.5
426.513	93.5
426.735	92.5
426.958	83.5
427.18	113.5
427.402	161.5
427.625	207.5
427.847	170.5
428.069	168.5
428.292	112.5
428.514	107.5
428.736	77.5
428.958	98.5
429.181	84.5
429.403	80.5
429.625	99.5
429.847	80.5
430.069	105.5
430.292	89.5
430.514	83.5
430.736	100.5
430.958	100.5
431.18	68.5
431.402	81.5
431.624	88.5
431.846	75.5
432.068	78.5
432.29	92.5
432.512	90.5
432.734	78.5
432.956	87.5
433.178	86.5
433.4	86.5
433.622	100.5
433.844	74.5
434.066	93.5
434.287	90.5
434.509	91.5
434.731	92.5
434.953	91.5
435.175	97.5
435.397	86.5
435.618	92.5
435.84	113.5
436.062	149.5
436.284	114.5
436.505	113.5
436.727	105.5
436.949	85.5
437.17	83.5
437.392	87.5
437.614	85.5
437.835	111.5
438.057	136.5
438.278	105.5
438.5	122.5
438.721	136.5
438.943	101.5
439.165	86.5
439.386	78.5
439.608	103.5
439.829	108.5
440.05	138.5
440.272	149.5
440.493	93.5
440.715	86.5
440.936	75.5
441.158	91.5
441.379	89.5
441.6	101.5
441.822	93.5
442.043	91.5
442.264	119.5
442.486	117.5
442.707	118.5
442.928	109.5
443.149	132.5
443.371	152.5
443.592	114.5
443.813	129.5
444.034	115.5
444.255	85.5
444.476	86.5
444.698	98.5
444.919	108.5
445.14	109.5
445.361	124.5
445.582	146.5
445.803	149.5
446.024	157.5
446.245	147.5
446.466	112.5
446.687	92.5
446.908	95.5
447.129	89.5
447.35	88.5
447.571	93.5
447.792	93.5
448.013	103.5
448.234	117.5
448.455	99.5
448.675	132.5
448.896	129.5
449.117	109.5
449.338	96.5
449.559	123.5
449.779	144.5
450	88.5
450.221	91.5
450.442	88.5
450.662	94.5
450.883	121.5
451.104	105.5
451.324	98.5
451.545	89.5
451.766	74.5
451.986	84.5
452.207	99.5
452.428	100.5
452.648	100.5
452.869	120.5
453.089	114.5
453.31	122.5
453.53	99.5
453.751	88.5
453.971	97.5
454.192	113.5
454.412	110.5
454.633	96.5
454.853	97.5
455.073	91.5
455.294	87.5
455.514	96.5
455.734	78.5
455.955	85.5
456.175	99.5
456.395	95.5
456.616	93.5
456.836	97.5
457.056	85.5
457.276	75.5
457.497	89.5
457.717	72.5
457.937	73.5
458.157	94.5
458.377	88.5
458.598	118.5
458.818	172.5
459.038	183.5
459.258	119.5
459.478	96.5
459.698	90.5
459.918	77.5
460.138	74.5
460.358	87.5
460.578	104.5
460.798	85.5
461.018	97.5
461.238	63.5
461.458	83.5
461.678	76.5
461.898	83.5
462.118	81.5
462.338	97.5
462.558	75.5
462.777	91.5
462.997	85.5
463.217	84.5
463.437	97.5
463.657	78.5
463.876	86.5
464.096	88.5
464.316	103.5
464.536	98.5
464.755	88.5
464.975	106.5
465.195	170.5
465.414	172.5
465.634	113.5
465.854	86.5
466.073	100.5
466.293	88.5
466.512	78.5
466.732	89.5
466.951	82.5
467.171	82.5
467.391	97.5
467.61	108.5
467.829	121.5
468.049	208.5
468.268	300.5
468.488	130.5
468.707	76.5
468.927	87.5
469.146	89.5
469.365	81.5
469.585	101.5
469.804	90.5
470.023	101.5
470.243	113.5
470.462	115.5
470.681	108.5
470.901	89.5
471.12	92.5
471.339	101.5
471.558	100.5
471.777	121.5
471.997	146.5
472.216	404.5
472.435	843.5
472.654	252.5
472.873	118.5
473.092	98.5
473.311	97.5
473.53	97.5
473.749	90.5
473.968	105.5
474.187	119.5
474.406	97.5
474.625	93.5
474.844	84.5
475.063	85.5
475.282	81.5
475.501	97.5
475.72	83.5
475.939	97.5
476.158	90.5
476.377	93.5
476.596	83.5
476.814	78.5
477.033	92.5
477.252	84.5
477.471	78.5
477.69	96.5
477.908	94.5
478.127	101.5
478.346	78.5
478.564	88.5
478.783	103.5
479.002	101.5
479.22	95.5
479.439	120.5
479.658	121.5
479.876	108.5
480.095	77.5
480.313	105.5
480.532	118.5
480.751	150.5
480.969	411.5
481.188	1425.5
481.406	903.5
481.624	192.5
481.843	108.5
482.061	84.5
482.28	92.5
482.498	93.5
482.717	91.5
482.935	90.5
483.153	74.5
483.372	94.5
483.59	93.5
483.808	87.5
484.027	97.5
484.245	89.5
484.463	84.5
484.681	101.5
484.9	94.5
485.118	86.5
485.336	107.5
485.554	101.5
485.772	98.5
485.99	106.5
486.209	116.5
486.427	117.5
486.645	92.5
486.863	113.5
487.081	96.5
487.299	99.5
487.517	104.5
487.735	97.5
487.953	93.5
488.171	95.5
488.389	85.5
488.607	109.5
488.825	93.5
489.043	86.5
489.261	77.5
489.479	72.5
489.696	84.5
489.914	77.5
490.132	91.5
490.35	92.5
490.568	88.5
490.786	88.5
491.003	82.5
491.221	97.5
491.439	87.5
491.657	98.5
491.874	85.5
492.092	101.5
492.31	100.5
492.527	98.5
492.745	82.5
492.963	86.5
493.18	93.5
493.398	84.5
493.615	90.5
493.833	82.5
494.05	87.5
494.268	105.5
494.485	90.5
494.703	78.5
494.92	77.5
495.138	78.5
495.355	70.5
495.573	95.5
495.79	99.5
496.008	99.5
496.225	71.5
496.442	84.5
496.66	101.5
496.877	98.5
497.094	102.5
497.312	88.5
497.529	101.5
497.746	95.5
497.963	75.5
498.181	88.5
498.398	92.5
498.615	104.5
498.832	91.5
499.049	94.5
499.267	100.5
499.484	89.5
499.701	92.5
499.918	83.5
500.135	87.5
500.352	71.5
500.569	84.5
500.786	89.5
501.003	92.5
501.22	78.5
501.437	81.5
501.654	85.5
501.871	106.5
502.088	102.5
502.305	89.5
502.522	95.5
502.739	89.5
502.956	84.5
503.172	85.5
503.389	93.5
503.606	116.5
503.823	91.5
504.04	88.5
504.256	98.5
504.473	86.5
504.69	97.5
504.907	88.5
505.123	88.5
505.34	100.5
505.557	98.5
505.773	98.5
505.99	89.5
506.207	82.5
506.423	85.5
506.64	89.5
506.856	86.5
507.073	90.5
507.289	102.5
507.506	85.5
507.722	107.5
507.939	114.5
508.155	92.5
508.372	91.5
508.588	85.5
508.805	102.5
509.021	94.5
509.238	106.5
509.454	100.5
509.67	98.5
509.887	103.5
510.103	137.5
510.319	192.5
510.536	720.5
510.752	2344.5
510.968	694.5
511.184	144.5
511.401	114.5
511.617	102.5
511.833	93.5
512.049	94.5
512.265	90.5
512.481	76.5
512.698	90.5
512.914	95.5
513.13	95.5
513.346	99.5
513.562	88.5
513.778	99.5
513.994	93.5
514.21	103.5
514.426	118.5
514.642	148.5
514.858	124.5
515.074	168.5
515.29	461.5
515.506	1613.5
515.721	609.5
515.937	157.5
516.153	116.5
516.369	102.5
516.585	110.5
516.801	102.5
517.016	90.5
517.232	101.5
517.448	85.5
517.664	91.5
517.879	93.5
518.095	99.5
518.311	88.5
518.527	93.5
518.742	96.5
518.958	98.5
519.173	104.5
519.389	89.5
519.605	99.5
519.82	100.5
520.036	114.5
520.251	120.5
520.467	107.5
520.682	105.5
520.898	116.5
521.113	135.5
521.329	148.5
521.544	216.5
521.76	610.5
521.975	2638.5
522.19	1634.5
522.406	348.5
522.621	128.5
522.836	92.5
523.052	108.5
523.267	98.5
523.482	108.5
523.698	112.5
523.913	128.5
524.128	100.5
524.343	95.5
524.559	93.5
524.774	83.5
524.989	100.5
525.204	101.5
525.419	81.5
525.634	84.5
525.849	87.5
526.064	97.5
526.28	77.5
526.495	87.5
526.71	88.5
526.925	85.5
527.14	81.5
527.355	87.5
527.57	93.5
527.785	88.5
527.999	94.5
528.214	85.5
528.429	81.5
528.644	88.5
528.859	91.5
529.074	88.5
529.289	115.5
529.503	183.5
529.718	104.5
529.933	94.5
530.148	100.5
530.363	90.5
530.577	103.5
530.792	99.5
531.007	77.5
531.221	76.5
531.436	89.5
531.651	92.5
531.865	89.5
532.08	90.5
532.295	84.5
532.509	99.5
532.724	93.5
532.938	89.5
533.153	94.5
533.367	87.5
533.582	88.5
533.796	82.5
534.011	85.5
534.225	78.5
534.44	96.5
534.654	85.5
534.868	74.5
535.083	98.5
535.297	101.5
535.511	99.5
535.726	109.5
535.94	102.5
536.154	106.5
536.369	84.5
536.583	77.5
536.797	92.5
537.011	85.5
537.225	86.5
537.44	89.5
537.654	84.5
537.868	97.5
538.082	90.5
538.296	90.5
538.51	97.5
538.724	96.5
538.938	72.5
539.153	102.5
539.367	107.5
539.581	74.5
539.795	88.5
540.009	83.5
540.222	81.5
540.436	90.5
540.65	84.5
540.864	93.5
541.078	86.5
541.292	87.5
541.506	85.5
541.72	90.5
541.934	81.5
542.147	89.5
542.361	102.5
542.575	85.5
542.789	100.5
543.002	76.5
543.216	85.5
543.43	93.5
543.644	91.5
543.857	88.5
544.071	85.5
544.285	105.5
544.498	73.5
544.712	87.5
544.925	94.5
545.139	80.5
545.352	85.5
545.566	100.5
545.779	77.5
545.993	78.5
546.206	75.5
546.42	86.5
546.633	72.5
546.847	93.5
547.06	82.5
547.274	82.5
547.487	97.5
547.7	91.5
547.914	86.5
548.127	87.5
548.34	74.5
548.554	80.5
548.767	86.5
548.98	77.5
549.193	78.5
549.407	78.5
549.62	84.5
549.833	77.5
550.046	80.5
550.259	79.5
550.473	71.5
550.686	90.5
550.899	77.5
551.112	87.5
551.325	79.5
551.538	84.5
551.751	93.5
551.964	85.5
552.177	82.5
552.39	94.5
552.603	77.5
552.816	76.5
553.029	85.5
553.242	96.5
553.455	103.5
553.667	108.5
553.88	105.5
554.093	103.5
554.306	105.5
554.519	83.5
554.732	89.5
554.944	91.5
555.157	92.5
555.37	86.5
555.583	86.5
555.795	86.5
556.008	76.5
556.221	86.5
556.433	77.5
556.646	94.5
556.859	91.5
557.071	91.5
557.284	84.5
557.496	89.5
557.709	90.5
557.921	100.5
558.134	93.5
558.346	93.5
558.559	104.5
558.771	76.5
558.984	82.5
559.196	82.5
559.409	94.5
559.621	79.5
559.833	70.5
560.046	94.5
560.258	99.5
560.47	106.5
560.683	96.5
560.895	81.5
561.107	97.5
561.32	76.5
561.532	96.5
561.744	89.5
561.956	102.5
562.168	89.5
562.381	92.5
562.593	88.5
562.805	92.5
563.017	93.5
563.229	102.5
563.441	91.5
563.653	90.5
563.865	85.5
564.077	78.5
564.289	94.5
564.501	97.5
564.713	88.5
564.925	89.5
565.137	97.5
565.349	94.5
565.561	102.5
565.773	83.5
565.985	81.5
566.197	76.5
566.408	84.5
566.62	78.5
566.832	82.5
567.044	80.5
567.255	84.5
567.467	91.5
567.679	87.5
567.891	109.5
568.102	85.5
568.314	98.5
568.526	66.5
568.737	81.5
568.949	91.5
569.161	74.5
569.372	96.5
569.584	78.5
569.795	96.5
570.007	111.5
570.218	231.5
570.43	142.5
570.641	94.5
570.853	73.5
571.064	80.5
571.276	81.5
571.487	76.5
571.698	93.5
571.91	88.5
572.121	86.5
572.333	82.5
572.544	92.5
572.755	85.5
572.966	86.5
573.178	91.5
573.389	89.5
573.6	94.5
573.811	77.5
574.023	81.5
574.234	94.5
574.445	84.5
574.656	75.5
574.867	88.5
575.078	86.5
575.289	88.5
575.501	84.5
575.712	93.5
575.923	76.5
576.134	90.5
576.345	93.5
576.556	82.5
576.767	94.5
576.978	90.5
577.188	90.5
577.399	93.5
577.61	97.5
577.821	98.5
578.032	98.5
578.243	234.5
578.454	708.5
578.665	214.5
578.875	104.5
579.086	89.5
579.297	96.5
579.508	93.5
579.718	84.5
579.929	97.5
580.14	82.5
580.35	90.5
580.561	93.5
580.772	99.5
580.982	89.5
581.193	83.5
581.403	81.5
581.614	81.5
581.825	84.5
582.035	89.5
582.246	84.5
582.456	89.5
582.667	91.5
582.877	78.5
583.087	73.5
583.298	81.5
583.508	99.5
583.719	84.5
583.929	80.5
584.139	88.5
584.35	86.5
584.56	83.5
584.77	79.5
584.981	76.5
585.191	86.5
585.401	84.5
585.611	73.5
585.821	98.5
586.032	96.5
586.242	89.5
586.452	86.5
586.662	64.5
586.872	72.5
587.082	86.5
587.292	74.5
587.502	84.5
587.713	89.5
587.923	92.5
588.133	86.5
588.343	98.5
588.553	74.5
588.762	86.5
588.972	80.5
589.182	81.5
589.392	95.5
589.602	88.5
589.812	97.5
590.022	86.5
590.232	89.5
590.441	87.5
590.651	78.5
590.861	83.5
591.071	102.5
591.281	91.5
591.49	83.5
591.7	82.5
591.91	82.5
592.119	86.5
592.329	94.5
592.539	103.5
592.748	97.5
592.958	87.5
593.167	79.5
593.377	91.5
593.587	101.5
593.796	93.5
594.006	88.5
594.215	70.5
594.424	97.5
594.634	75.5
594.843	82.5
595.053	81.5
595.262	78.5
595.472	85.5
595.681	91.5
595.89	81.5
596.1	100.5
596.309	93.5
596.518	89.5
596.727	90.5
596.937	94.5
597.146	79.5
597.355	76.5
597.564	80.5
597.774	85.5
597.983	84.5
598.192	72.5
598.401	69.5
598.61	75.5
598.819	75.5
599.028	78.5
599.237	69.5
599.446	77.5
599.655	87.5
599.864	91.5
600.073	76.5
600.282	88.5
600.491	92.5
600.7	70.5
600.909	68.5
601.118	90.5
601.327	89.5
601.536	83.5
601.745	83.5
601.953	78.5
602.162	67.5
602.371	84.5
602.58	86.5
602.789	92.5
602.997	80.5
603.206	97.5
603.415	85.5
603.623	79.5
603.832	71.5
604.041	93.5
604.249	88.5
604.458	77.5
604.666	82.5
604.875	92.5
605.084	85.5
605.292	81.5
605.501	91.5
605.709	95.5
605.918	77.5
606.126	80.5
606.334	66.5
606.543	78.5
606.751	70.5
606.96	68.5
607.168	92.5
607.376	88.5
607.585	91.5
607.793	86.5
608.001	91.5
608.21	75.5
608.418	73.5
608.626	76.5
608.834	73.5
609.043	75.5
609.251	96.5
609.459	89.5
609.667	94.5
609.875	81.5
610.083	64.5
610.291	82.5
610.499	84.5
610.707	84.5
610.916	82.5
611.124	95.5
611.332	69.5
611.54	73.5
611.748	83.5
611.955	76.5
612.163	87.5
612.371	75.5
612.579	91.5
612.787	84.5
612.995	81.5
613.203	62.5
613.411	84.5
613.618	80.5
613.826	80.5
614.034	86.5
614.242	89.5
614.449	76.5
614.657	82.5
614.865	74.5
615.072	81.5
615.28	67.5
615.488	91.5
615.695	93.5
615.903	96.5
616.111	89.5
616.318	97.5
616.526	94.5
616.733	95.5
616.941	78.5
617.148	81.5
617.356	83.5
617.563	71.5
617.771	80.5
617.978	76.5
618.185	78.5
618.393	77.5
618.6	65.5
618.807	75.5
619.015	78.5
619.222	73.5
619.429	92.5
619.637	91.5
619.844	81.5
620.051	89.5
620.258	91.5
620.466	81.5
620.673	76.5
620.88	86.5
621.087	100.5
621.294	80.5
621.501	76.5
621.708	75.5
621.915	79.5
622.122	86.5
622.329	87.5
622.536	93.5
622.743	79.5
622.95	77.5
623.157	96.5
623.364	80.5
623.571	84.5
623.778	87.5
623.985	85.5
624.192	68.5
624.399	73.5
624.606	85.5
624.812	81.5
625.019	94.5
625.226	92.5
625.433	85.5
625.639	82.5
625.846	78.5
626.053	82.5
626.259	75.5
626.466	75.5
626.673	86.5
626.879	84.5
627.086	79.5
627.293	94.5
627.499	78.5
627.706	88.5
627.912	86.5
628.119	89.5
628.325	85.5
628.532	81.5
628.738	82.5
628.945	88.5
629.151	83.5
629.357	72.5
629.564	75.5
629.77	78.5
629.976	85.5
630.183	86.5
630.389	71.5
630.595	80.5
630.802	67.5
631.008	85.5
631.214	65.5
631.42	91.5
631.627	67.5
631.833	76.5
632.039	79.5
632.245	92.5
632.451	86.5
632.657	69.5
632.863	90.5
633.069	81.5
633.275	79.5
633.481	84.5
633.688	71.5
633.893	85.5
634.099	81.5
634.305	77.5
634.511	83.5
634.717	87.5
634.923	81.5
635.129	66.5
635.335	86.5
635.541	77.5
635.747	85.5
635.952	86.5
636.158	94.5
636.364	170.5
636.57	141.5
636.775	106.5
636.981	95.5
637.187	94.5
637.392	83.5
637.598	72.5
637.804	72.5
638.009	78.5
638.215	86.5
638.421	99.5
638.626	87.5
638.832	94.5
639.037	88.5
639.243	95.5
639.448	66.5
639.654	83.5
639.859	73.5
640.065	94.5
640.27	83.5
640.475	89.5
640.681	87.5
640.886	92.5
641.091	81.5
641.297	81.5
641.502	69.5
641.707	89.5
641.913	83.5
642.118	86.5
642.323	76.5
642.528	85.5
642.733	89.5
642.939	88.5
643.144	103.5
643.349	83.5
643.554	79.5
643.759	76.5
643.964	85.5
644.169	72.5
644.374	85.5
644.579	86.5
644.784	78.5
644.989	87.5
645.194	77.5
645.399	77.5
645.604	89.5
645.809	81.5
646.014	82.5
646.219	85.5
646.423	91.5
646.628	81.5
646.833	93.5
647.038	85.5
647.243	91.5
647.447	85.5
647.652	99.5
647.857	93.5
648.062	102.5
648.266	77.5
648.471	91.5
648.676	91.5
648.88	78.5
649.085	76.5
649.289	86.5
649.494	105.5
649.698	139.5
649.903	104.5
650.107	97.5
650.312	83.5
650.516	69.5
650.721	77.5
650.925	64.5
651.13	81.5
651.334	86.5
651.539	82.5
651.743	81.5
651.947	84.5
652.152	86.5
652.356	86.5
652.56	89.5
652.764	81.5
652.969	76.5
653.173	84.5
653.377	87.5
653.581	73.5
653.785	89.5
653.99	70.5
654.194	77.5
654.398	79.5
654.602	81.5
654.806	91.5
655.01	105.5
655.214	90.5
655.418	95.5
655.622	66.5
655.826	81.5
656.03	84.5
656.234	87.5
656.438	95.5
656.642	102.5
656.846	83.5
657.049	76.5
657.253	87.5
657.457	87.5
657.661	74.5
657.865	82.5
658.068	95.5
658.272	97.5
658.476	78.5
658.68	82.5
658.883	74.5
659.087	85.5
659.291	73.5
659.494	73.5
659.698	76.5
659.901	81.5
660.105	88.5
660.309	92.5
660.512	76.5
660.716	80.5
660.919	76.5
661.123	86.5
661.326	69.5
661.53	93.5
661.733	85.5
661.936	80.5
662.14	86.5
662.343	85.5
662.546	81.5
662.75	92.5
662.953	81.5
663.156	83.5
663.36	84.5
663.563	70.5
663.766	66.5
663.969	73.5
664.173	57.5
664.376	76.5
664.579	86.5
664.782	67.5
664.985	78.5
665.188	85.5
665.391	80.5
665.594	91.5
665.797	96.5
666	72.5
666.203	76.5
666.406	71.5
666.609	77.5
666.812	76.5
667.015	79.5
667.218	89.5
667.421	75.5
667.624	75.5
667.827	81.5
668.03	85.5
668.232	74.5
668.435	74.5
668.638	77.5
668.841	86.5
669.043	78.5
669.246	88.5
669.449	68.5
669.651	84.5
669.854	82.5
670.057	85.5
670.259	74.5
670.462	82.5
670.665	78.5
670.867	86.5
671.07	86.5
671.272	85.5
671.475	75.5
671.677	80.5
671.88	75.5
672.082	81.5
672.284	91.5
672.487	78.5
672.689	83.5
672.892	91.5
