Data from 237_1_HRD10591_00042.txt Node
Date: Mon Jan 19 14:10:50 EST 2026
User: Yrep
Spectrometer: HR+D1059
Trigger mode: 1
Integration Time (sec): 1.000000E-1
Scans to average: 1
Electric dark correction enabled: true
Nonlinearity correction enabled: false
Boxcar width: 0
XAxis mode: Wavelengths
Number of Pixels in Spectrum: 2048
>>>>>Begin Spectral Data<<<<<
223.165	-27.81
223.4	-27.81
223.635	-27.81
223.869	-19.81
224.104	-26.81
224.338	-21.81
224.573	-10.81
224.808	0.19
225.042	-9.81
225.277	-10.81
225.511	8.19
225.746	22.19
225.98	7.19
226.215	3.19
226.449	-1.81
226.683	17.19
226.918	26.19
227.152	45.19
227.387	28.19
227.621	36.19
227.856	37.19
228.09	52.19
228.324	59.19
228.559	58.19
228.793	57.19
229.027	57.19
229.262	58.19
229.496	58.19
229.73	65.19
229.964	76.19
230.199	70.19
230.433	77.19
230.667	83.19
230.901	65.19
231.136	78.19
231.37	86.19
231.604	81.19
231.838	81.19
232.072	88.19
232.306	71.19
232.541	76.19
232.775	78.19
233.009	87.19
233.243	85.19
233.477	74.19
233.711	86.19
233.945	74.19
234.179	76.19
234.413	83.19
234.647	72.19
234.881	81.19
235.115	77.19
235.349	82.19
235.583	64.19
235.817	90.19
236.051	69.19
236.285	76.19
236.519	70.19
236.753	77.19
236.987	70.19
237.221	66.19
237.455	67.19
237.689	87.19
237.922	70.19
238.156	75.19
238.39	91.19
238.624	76.19
238.858	82.19
239.091	76.19
239.325	66.19
239.559	76.19
239.793	70.19
240.027	75.19
240.26	80.19
240.494	69.19
240.728	70.19
240.961	78.19
241.195	69.19
241.429	70.19
241.662	61.19
241.896	78.19
242.13	68.19
242.363	62.19
242.597	86.19
242.83	77.19
243.064	76.19
243.298	84.19
243.531	88.19
243.765	67.19
243.998	79.19
244.232	98.19
244.465	75.19
244.699	80.19
244.932	82.19
245.166	83.19
245.399	79.19
245.633	78.19
245.866	74.19
246.099	74.19
246.333	76.19
246.566	86.19
246.8	85.19
247.033	73.19
247.266	70.19
247.5	83.19
247.733	68.19
247.966	80.19
248.2	70.19
248.433	87.19
248.666	87.19
248.899	84.19
249.133	77.19
249.366	82.19
249.599	76.19
249.832	87.19
250.066	79.19
250.299	86.19
250.532	71.19
250.765	66.19
250.998	96.19
251.231	78.19
251.465	72.19
251.698	85.19
251.931	86.19
252.164	72.19
252.397	88.19
252.63	86.19
252.863	100.19
253.096	73.19
253.329	75.19
253.562	74.19
253.795	89.19
254.028	92.19
254.261	65.19
254.494	88.19
254.727	69.19
254.96	72.19
255.193	84.19
255.426	96.19
255.659	88.19
255.892	84.19
256.124	78.19
256.357	76.19
256.59	85.19
256.823	74.19
257.056	78.19
257.289	78.19
257.521	72.19
257.754	73.19
257.987	79.19
258.22	93.19
258.452	68.19
258.685	71.19
258.918	69.19
259.151	82.19
259.383	85.19
259.616	75.19
259.849	90.19
260.081	74.19
260.314	80.19
260.547	70.19
260.779	83.19
261.012	92.19
261.244	87.19
261.477	80.19
261.71	89.19
261.942	74.19
262.175	80.19
262.407	76.19
262.64	84.19
262.872	85.19
263.105	83.19
263.337	83.19
263.57	91.19
263.802	94.19
264.035	82.19
264.267	75.19
264.499	87.19
264.732	81.19
264.964	92.19
265.197	92.19
265.429	74.19
265.661	74.19
265.894	73.19
266.126	78.19
266.358	85.19
266.591	84.19
266.823	87.19
267.055	89.19
267.287	72.19
267.52	79.19
267.752	76.19
267.984	75.19
268.216	88.19
268.448	83.19
268.681	82.19
268.913	85.19
269.145	84.19
269.377	68.19
269.609	96.19
269.841	72.19
270.073	83.19
270.306	92.19
270.538	73.19
270.77	77.19
271.002	81.19
271.234	84.19
271.466	78.19
271.698	73.19
271.93	75.19
272.162	81.19
272.394	87.19
272.626	84.19
272.858	77.19
273.09	85.19
273.322	71.19
273.553	73.19
273.785	86.19
274.017	93.19
274.249	82.19
274.481	94.19
274.713	69.19
274.945	81.19
275.176	96.19
275.408	89.19
275.64	83.19
275.872	85.19
276.104	81.19
276.335	83.19
276.567	95.19
276.799	76.19
277.031	85.19
277.262	90.19
277.494	81.19
277.726	99.19
277.957	73.19
278.189	75.19
278.421	86.19
278.652	84.19
278.884	76.19
279.115	86.19
279.347	102.19
279.579	82.19
279.81	85.19
280.042	88.19
280.273	73.19
280.505	81.19
280.736	87.19
280.968	81.19
281.199	87.19
281.431	86.19
281.662	83.19
281.894	71.19
282.125	85.19
282.356	79.19
282.588	84.19
282.819	79.19
283.051	93.19
283.282	93.19
283.513	78.19
283.745	89.19
283.976	76.19
284.207	93.19
284.439	76.19
284.67	80.19
284.901	95.19
285.132	86.19
285.364	90.19
285.595	83.19
285.826	98.19
286.057	90.19
286.288	82.19
286.52	77.19
286.751	86.19
286.982	82.19
287.213	70.19
287.444	91.19
287.675	80.19
287.906	65.19
288.138	80.19
288.369	84.19
288.6	73.19
288.831	75.19
289.062	80.19
289.293	82.19
289.524	72.19
289.755	84.19
289.986	91.19
290.217	88.19
290.448	94.19
290.679	72.19
290.91	93.19
291.141	88.19
291.371	76.19
291.602	84.19
291.833	73.19
292.064	102.19
292.295	72.19
292.526	88.19
292.757	78.19
292.987	78.19
293.218	82.19
293.449	74.19
293.68	101.19
293.91	91.19
294.141	82.19
294.372	76.19
294.603	85.19
294.833	78.19
295.064	88.19
295.295	76.19
295.525	73.19
295.756	81.19
295.987	80.19
296.217	88.19
296.448	93.19
296.679	88.19
296.909	76.19
297.14	84.19
297.37	84.19
297.601	84.19
297.831	79.19
298.062	102.19
298.292	92.19
298.523	97.19
298.753	71.19
298.984	77.19
299.214	88.19
299.445	85.19
299.675	92.19
299.905	79.19
300.136	86.19
300.366	81.19
300.597	77.19
300.827	96.19
301.057	82.19
301.288	89.19
301.518	86.19
301.748	78.19
301.979	92.19
302.209	86.19
302.439	83.19
302.669	86.19
302.9	73.19
303.13	77.19
303.36	79.19
303.59	81.19
303.82	99.19
304.051	91.19
304.281	86.19
304.511	101.19
304.741	92.19
304.971	80.19
305.201	84.19
305.431	81.19
305.661	92.19
305.891	82.19
306.121	104.19
306.352	90.19
306.582	75.19
306.812	76.19
307.042	93.19
307.272	77.19
307.502	63.19
307.731	85.19
307.961	99.19
308.191	85.19
308.421	84.19
308.651	94.19
308.881	78.19
309.111	88.19
309.341	83.19
309.571	101.19
309.8	86.19
310.03	92.19
310.26	78.19
310.49	81.19
310.72	83.19
310.949	75.19
311.179	70.19
311.409	85.19
311.639	74.19
311.868	88.19
312.098	87.19
312.328	91.19
312.557	99.19
312.787	84.19
313.017	91.19
313.246	98.19
313.476	77.19
313.706	76.19
313.935	80.19
314.165	74.19
314.394	90.19
314.624	88.19
314.853	83.19
315.083	87.19
315.312	87.19
315.542	87.19
315.771	94.19
316.001	78.19
316.23	73.19
316.46	91.19
316.689	98.19
316.919	96.19
317.148	83.19
317.377	96.19
317.607	101.19
317.836	94.19
318.065	80.19
318.295	79.19
318.524	83.19
318.753	93.19
318.983	97.19
319.212	94.19
319.441	88.19
319.67	86.19
319.9	100.19
320.129	89.19
320.358	85.19
320.587	84.19
320.816	84.19
321.046	84.19
321.275	94.19
321.504	88.19
321.733	82.19
321.962	79.19
322.191	85.19
322.42	85.19
322.649	101.19
322.878	77.19
323.108	86.19
323.337	84.19
323.566	82.19
323.795	95.19
324.024	76.19
324.253	74.19
324.482	78.19
324.71	95.19
324.939	95.19
325.168	81.19
325.397	92.19
325.626	77.19
325.855	88.19
326.084	89.19
326.313	85.19
326.542	84.19
326.77	90.19
326.999	102.19
327.228	92.19
327.457	92.19
327.686	91.19
327.914	94.19
328.143	94.19
328.372	77.19
328.6	67.19
328.829	89.19
329.058	94.19
329.287	95.19
329.515	92.19
329.744	79.19
329.972	99.19
330.201	102.19
330.43	84.19
330.658	107.19
330.887	101.19
331.115	84.19
331.344	88.19
331.572	92.19
331.801	99.19
332.03	86.19
332.258	84.19
332.486	66.19
332.715	82.19
332.943	84.19
333.172	90.19
333.4	74.19
333.629	91.19
333.857	82.19
334.085	72.19
334.314	102.19
334.542	85.19
334.771	91.19
334.999	105.19
335.227	86.19
335.455	83.19
335.684	89.19
335.912	78.19
336.14	77.19
336.369	93.19
336.597	80.19
336.825	92.19
337.053	92.19
337.281	93.19
337.51	88.19
337.738	90.19
337.966	87.19
338.194	91.19
338.422	97.19
338.65	91.19
338.878	92.19
339.106	78.19
339.334	81.19
339.562	86.19
339.79	89.19
340.018	77.19
340.246	82.19
340.474	73.19
340.702	79.19
340.93	83.19
341.158	89.19
341.386	74.19
341.614	69.19
341.842	90.19
342.07	89.19
342.298	73.19
342.526	84.19
342.754	93.19
342.981	77.19
343.209	78.19
343.437	92.19
343.665	94.19
343.893	79.19
344.12	90.19
344.348	76.19
344.576	99.19
344.804	82.19
345.031	93.19
345.259	91.19
345.487	94.19
345.714	81.19
345.942	86.19
346.17	84.19
346.397	103.19
346.625	85.19
346.853	78.19
347.08	91.19
347.308	92.19
347.535	89.19
347.763	85.19
347.99	87.19
348.218	97.19
348.445	94.19
348.673	85.19
348.9	90.19
349.128	89.19
349.355	95.19
349.583	92.19
349.81	78.19
350.037	91.19
350.265	88.19
350.492	78.19
350.72	81.19
350.947	98.19
351.174	95.19
351.402	95.19
351.629	96.19
351.856	73.19
352.083	75.19
352.311	78.19
352.538	84.19
352.765	77.19
352.992	92.19
353.22	88.19
353.447	84.19
353.674	82.19
353.901	85.19
354.128	91.19
354.355	80.19
354.583	80.19
354.81	88.19
355.037	82.19
355.264	95.19
355.491	86.19
355.718	79.19
355.945	89.19
356.172	81.19
356.399	88.19
356.626	83.19
356.853	84.19
357.08	93.19
357.307	89.19
357.534	79.19
357.761	83.19
357.988	83.19
358.215	91.19
358.441	92.19
358.668	85.19
358.895	76.19
359.122	81.19
359.349	79.19
359.576	81.19
359.802	87.19
360.029	78.19
360.256	82.19
360.483	70.19
360.709	82.19
360.936	91.19
361.163	92.19
361.39	85.19
361.616	88.19
361.843	92.19
362.07	90.19
362.296	95.19
362.523	91.19
362.749	86.19
362.976	92.19
363.203	87.19
363.429	92.19
363.656	81.19
363.882	84.19
364.109	92.19
364.335	76.19
364.562	101.19
364.788	86.19
365.015	82.19
365.241	87.19
365.468	87.19
365.694	87.19
365.92	77.19
366.147	83.19
366.373	82.19
366.599	74.19
366.826	81.19
367.052	78.19
367.278	84.19
367.505	78.19
367.731	88.19
367.957	86.19
368.184	85.19
368.41	95.19
368.636	90.19
368.862	92.19
369.089	88.19
369.315	78.19
369.541	86.19
369.767	80.19
369.993	84.19
370.219	85.19
370.445	89.19
370.672	85.19
370.898	87.19
371.124	82.19
371.35	87.19
371.576	79.19
371.802	78.19
372.028	92.19
372.254	83.19
372.48	84.19
372.706	94.19
372.932	101.19
373.158	83.19
373.384	76.19
373.61	98.19
373.835	93.19
374.061	77.19
374.287	85.19
374.513	79.19
374.739	87.19
374.965	87.19
375.191	100.19
375.416	78.19
375.642	90.19
375.868	74.19
376.094	80.19
376.319	86.19
376.545	100.19
376.771	96.19
376.997	76.19
377.222	81.19
377.448	72.19
377.674	90.19
377.899	68.19
378.125	90.19
378.35	92.19
378.576	97.19
378.802	79.19
379.027	83.19
379.253	100.19
379.478	96.19
379.704	81.19
379.929	86.19
380.155	85.19
380.38	94.19
380.606	87.19
380.831	91.19
381.057	91.19
381.282	83.19
381.507	76.19
381.733	85.19
381.958	85.19
382.184	93.19
382.409	88.19
382.634	84.19
382.86	87.19
383.085	84.19
383.31	76.19
383.535	82.19
383.761	60.19
383.986	82.19
384.211	84.19
384.436	91.19
384.662	94.19
384.887	86.19
385.112	84.19
385.337	93.19
385.562	89.19
385.787	78.19
386.013	74.19
386.238	85.19
386.463	75.19
386.688	107.19
386.913	86.19
387.138	80.19
387.363	94.19
387.588	79.19
387.813	88.19
388.038	87.19
388.263	83.19
388.488	88.19
388.713	77.19
388.938	81.19
389.163	89.19
389.387	86.19
389.612	85.19
389.837	89.19
390.062	88.19
390.287	78.19
390.512	84.19
390.736	78.19
390.961	82.19
391.186	81.19
391.411	86.19
391.636	74.19
391.86	68.19
392.085	82.19
392.31	82.19
392.534	93.19
392.759	93.19
392.984	88.19
393.208	84.19
393.433	112.19
393.658	107.19
393.882	95.19
394.107	83.19
394.331	82.19
394.556	94.19
394.78	77.19
395.005	86.19
395.229	82.19
395.454	76.19
395.678	91.19
395.903	97.19
396.127	90.19
396.352	85.19
396.576	94.19
396.801	105.19
397.025	102.19
397.249	82.19
397.474	89.19
397.698	88.19
397.922	83.19
398.147	94.19
398.371	97.19
398.595	82.19
398.82	72.19
399.044	96.19
399.268	81.19
399.492	83.19
399.717	93.19
399.941	77.19
400.165	70.19
400.389	85.19
400.613	88.19
400.837	90.19
401.062	93.19
401.286	76.19
401.51	91.19
401.734	89.19
401.958	72.19
402.182	83.19
402.406	87.19
402.63	63.19
402.854	70.19
403.078	92.19
403.302	87.19
403.526	77.19
403.75	83.19
403.974	82.19
404.198	92.19
404.422	90.19
404.645	93.19
404.869	73.19
405.093	91.19
405.317	77.19
405.541	98.19
405.765	82.19
405.988	81.19
406.212	96.19
406.436	71.19
406.66	85.19
406.883	82.19
407.107	83.19
407.331	88.19
407.555	72.19
407.778	80.19
408.002	82.19
408.226	85.19
408.449	92.19
408.673	82.19
408.896	98.19
409.12	83.19
409.344	92.19
409.567	75.19
409.791	92.19
410.014	70.19
410.238	90.19
410.461	81.19
410.685	80.19
410.908	85.19
411.132	88.19
411.355	77.19
411.578	85.19
411.802	88.19
412.025	72.19
412.249	88.19
412.472	69.19
412.695	89.19
412.919	82.19
413.142	73.19
413.365	76.19
413.589	96.19
413.812	86.19
414.035	75.19
414.258	89.19
414.482	89.19
414.705	81.19
414.928	78.19
415.151	69.19
415.374	78.19
415.597	70.19
415.821	69.19
416.044	75.19
416.267	70.19
416.49	87.19
416.713	77.19
416.936	106.19
417.159	78.19
417.382	91.19
417.605	82.19
417.828	91.19
418.051	82.19
418.274	84.19
418.497	91.19
418.72	83.19
418.943	84.19
419.166	88.19
419.389	87.19
419.611	91.19
419.834	89.19
420.057	94.19
420.28	94.19
420.503	76.19
420.726	98.19
420.948	66.19
421.171	77.19
421.394	78.19
421.617	81.19
421.839	90.19
422.062	84.19
422.285	82.19
422.507	110.19
422.73	124.19
422.953	114.19
423.175	91.19
423.398	91.19
423.621	97.19
423.843	92.19
424.066	90.19
424.288	76.19
424.511	78.19
424.733	88.19
424.956	91.19
425.178	89.19
425.401	80.19
425.623	68.19
425.846	87.19
426.068	88.19
426.291	78.19
426.513	86.19
426.735	94.19
426.958	87.19
427.18	71.19
427.402	90.19
427.625	91.19
427.847	75.19
428.069	76.19
428.292	84.19
428.514	91.19
428.736	83.19
428.958	87.19
429.181	93.19
429.403	94.19
429.625	93.19
429.847	89.19
430.069	82.19
430.292	100.19
430.514	81.19
430.736	85.19
430.958	101.19
431.18	80.19
431.402	79.19
431.624	94.19
431.846	70.19
432.068	89.19
432.29	81.19
432.512	90.19
432.734	67.19
432.956	84.19
433.178	62.19
433.4	76.19
433.622	92.19
433.844	88.19
434.066	76.19
434.287	83.19
434.509	84.19
434.731	78.19
434.953	79.19
435.175	84.19
435.397	94.19
435.618	86.19
435.84	99.19
436.062	91.19
436.284	87.19
436.505	83.19
436.727	87.19
436.949	79.19
437.17	68.19
437.392	86.19
437.614	70.19
437.835	70.19
438.057	78.19
438.278	85.19
438.5	82.19
438.721	81.19
438.943	82.19
439.165	79.19
439.386	89.19
439.608	93.19
439.829	91.19
440.05	91.19
440.272	81.19
440.493	76.19
440.715	92.19
440.936	90.19
441.158	76.19
441.379	90.19
441.6	91.19
441.822	86.19
442.043	93.19
442.264	85.19
442.486	87.19
442.707	104.19
442.928	83.19
443.149	86.19
443.371	110.19
443.592	100.19
443.813	85.19
444.034	84.19
444.255	86.19
444.476	73.19
444.698	74.19
444.919	78.19
445.14	155.19
445.361	129.19
445.582	104.19
445.803	102.19
446.024	102.19
446.245	90.19
446.466	78.19
446.687	87.19
446.908	74.19
447.129	90.19
447.35	90.19
447.571	79.19
447.792	84.19
448.013	92.19
448.234	78.19
448.455	98.19
448.675	84.19
448.896	79.19
449.117	72.19
449.338	79.19
449.559	80.19
449.779	89.19
450	91.19
450.221	72.19
450.442	79.19
450.662	93.19
450.883	80.19
451.104	87.19
451.324	92.19
451.545	81.19
451.766	78.19
451.986	91.19
452.207	90.19
452.428	91.19
452.648	95.19
452.869	78.19
453.089	77.19
453.31	90.19
453.53	93.19
453.751	89.19
453.971	82.19
454.192	88.19
454.412	79.19
454.633	79.19
454.853	85.19
455.073	65.19
455.294	78.19
455.514	85.19
455.734	68.19
455.955	81.19
456.175	88.19
456.395	78.19
456.616	93.19
456.836	85.19
457.056	84.19
457.276	92.19
457.497	81.19
457.717	84.19
457.937	89.19
458.157	86.19
458.377	86.19
458.598	90.19
458.818	74.19
459.038	89.19
459.258	73.19
459.478	72.19
459.698	86.19
459.918	76.19
460.138	75.19
460.358	79.19
460.578	91.19
460.798	83.19
461.018	93.19
461.238	92.19
461.458	67.19
461.678	77.19
461.898	83.19
462.118	72.19
462.338	80.19
462.558	83.19
462.777	79.19
462.997	79.19
463.217	82.19
463.437	63.19
463.657	77.19
463.876	70.19
464.096	90.19
464.316	87.19
464.536	82.19
464.755	81.19
464.975	100.19
465.195	84.19
465.414	82.19
465.634	89.19
465.854	76.19
466.073	82.19
466.293	76.19
466.512	85.19
466.732	76.19
466.951	83.19
467.171	73.19
467.391	66.19
467.61	65.19
467.829	91.19
468.049	88.19
468.268	76.19
468.488	78.19
468.707	81.19
468.927	82.19
469.146	92.19
469.365	102.19
469.585	82.19
469.804	85.19
470.023	89.19
470.243	83.19
470.462	82.19
470.681	84.19
470.901	85.19
471.12	81.19
471.339	92.19
471.558	65.19
471.777	74.19
471.997	68.19
472.216	76.19
472.435	84.19
472.654	86.19
472.873	73.19
473.092	74.19
473.311	86.19
473.53	80.19
473.749	79.19
473.968	90.19
474.187	84.19
474.406	92.19
474.625	84.19
474.844	96.19
475.063	78.19
475.282	78.19
475.501	76.19
475.72	83.19
475.939	93.19
476.158	88.19
476.377	100.19
476.596	80.19
476.814	81.19
477.033	80.19
477.252	76.19
477.471	82.19
477.69	72.19
477.908	84.19
478.127	83.19
478.346	86.19
478.564	90.19
478.783	102.19
479.002	76.19
479.22	70.19
479.439	83.19
479.658	86.19
479.876	86.19
480.095	72.19
480.313	75.19
480.532	78.19
480.751	90.19
480.969	74.19
481.188	79.19
481.406	86.19
481.624	99.19
481.843	79.19
482.061	78.19
482.28	100.19
482.498	68.19
482.717	92.19
482.935	89.19
483.153	67.19
483.372	82.19
483.59	93.19
483.808	92.19
484.027	83.19
484.245	113.19
484.463	92.19
484.681	94.19
484.9	79.19
485.118	84.19
485.336	91.19
485.554	88.19
485.772	86.19
485.99	91.19
486.209	77.19
486.427	78.19
486.645	78.19
486.863	87.19
487.081	76.19
487.299	81.19
487.517	91.19
487.735	83.19
487.953	89.19
488.171	85.19
488.389	85.19
488.607	86.19
488.825	89.19
489.043	62.19
489.261	70.19
489.479	82.19
489.696	83.19
489.914	84.19
490.132	85.19
490.35	86.19
490.568	96.19
490.786	71.19
491.003	71.19
491.221	95.19
491.439	78.19
491.657	92.19
491.874	99.19
492.092	98.19
492.31	91.19
492.527	82.19
492.745	80.19
492.963	71.19
493.18	84.19
493.398	88.19
493.615	84.19
493.833	91.19
494.05	78.19
494.268	85.19
494.485	93.19
494.703	77.19
494.92	90.19
495.138	74.19
495.355	87.19
495.573	86.19
495.79	90.19
496.008	80.19
496.225	78.19
496.442	94.19
496.66	98.19
496.877	78.19
497.094	91.19
497.312	76.19
497.529	69.19
497.746	73.19
497.963	84.19
498.181	81.19
498.398	84.19
498.615	76.19
498.832	87.19
499.049	88.19
499.267	73.19
499.484	69.19
499.701	90.19
499.918	78.19
500.135	85.19
500.352	86.19
500.569	86.19
500.786	85.19
501.003	95.19
501.22	78.19
501.437	85.19
501.654	86.19
501.871	76.19
502.088	76.19
502.305	84.19
502.522	83.19
502.739	89.19
502.956	75.19
503.172	91.19
503.389	103.19
503.606	92.19
503.823	83.19
504.04	86.19
504.256	82.19
504.473	89.19
504.69	90.19
504.907	92.19
505.123	70.19
505.34	86.19
505.557	88.19
505.773	90.19
505.99	72.19
506.207	87.19
506.423	73.19
506.64	74.19
506.856	90.19
507.073	67.19
507.289	78.19
507.506	73.19
507.722	95.19
507.939	93.19
508.155	91.19
508.372	86.19
508.588	88.19
508.805	75.19
509.021	77.19
509.238	81.19
509.454	88.19
509.67	80.19
509.887	91.19
510.103	87.19
510.319	82.19
510.536	87.19
510.752	106.19
510.968	98.19
511.184	91.19
511.401	81.19
511.617	84.19
511.833	78.19
512.049	82.19
512.265	75.19
512.481	78.19
512.698	83.19
512.914	90.19
513.13	82.19
513.346	85.19
513.562	80.19
513.778	96.19
513.994	79.19
514.21	96.19
514.426	92.19
514.642	76.19
514.858	86.19
515.074	78.19
515.29	96.19
515.506	77.19
515.721	73.19
515.937	85.19
516.153	92.19
516.369	85.19
516.585	97.19
516.801	81.19
517.016	76.19
517.232	82.19
517.448	88.19
517.664	77.19
517.879	82.19
518.095	83.19
518.311	100.19
518.527	73.19
518.742	79.19
518.958	94.19
519.173	108.19
519.389	99.19
519.605	83.19
519.82	80.19
520.036	100.19
520.251	75.19
520.467	77.19
520.682	94.19
520.898	66.19
521.113	82.19
521.329	97.19
521.544	78.19
521.76	82.19
521.975	83.19
522.19	90.19
522.406	85.19
522.621	85.19
522.836	83.19
523.052	77.19
523.267	78.19
523.482	83.19
523.698	72.19
523.913	82.19
524.128	84.19
524.343	86.19
524.559	92.19
524.774	92.19
524.989	94.19
525.204	82.19
525.419	85.19
525.634	86.19
525.849	96.19
526.064	88.19
526.28	107.19
526.495	119.19
526.71	101.19
526.925	86.19
527.14	100.19
527.355	84.19
527.57	106.19
527.785	94.19
527.999	81.19
528.214	82.19
528.429	89.19
528.644	91.19
528.859	93.19
529.074	84.19
529.289	86.19
529.503	88.19
529.718	102.19
529.933	98.19
530.148	84.19
530.363	68.19
530.577	75.19
530.792	78.19
531.007	73.19
531.221	80.19
531.436	79.19
531.651	78.19
531.865	98.19
532.08	94.19
532.295	96.19
532.509	81.19
532.724	83.19
532.938	103.19
533.153	83.19
533.367	91.19
533.582	76.19
533.796	89.19
534.011	93.19
534.225	98.19
534.44	85.19
534.654	84.19
534.868	89.19
535.083	94.19
535.297	90.19
535.511	85.19
535.726	84.19
535.94	90.19
536.154	90.19
536.369	94.19
536.583	93.19
536.797	71.19
537.011	84.19
537.225	71.19
537.44	92.19
537.654	91.19
537.868	81.19
538.082	82.19
538.296	93.19
538.51	83.19
538.724	105.19
538.938	73.19
539.153	84.19
539.367	76.19
539.581	91.19
539.795	83.19
540.009	105.19
540.222	99.19
540.436	96.19
540.65	69.19
540.864	78.19
541.078	84.19
541.292	89.19
541.506	85.19
541.72	84.19
541.934	77.19
542.147	79.19
542.361	86.19
542.575	82.19
542.789	85.19
543.002	90.19
543.216	91.19
543.43	85.19
543.644	86.19
543.857	105.19
544.071	88.19
544.285	86.19
544.498	87.19
544.712	88.19
544.925	82.19
545.139	81.19
545.352	93.19
545.566	89.19
545.779	85.19
545.993	75.19
546.206	89.19
546.42	92.19
546.633	102.19
546.847	96.19
547.06	101.19
547.274	78.19
547.487	86.19
547.7	105.19
547.914	97.19
548.127	99.19
548.34	105.19
548.554	92.19
548.767	90.19
548.98	96.19
549.193	98.19
549.407	94.19
549.62	84.19
549.833	96.19
550.046	93.19
550.259	104.19
550.473	98.19
550.686	93.19
550.899	108.19
551.112	101.19
551.325	100.19
551.538	98.19
551.751	112.19
551.964	96.19
552.177	99.19
552.39	99.19
552.603	89.19
552.816	102.19
553.029	101.19
553.242	117.19
553.455	116.19
553.667	96.19
553.88	93.19
554.093	102.19
554.306	107.19
554.519	107.19
554.732	111.19
554.944	104.19
555.157	102.19
555.37	99.19
555.583	112.19
555.795	99.19
556.008	113.19
556.221	81.19
556.433	99.19
556.646	93.19
556.859	88.19
557.071	99.19
557.284	88.19
557.496	100.19
557.709	96.19
557.921	89.19
558.134	82.19
558.346	106.19
558.559	112.19
558.771	91.19
558.984	107.19
559.196	121.19
559.409	105.19
559.621	108.19
559.833	107.19
560.046	109.19
560.258	100.19
560.47	86.19
560.683	100.19
560.895	88.19
561.107	109.19
561.32	96.19
561.532	88.19
561.744	88.19
561.956	95.19
562.168	92.19
562.381	82.19
562.593	98.19
562.805	86.19
563.017	93.19
563.229	95.19
563.441	82.19
563.653	77.19
563.865	74.19
564.077	81.19
564.289	86.19
564.501	78.19
564.713	96.19
564.925	94.19
565.137	84.19
565.349	75.19
565.561	104.19
565.773	96.19
565.985	101.19
566.197	94.19
566.408	85.19
566.62	93.19
566.832	84.19
567.044	88.19
567.255	92.19
567.467	83.19
567.679	83.19
567.891	90.19
568.102	80.19
568.314	89.19
568.526	89.19
568.737	99.19
568.949	88.19
569.161	90.19
569.372	97.19
569.584	81.19
569.795	85.19
570.007	91.19
570.218	86.19
570.43	102.19
570.641	83.19
570.853	81.19
571.064	80.19
571.276	87.19
571.487	66.19
571.698	77.19
571.91	95.19
572.121	92.19
572.333	93.19
572.544	81.19
572.755	82.19
572.966	89.19
573.178	114.19
573.389	98.19
573.6	86.19
573.811	85.19
574.023	74.19
574.234	80.19
574.445	87.19
574.656	90.19
574.867	84.19
575.078	96.19
575.289	91.19
575.501	100.19
575.712	93.19
575.923	92.19
576.134	87.19
576.345	98.19
576.556	83.19
576.767	78.19
576.978	80.19
577.188	78.19
577.399	78.19
577.61	83.19
577.821	88.19
578.032	92.19
578.243	83.19
578.454	96.19
578.665	99.19
578.875	87.19
579.086	94.19
579.297	90.19
579.508	91.19
579.718	76.19
579.929	77.19
580.14	99.19
580.35	90.19
580.561	87.19
580.772	85.19
580.982	78.19
581.193	83.19
581.403	81.19
581.614	85.19
581.825	90.19
582.035	90.19
582.246	90.19
582.456	72.19
582.667	89.19
582.877	82.19
583.087	85.19
583.298	84.19
583.508	98.19
583.719	91.19
583.929	82.19
584.139	92.19
584.35	82.19
584.56	92.19
584.77	75.19
584.981	91.19
585.191	84.19
585.401	69.19
585.611	85.19
585.821	94.19
586.032	88.19
586.242	98.19
586.452	88.19
586.662	98.19
586.872	92.19
587.082	86.19
587.292	86.19
587.502	89.19
587.713	82.19
587.923	82.19
588.133	95.19
588.343	90.19
588.553	92.19
588.762	91.19
588.972	107.19
589.182	167.19
589.392	128.19
589.602	123.19
589.812	139.19
590.022	122.19
590.232	90.19
590.441	82.19
590.651	104.19
590.861	68.19
591.071	90.19
591.281	85.19
591.49	85.19
591.7	97.19
591.91	88.19
592.119	93.19
592.329	86.19
592.539	89.19
592.748	91.19
592.958	86.19
593.167	75.19
593.377	106.19
593.587	88.19
593.796	100.19
594.006	86.19
594.215	82.19
594.424	88.19
594.634	89.19
594.843	85.19
595.053	82.19
595.262	91.19
595.472	94.19
595.681	91.19
595.89	98.19
596.1	99.19
596.309	92.19
596.518	93.19
596.727	98.19
596.937	96.19
597.146	90.19
597.355	108.19
597.564	103.19
597.774	96.19
597.983	102.19
598.192	89.19
598.401	91.19
598.61	91.19
598.819	100.19
599.028	104.19
599.237	97.19
599.446	96.19
599.655	88.19
599.864	103.19
600.073	93.19
600.282	94.19
600.491	97.19
600.7	101.19
600.909	96.19
601.118	96.19
601.327	93.19
601.536	95.19
601.745	100.19
601.953	101.19
602.162	87.19
602.371	94.19
602.58	93.19
602.789	109.19
602.997	90.19
603.206	92.19
603.415	92.19
603.623	103.19
603.832	84.19
604.041	88.19
604.249	71.19
604.458	98.19
604.666	94.19
604.875	104.19
605.084	108.19
605.292	73.19
605.501	97.19
605.709	103.19
605.918	110.19
606.126	96.19
606.334	96.19
606.543	94.19
606.751	81.19
606.96	120.19
607.168	121.19
607.376	101.19
607.585	98.19
607.793	86.19
608.001	90.19
608.21	96.19
608.418	92.19
608.626	102.19
608.834	108.19
609.043	86.19
609.251	89.19
609.459	109.19
609.667	106.19
609.875	103.19
610.083	108.19
610.291	105.19
610.499	118.19
610.707	108.19
610.916	100.19
611.124	110.19
611.332	101.19
611.54	106.19
611.748	107.19
611.955	100.19
612.163	93.19
612.371	136.19
612.579	124.19
612.787	93.19
612.995	104.19
613.203	93.19
613.411	93.19
613.618	92.19
613.826	100.19
614.034	99.19
614.242	101.19
614.449	111.19
614.657	102.19
614.865	100.19
615.072	114.19
615.28	100.19
615.488	86.19
615.695	90.19
615.903	93.19
616.111	101.19
616.318	118.19
616.526	130.19
616.733	111.19
616.941	104.19
617.148	102.19
617.356	105.19
617.563	109.19
617.771	104.19
617.978	92.19
618.185	93.19
618.393	92.19
618.6	103.19
618.807	80.19
619.015	93.19
619.222	100.19
619.429	106.19
619.637	100.19
619.844	113.19
620.051	88.19
620.258	92.19
620.466	106.19
620.673	99.19
620.88	102.19
621.087	106.19
621.294	94.19
621.501	92.19
621.708	99.19
621.915	98.19
622.122	99.19
622.329	110.19
622.536	90.19
622.743	100.19
622.95	94.19
623.157	96.19
623.364	94.19
623.571	106.19
623.778	106.19
623.985	114.19
624.192	105.19
624.399	96.19
624.606	107.19
624.812	112.19
625.019	101.19
625.226	104.19
625.433	100.19
625.639	94.19
625.846	94.19
626.053	105.19
626.259	106.19
626.466	115.19
626.673	84.19
626.879	110.19
627.086	91.19
627.293	105.19
627.499	82.19
627.706	95.19
627.912	94.19
628.119	107.19
628.325	92.19
628.532	83.19
628.738	73.19
628.945	94.19
629.151	83.19
629.357	97.19
629.564	93.19
629.77	81.19
629.976	76.19
630.183	86.19
630.389	84.19
630.595	90.19
630.802	87.19
631.008	77.19
631.214	92.19
631.42	84.19
631.627	94.19
631.833	97.19
632.039	78.19
632.245	92.19
632.451	91.19
632.657	88.19
632.863	79.19
633.069	79.19
633.275	85.19
633.481	78.19
633.688	84.19
633.893	77.19
634.099	84.19
634.305	92.19
634.511	90.19
634.717	92.19
634.923	84.19
635.129	94.19
635.335	98.19
635.541	78.19
635.747	88.19
635.952	84.19
636.158	71.19
636.364	94.19
636.57	90.19
636.775	90.19
636.981	94.19
637.187	83.19
637.392	76.19
637.598	95.19
637.804	103.19
638.009	89.19
638.215	101.19
638.421	79.19
638.626	82.19
638.832	73.19
639.037	94.19
639.243	77.19
639.448	84.19
639.654	77.19
639.859	93.19
640.065	86.19
640.27	95.19
640.475	81.19
640.681	88.19
640.886	77.19
641.091	88.19
641.297	87.19
641.502	81.19
641.707	86.19
641.913	86.19
642.118	89.19
642.323	80.19
642.528	100.19
642.733	92.19
642.939	85.19
643.144	84.19
643.349	89.19
643.554	92.19
643.759	84.19
643.964	92.19
644.169	99.19
644.374	82.19
644.579	68.19
644.784	83.19
644.989	103.19
645.194	92.19
645.399	71.19
645.604	84.19
645.809	86.19
646.014	74.19
646.219	80.19
646.423	87.19
646.628	100.19
646.833	87.19
647.038	97.19
647.243	84.19
647.447	86.19
647.652	89.19
647.857	99.19
648.062	78.19
648.266	97.19
648.471	86.19
648.676	87.19
648.88	75.19
649.085	86.19
649.289	79.19
649.494	82.19
649.698	86.19
649.903	96.19
650.107	99.19
650.312	78.19
650.516	91.19
650.721	90.19
650.925	84.19
651.13	89.19
651.334	87.19
651.539	79.19
651.743	70.19
651.947	80.19
652.152	88.19
652.356	92.19
652.56	81.19
652.764	94.19
652.969	90.19
653.173	78.19
653.377	91.19
653.581	90.19
653.785	90.19
653.99	86.19
654.194	86.19
654.398	90.19
654.602	87.19
654.806	92.19
655.01	82.19
655.214	80.19
655.418	85.19
655.622	82.19
655.826	81.19
656.03	95.19
656.234	85.19
656.438	70.19
656.642	77.19
656.846	84.19
657.049	86.19
657.253	79.19
657.457	89.19
657.661	84.19
657.865	98.19
658.068	89.19
658.272	89.19
658.476	80.19
658.68	80.19
658.883	92.19
659.087	91.19
659.291	82.19
659.494	101.19
659.698	77.19
659.901	88.19
660.105	85.19
660.309	76.19
660.512	73.19
660.716	76.19
660.919	83.19
661.123	100.19
661.326	69.19
661.53	90.19
661.733	71.19
661.936	75.19
662.14	87.19
662.343	78.19
662.546	78.19
662.75	89.19
662.953	80.19
663.156	91.19
663.36	79.19
663.563	89.19
663.766	85.19
663.969	83.19
664.173	92.19
664.376	93.19
664.579	88.19
664.782	84.19
664.985	91.19
665.188	79.19
665.391	68.19
665.594	86.19
665.797	76.19
666	84.19
666.203	72.19
666.406	87.19
666.609	76.19
666.812	79.19
667.015	71.19
667.218	89.19
667.421	80.19
667.624	87.19
667.827	87.19
668.03	93.19
668.232	82.19
668.435	82.19
668.638	89.19
668.841	74.19
669.043	84.19
669.246	86.19
669.449	69.19
669.651	90.19
669.854	76.19
670.057	84.19
670.259	90.19
670.462	77.19
670.665	82.19
670.867	101.19
671.07	77.19
671.272	91.19
671.475	78.19
671.677	83.19
671.88	82.19
672.082	92.19
672.284	92.19
672.487	84.19
672.689	82.19
672.892	79.19
