Data from Circ_1982_H10_HRD10591_00066.txt Node
Date: Wed Jan 03 12:30:54 EST 2024
User: Yrep
Spectrometer: HR+D1059
Trigger mode: 1
Integration Time (sec): 1.000000E-1
Scans to average: 1
Electric dark correction enabled: true
Nonlinearity correction enabled: false
Boxcar width: 0
XAxis mode: Wavelengths
Number of Pixels in Spectrum: 2048
>>>>>Begin Spectral Data<<<<<
223.165	-21.56
223.4	-21.56
223.635	-21.56
223.869	-16.56
224.104	-22.56
224.338	-20.56
224.573	-10.56
224.808	-14.56
225.042	2.44
225.277	-11.56
225.511	-8.56
225.746	0.44
225.98	9.44
226.215	10.44
226.449	17.44
226.683	23.44
226.918	33.44
227.152	29.44
227.387	29.44
227.621	33.44
227.856	51.44
228.09	51.44
228.324	53.44
228.559	51.44
228.793	61.44
229.027	67.44
229.262	61.44
229.496	70.44
229.73	74.44
229.964	62.44
230.199	55.44
230.433	75.44
230.667	102.44
230.901	86.44
231.136	74.44
231.37	80.44
231.604	75.44
231.838	93.44
232.072	76.44
232.306	101.44
232.541	69.44
232.775	78.44
233.009	93.44
233.243	81.44
233.477	85.44
233.711	68.44
233.945	71.44
234.179	77.44
234.413	74.44
234.647	75.44
234.881	81.44
235.115	78.44
235.349	90.44
235.583	95.44
235.817	74.44
236.051	85.44
236.285	74.44
236.519	81.44
236.753	79.44
236.987	94.44
237.221	75.44
237.455	79.44
237.689	77.44
237.922	73.44
238.156	76.44
238.39	94.44
238.624	78.44
238.858	69.44
239.091	66.44
239.325	81.44
239.559	74.44
239.793	75.44
240.027	65.44
240.26	77.44
240.494	69.44
240.728	69.44
240.961	84.44
241.195	81.44
241.429	94.44
241.662	68.44
241.896	77.44
242.13	94.44
242.363	81.44
242.597	67.44
242.83	76.44
243.064	69.44
243.298	86.44
243.531	86.44
243.765	82.44
243.998	76.44
244.232	87.44
244.465	88.44
244.699	59.44
244.932	81.44
245.166	83.44
245.399	77.44
245.633	84.44
245.866	91.44
246.099	83.44
246.333	73.44
246.566	85.44
246.8	85.44
247.033	77.44
247.266	74.44
247.5	81.44
247.733	94.44
247.966	78.44
248.2	74.44
248.433	68.44
248.666	91.44
248.899	73.44
249.133	85.44
249.366	84.44
249.599	87.44
249.832	74.44
250.066	81.44
250.299	62.44
250.532	95.44
250.765	74.44
250.998	60.44
251.231	83.44
251.465	80.44
251.698	68.44
251.931	89.44
252.164	84.44
252.397	92.44
252.63	77.44
252.863	86.44
253.096	65.44
253.329	74.44
253.562	87.44
253.795	79.44
254.028	99.44
254.261	78.44
254.494	94.44
254.727	80.44
254.96	90.44
255.193	89.44
255.426	73.44
255.659	74.44
255.892	106.44
256.124	87.44
256.357	93.44
256.59	81.44
256.823	65.44
257.056	78.44
257.289	93.44
257.521	100.44
257.754	74.44
257.987	89.44
258.22	93.44
258.452	88.44
258.685	86.44
258.918	75.44
259.151	74.44
259.383	90.44
259.616	88.44
259.849	81.44
260.081	86.44
260.314	91.44
260.547	87.44
260.779	79.44
261.012	72.44
261.244	92.44
261.477	85.44
261.71	98.44
261.942	104.44
262.175	111.44
262.407	83.44
262.64	83.44
262.872	83.44
263.105	83.44
263.337	89.44
263.57	78.44
263.802	78.44
264.035	82.44
264.267	76.44
264.499	91.44
264.732	75.44
264.964	68.44
265.197	78.44
265.429	93.44
265.661	87.44
265.894	81.44
266.126	94.44
266.358	89.44
266.591	91.44
266.823	88.44
267.055	70.44
267.287	75.44
267.52	80.44
267.752	82.44
267.984	84.44
268.216	78.44
268.448	83.44
268.681	78.44
268.913	81.44
269.145	93.44
269.377	87.44
269.609	88.44
269.841	92.44
270.073	70.44
270.306	89.44
270.538	97.44
270.77	76.44
271.002	83.44
271.234	92.44
271.466	96.44
271.698	83.44
271.93	88.44
272.162	78.44
272.394	93.44
272.626	83.44
272.858	69.44
273.09	88.44
273.322	81.44
273.553	85.44
273.785	94.44
274.017	101.44
274.249	83.44
274.481	82.44
274.713	77.44
274.945	97.44
275.176	93.44
275.408	104.44
275.64	90.44
275.872	77.44
276.104	77.44
276.335	82.44
276.567	104.44
276.799	94.44
277.031	90.44
277.262	81.44
277.494	88.44
277.726	86.44
277.957	82.44
278.189	95.44
278.421	95.44
278.652	89.44
278.884	89.44
279.115	76.44
279.347	85.44
279.579	89.44
279.81	77.44
280.042	94.44
280.273	81.44
280.505	84.44
280.736	92.44
280.968	81.44
281.199	79.44
281.431	91.44
281.662	88.44
281.894	91.44
282.125	94.44
282.356	105.44
282.588	117.44
282.819	111.44
283.051	99.44
283.282	94.44
283.513	85.44
283.745	85.44
283.976	77.44
284.207	91.44
284.439	88.44
284.67	98.44
284.901	95.44
285.132	85.44
285.364	75.44
285.595	85.44
285.826	98.44
286.057	92.44
286.288	78.44
286.52	95.44
286.751	97.44
286.982	92.44
287.213	88.44
287.444	92.44
287.675	87.44
287.906	97.44
288.138	87.44
288.369	93.44
288.6	95.44
288.831	80.44
289.062	78.44
289.293	95.44
289.524	77.44
289.755	92.44
289.986	97.44
290.217	85.44
290.448	92.44
290.679	103.44
290.91	81.44
291.141	93.44
291.371	76.44
291.602	91.44
291.833	91.44
292.064	89.44
292.295	81.44
292.526	94.44
292.757	86.44
292.987	105.44
293.218	91.44
293.449	94.44
293.68	93.44
293.91	85.44
294.141	95.44
294.372	96.44
294.603	89.44
294.833	101.44
295.064	98.44
295.295	97.44
295.525	104.44
295.756	97.44
295.987	112.44
296.217	116.44
296.448	115.44
296.679	95.44
296.909	101.44
297.14	93.44
297.37	79.44
297.601	82.44
297.831	86.44
298.062	81.44
298.292	101.44
298.523	95.44
298.753	93.44
298.984	76.44
299.214	90.44
299.445	105.44
299.675	101.44
299.905	86.44
300.136	83.44
300.366	105.44
300.597	111.44
300.827	86.44
301.057	94.44
301.288	95.44
301.518	93.44
301.748	90.44
301.979	103.44
302.209	93.44
302.439	87.44
302.669	86.44
302.9	84.44
303.13	81.44
303.36	92.44
303.59	91.44
303.82	91.44
304.051	97.44
304.281	86.44
304.511	92.44
304.741	86.44
304.971	82.44
305.201	90.44
305.431	76.44
305.661	71.44
305.891	92.44
306.121	90.44
306.352	101.44
306.582	99.44
306.812	100.44
307.042	92.44
307.272	91.44
307.502	98.44
307.731	93.44
307.961	85.44
308.191	105.44
308.421	98.44
308.651	93.44
308.881	82.44
309.111	105.44
309.341	91.44
309.571	89.44
309.8	90.44
310.03	86.44
310.26	89.44
310.49	97.44
310.72	95.44
310.949	94.44
311.179	102.44
311.409	85.44
311.639	95.44
311.868	93.44
312.098	85.44
312.328	96.44
312.557	103.44
312.787	98.44
313.017	84.44
313.246	104.44
313.476	99.44
313.706	91.44
313.935	95.44
314.165	88.44
314.394	106.44
314.624	113.44
314.853	91.44
315.083	99.44
315.312	97.44
315.542	83.44
315.771	90.44
316.001	95.44
316.23	98.44
316.46	81.44
316.689	100.44
316.919	94.44
317.148	88.44
317.377	97.44
317.607	84.44
317.836	91.44
318.065	81.44
318.295	86.44
318.524	99.44
318.753	97.44
318.983	93.44
319.212	88.44
319.441	96.44
319.67	86.44
319.9	88.44
320.129	93.44
320.358	91.44
320.587	94.44
320.816	85.44
321.046	97.44
321.275	109.44
321.504	84.44
321.733	95.44
321.962	90.44
322.191	93.44
322.42	102.44
322.649	96.44
322.878	105.44
323.108	105.44
323.337	121.44
323.566	110.44
323.795	128.44
324.024	159.44
324.253	294.44
324.482	577.44
324.71	1125.44
324.939	1401.44
325.168	563.44
325.397	183.44
325.626	131.44
325.855	121.44
326.084	108.44
326.313	120.44
326.542	124.44
326.77	186.44
326.999	350.44
327.228	679.44
327.457	1178.44
327.686	916.44
327.914	285.44
328.143	162.44
328.372	129.44
328.6	118.44
328.829	110.44
329.058	103.44
329.287	113.44
329.515	106.44
329.744	94.44
329.972	91.44
330.201	108.44
330.43	107.44
330.658	118.44
330.887	131.44
331.115	100.44
331.344	100.44
331.572	90.44
331.801	83.44
332.03	103.44
332.258	92.44
332.486	87.44
332.715	76.44
332.943	91.44
333.172	97.44
333.4	100.44
333.629	102.44
333.857	111.44
334.085	107.44
334.314	93.44
334.542	125.44
334.771	114.44
334.999	108.44
335.227	92.44
335.455	94.44
335.684	104.44
335.912	113.44
336.14	98.44
336.369	90.44
336.597	101.44
336.825	101.44
337.053	94.44
337.281	83.44
337.51	98.44
337.738	102.44
337.966	82.44
338.194	83.44
338.422	78.44
338.65	105.44
338.878	79.44
339.106	99.44
339.334	99.44
339.562	86.44
339.79	92.44
340.018	84.44
340.246	103.44
340.474	98.44
340.702	85.44
340.93	97.44
341.158	109.44
341.386	87.44
341.614	87.44
341.842	92.44
342.07	101.44
342.298	79.44
342.526	98.44
342.754	89.44
342.981	101.44
343.209	95.44
343.437	116.44
343.665	83.44
343.893	90.44
344.12	84.44
344.348	100.44
344.576	86.44
344.804	92.44
345.031	87.44
345.259	78.44
345.487	94.44
345.714	98.44
345.942	94.44
346.17	94.44
346.397	74.44
346.625	102.44
346.853	83.44
347.08	83.44
347.308	89.44
347.535	90.44
347.763	100.44
347.99	105.44
348.218	110.44
348.445	97.44
348.673	95.44
348.9	93.44
349.128	104.44
349.355	91.44
349.583	102.44
349.81	98.44
350.037	97.44
350.265	109.44
350.492	98.44
350.72	101.44
350.947	111.44
351.174	87.44
351.402	95.44
351.629	85.44
351.856	96.44
352.083	91.44
352.311	109.44
352.538	97.44
352.765	103.44
352.992	116.44
353.22	106.44
353.447	92.44
353.674	78.44
353.901	95.44
354.128	105.44
354.355	88.44
354.583	101.44
354.81	108.44
355.037	101.44
355.264	92.44
355.491	109.44
355.718	98.44
355.945	98.44
356.172	97.44
356.399	104.44
356.626	103.44
356.853	98.44
357.08	93.44
357.307	102.44
357.534	86.44
357.761	96.44
357.988	90.44
358.215	94.44
358.441	103.44
358.668	97.44
358.895	95.44
359.122	85.44
359.349	89.44
359.576	98.44
359.802	101.44
360.029	107.44
360.256	104.44
360.483	102.44
360.709	82.44
360.936	105.44
361.163	83.44
361.39	81.44
361.616	96.44
361.843	90.44
362.07	99.44
362.296	101.44
362.523	94.44
362.749	92.44
362.976	97.44
363.203	99.44
363.429	75.44
363.656	100.44
363.882	85.44
364.109	86.44
364.335	82.44
364.562	83.44
364.788	86.44
365.015	103.44
365.241	109.44
365.468	106.44
365.694	102.44
365.92	102.44
366.147	85.44
366.373	84.44
366.599	84.44
366.826	70.44
367.052	90.44
367.278	89.44
367.505	97.44
367.731	81.44
367.957	76.44
368.184	85.44
368.41	108.44
368.636	92.44
368.862	107.44
369.089	108.44
369.315	96.44
369.541	96.44
369.767	101.44
369.993	82.44
370.219	90.44
370.445	84.44
370.672	79.44
370.898	95.44
371.124	93.44
371.35	93.44
371.576	102.44
371.802	87.44
372.028	89.44
372.254	87.44
372.48	78.44
372.706	97.44
372.932	79.44
373.158	89.44
373.384	86.44
373.61	88.44
373.835	100.44
374.061	84.44
374.287	78.44
374.513	87.44
374.739	87.44
374.965	93.44
375.191	76.44
375.416	84.44
375.642	99.44
375.868	86.44
376.094	89.44
376.319	75.44
376.545	89.44
376.771	73.44
376.997	87.44
377.222	85.44
377.448	94.44
377.674	86.44
377.899	101.44
378.125	99.44
378.35	87.44
378.576	92.44
378.802	97.44
379.027	98.44
379.253	97.44
379.478	85.44
379.704	103.44
379.929	88.44
380.155	104.44
380.38	102.44
380.606	99.44
380.831	88.44
381.057	102.44
381.282	111.44
381.507	104.44
381.733	109.44
381.958	90.44
382.184	97.44
382.409	98.44
382.634	95.44
382.86	112.44
383.085	97.44
383.31	98.44
383.535	101.44
383.761	94.44
383.986	99.44
384.211	92.44
384.436	92.44
384.662	93.44
384.887	104.44
385.112	95.44
385.337	117.44
385.562	102.44
385.787	108.44
386.013	106.44
386.238	103.44
386.463	89.44
386.688	108.44
386.913	103.44
387.138	109.44
387.363	99.44
387.588	115.44
387.813	110.44
388.038	103.44
388.263	114.44
388.488	119.44
388.713	85.44
388.938	97.44
389.163	98.44
389.387	99.44
389.612	100.44
389.837	85.44
390.062	94.44
390.287	94.44
390.512	75.44
390.736	103.44
390.961	89.44
391.186	83.44
391.411	82.44
391.636	88.44
391.86	84.44
392.085	91.44
392.31	72.44
392.534	88.44
392.759	90.44
392.984	89.44
393.208	83.44
393.433	75.44
393.658	93.44
393.882	84.44
394.107	81.44
394.331	97.44
394.556	81.44
394.78	82.44
395.005	91.44
395.229	98.44
395.454	77.44
395.678	90.44
395.903	85.44
396.127	77.44
396.352	77.44
396.576	75.44
396.801	79.44
397.025	95.44
397.249	83.44
397.474	98.44
397.698	100.44
397.922	66.44
398.147	75.44
398.371	86.44
398.595	91.44
398.82	76.44
399.044	102.44
399.268	96.44
399.492	85.44
399.717	98.44
399.941	104.44
400.165	97.44
400.389	98.44
400.613	96.44
400.837	89.44
401.062	92.44
401.286	86.44
401.51	99.44
401.734	107.44
401.958	87.44
402.182	112.44
402.406	109.44
402.63	105.44
402.854	95.44
403.078	106.44
403.302	93.44
403.526	76.44
403.75	88.44
403.974	99.44
404.198	81.44
404.422	97.44
404.645	88.44
404.869	85.44
405.093	85.44
405.317	103.44
405.541	86.44
405.765	82.44
405.988	98.44
406.212	135.44
406.436	173.44
406.66	124.44
406.883	90.44
407.107	85.44
407.331	83.44
407.555	97.44
407.778	105.44
408.002	81.44
408.226	87.44
408.449	87.44
408.673	98.44
408.896	100.44
409.12	97.44
409.344	105.44
409.567	94.44
409.791	86.44
410.014	85.44
410.238	83.44
410.461	92.44
410.685	84.44
410.908	106.44
411.132	97.44
411.355	99.44
411.578	86.44
411.802	88.44
412.025	87.44
412.249	95.44
412.472	99.44
412.695	82.44
412.919	82.44
413.142	100.44
413.365	97.44
413.589	88.44
413.812	85.44
414.035	91.44
414.258	73.44
414.482	81.44
414.705	82.44
414.928	91.44
415.151	93.44
415.374	97.44
415.597	81.44
415.821	92.44
416.044	91.44
416.267	92.44
416.49	74.44
416.713	91.44
416.936	94.44
417.159	73.44
417.382	85.44
417.605	95.44
417.828	91.44
418.051	89.44
418.274	88.44
418.497	87.44
418.72	101.44
418.943	103.44
419.166	94.44
419.389	100.44
419.611	91.44
419.834	88.44
420.057	90.44
420.28	95.44
420.503	85.44
420.726	97.44
420.948	88.44
421.171	90.44
421.394	100.44
421.617	92.44
421.839	87.44
422.062	90.44
422.285	89.44
422.507	101.44
422.73	100.44
422.953	84.44
423.175	86.44
423.398	89.44
423.621	88.44
423.843	97.44
424.066	75.44
424.288	98.44
424.511	85.44
424.733	92.44
424.956	99.44
425.178	97.44
425.401	111.44
425.623	111.44
425.846	92.44
426.068	82.44
426.291	86.44
426.513	83.44
426.735	92.44
426.958	100.44
427.18	97.44
427.402	112.44
427.625	138.44
427.847	101.44
428.069	99.44
428.292	91.44
428.514	83.44
428.736	93.44
428.958	94.44
429.181	76.44
429.403	92.44
429.625	88.44
429.847	98.44
430.069	93.44
430.292	90.44
430.514	83.44
430.736	83.44
430.958	87.44
431.18	73.44
431.402	88.44
431.624	90.44
431.846	76.44
432.068	98.44
432.29	90.44
432.512	88.44
432.734	82.44
432.956	86.44
433.178	95.44
433.4	82.44
433.622	98.44
433.844	83.44
434.066	92.44
434.287	89.44
434.509	100.44
434.731	99.44
434.953	89.44
435.175	91.44
435.397	99.44
435.618	91.44
435.84	99.44
436.062	109.44
436.284	89.44
436.505	93.44
436.727	105.44
436.949	92.44
437.17	84.44
437.392	78.44
437.614	92.44
437.835	86.44
438.057	99.44
438.278	115.44
438.5	78.44
438.721	102.44
438.943	98.44
439.165	85.44
439.386	82.44
439.608	87.44
439.829	102.44
440.05	110.44
440.272	120.44
440.493	91.44
440.715	99.44
440.936	87.44
441.158	88.44
441.379	74.44
441.6	97.44
441.822	74.44
442.043	99.44
442.264	108.44
442.486	95.44
442.707	85.44
442.928	111.44
443.149	100.44
443.371	115.44
443.592	99.44
443.813	91.44
444.034	96.44
444.255	85.44
444.476	90.44
444.698	89.44
444.919	89.44
445.14	135.44
445.361	121.44
445.582	94.44
445.803	98.44
446.024	101.44
446.245	122.44
446.466	101.44
446.687	78.44
446.908	85.44
447.129	88.44
447.35	90.44
447.571	93.44
447.792	100.44
448.013	96.44
448.234	99.44
448.455	90.44
448.675	104.44
448.896	103.44
449.117	82.44
449.338	80.44
449.559	107.44
449.779	108.44
450	74.44
450.221	93.44
450.442	102.44
450.662	90.44
450.883	97.44
451.104	101.44
451.324	97.44
451.545	91.44
451.766	101.44
451.986	84.44
452.207	89.44
452.428	90.44
452.648	109.44
452.869	95.44
453.089	115.44
453.31	98.44
453.53	88.44
453.751	73.44
453.971	97.44
454.192	92.44
454.412	103.44
454.633	65.44
454.853	91.44
455.073	91.44
455.294	91.44
455.514	97.44
455.734	94.44
455.955	81.44
456.175	88.44
456.395	102.44
456.616	83.44
456.836	93.44
457.056	99.44
457.276	105.44
457.497	81.44
457.717	95.44
457.937	85.44
458.157	99.44
458.377	92.44
458.598	97.44
458.818	99.44
459.038	136.44
459.258	97.44
459.478	73.44
459.698	97.44
459.918	83.44
460.138	78.44
460.358	93.44
460.578	92.44
460.798	75.44
461.018	83.44
461.238	89.44
461.458	83.44
461.678	91.44
461.898	100.44
462.118	89.44
462.338	91.44
462.558	85.44
462.777	75.44
462.997	79.44
463.217	86.44
463.437	89.44
463.657	77.44
463.876	90.44
464.096	84.44
464.316	94.44
464.536	85.44
464.755	86.44
464.975	97.44
465.195	136.44
465.414	128.44
465.634	107.44
465.854	82.44
466.073	96.44
466.293	99.44
466.512	99.44
466.732	84.44
466.951	91.44
467.171	96.44
467.391	95.44
467.61	89.44
467.829	80.44
468.049	107.44
468.268	101.44
468.488	74.44
468.707	75.44
468.927	81.44
469.146	88.44
469.365	87.44
469.585	87.44
469.804	95.44
470.023	89.44
470.243	94.44
470.462	89.44
470.681	83.44
470.901	97.44
471.12	90.44
471.339	100.44
471.558	83.44
471.777	76.44
471.997	85.44
472.216	106.44
472.435	121.44
472.654	100.44
472.873	89.44
473.092	92.44
473.311	82.44
473.53	83.44
473.749	91.44
473.968	98.44
474.187	110.44
474.406	89.44
474.625	90.44
474.844	80.44
475.063	90.44
475.282	89.44
475.501	89.44
475.72	85.44
475.939	83.44
476.158	79.44
476.377	77.44
476.596	78.44
476.814	86.44
477.033	86.44
477.252	92.44
477.471	100.44
477.69	79.44
477.908	91.44
478.127	95.44
478.346	83.44
478.564	88.44
478.783	88.44
479.002	101.44
479.22	93.44
479.439	97.44
479.658	111.44
479.876	81.44
480.095	84.44
480.313	105.44
480.532	93.44
480.751	110.44
480.969	113.44
481.188	166.44
481.406	118.44
481.624	95.44
481.843	94.44
482.061	84.44
482.28	86.44
482.498	93.44
482.717	84.44
482.935	93.44
483.153	97.44
483.372	91.44
483.59	79.44
483.808	86.44
484.027	83.44
484.245	107.44
484.463	96.44
484.681	106.44
484.9	108.44
485.118	93.44
485.336	86.44
485.554	87.44
485.772	103.44
485.99	99.44
486.209	106.44
486.427	97.44
486.645	95.44
486.863	114.44
487.081	93.44
487.299	102.44
487.517	113.44
487.735	105.44
487.953	95.44
488.171	97.44
488.389	82.44
488.607	106.44
488.825	101.44
489.043	99.44
489.261	89.44
489.479	85.44
489.696	99.44
489.914	85.44
490.132	112.44
490.35	107.44
490.568	91.44
490.786	82.44
491.003	92.44
491.221	89.44
491.439	97.44
491.657	111.44
491.874	94.44
492.092	93.44
492.31	97.44
492.527	106.44
492.745	98.44
492.963	92.44
493.18	87.44
493.398	90.44
493.615	91.44
493.833	103.44
494.05	94.44
494.268	87.44
494.485	78.44
494.703	103.44
494.92	88.44
495.138	83.44
495.355	92.44
495.573	90.44
495.79	80.44
496.008	83.44
496.225	91.44
496.442	84.44
496.66	109.44
496.877	84.44
497.094	87.44
497.312	79.44
497.529	92.44
497.746	94.44
497.963	78.44
498.181	103.44
498.398	102.44
498.615	95.44
498.832	103.44
499.049	88.44
499.267	105.44
499.484	99.44
499.701	83.44
499.918	89.44
500.135	92.44
500.352	98.44
500.569	98.44
500.786	93.44
501.003	84.44
501.22	88.44
501.437	85.44
501.654	91.44
501.871	109.44
502.088	97.44
502.305	86.44
502.522	85.44
502.739	91.44
502.956	75.44
503.172	80.44
503.389	94.44
503.606	98.44
503.823	105.44
504.04	97.44
504.256	81.44
504.473	90.44
504.69	96.44
504.907	95.44
505.123	103.44
505.34	85.44
505.557	93.44
505.773	94.44
505.99	103.44
506.207	89.44
506.423	97.44
506.64	98.44
506.856	94.44
507.073	101.44
507.289	102.44
507.506	89.44
507.722	97.44
507.939	107.44
508.155	93.44
508.372	95.44
508.588	88.44
508.805	83.44
509.021	95.44
509.238	89.44
509.454	105.44
509.67	102.44
509.887	110.44
510.103	106.44
510.319	178.44
510.536	549.44
510.752	1567.44
510.968	454.44
511.184	137.44
511.401	97.44
511.617	102.44
511.833	87.44
512.049	92.44
512.265	104.44
512.481	99.44
512.698	83.44
512.914	80.44
513.13	83.44
513.346	103.44
513.562	91.44
513.778	111.44
513.994	101.44
514.21	93.44
514.426	106.44
514.642	116.44
514.858	99.44
515.074	137.44
515.29	323.44
515.506	959.44
515.721	345.44
515.937	111.44
516.153	107.44
516.369	92.44
516.585	89.44
516.801	93.44
517.016	100.44
517.232	87.44
517.448	90.44
517.664	91.44
517.879	106.44
518.095	87.44
518.311	92.44
518.527	92.44
518.742	89.44
518.958	85.44
519.173	94.44
519.389	106.44
519.605	96.44
519.82	93.44
520.036	98.44
520.251	117.44
520.467	100.44
520.682	96.44
520.898	116.44
521.113	102.44
521.329	102.44
521.544	171.44
521.76	373.44
521.975	1529.44
522.19	920.44
522.406	232.44
522.621	113.44
522.836	105.44
523.052	111.44
523.267	88.44
523.482	106.44
523.698	101.44
523.913	105.44
524.128	97.44
524.343	98.44
524.559	101.44
524.774	95.44
524.989	86.44
525.204	91.44
525.419	89.44
525.634	81.44
525.849	92.44
526.064	66.44
526.28	90.44
526.495	96.44
526.71	81.44
526.925	83.44
527.14	91.44
527.355	76.44
527.57	99.44
527.785	94.44
527.999	90.44
528.214	85.44
528.429	87.44
528.644	87.44
528.859	99.44
529.074	105.44
529.289	104.44
529.503	138.44
529.718	87.44
529.933	80.44
530.148	92.44
530.363	82.44
530.577	107.44
530.792	92.44
531.007	91.44
531.221	86.44
531.436	101.44
531.651	105.44
531.865	90.44
532.08	101.44
532.295	94.44
532.509	69.44
532.724	93.44
532.938	96.44
533.153	109.44
533.367	109.44
533.582	85.44
533.796	86.44
534.011	101.44
534.225	84.44
534.44	82.44
534.654	84.44
534.868	88.44
535.083	89.44
535.297	85.44
535.511	125.44
535.726	112.44
535.94	90.44
536.154	100.44
536.369	92.44
536.583	96.44
536.797	88.44
537.011	78.44
537.225	96.44
537.44	89.44
537.654	74.44
537.868	81.44
538.082	89.44
538.296	88.44
538.51	85.44
538.724	78.44
538.938	85.44
539.153	86.44
539.367	99.44
539.581	86.44
539.795	84.44
540.009	99.44
540.222	73.44
540.436	91.44
540.65	103.44
540.864	93.44
541.078	97.44
541.292	100.44
541.506	61.44
541.72	89.44
541.934	97.44
542.147	102.44
542.361	87.44
542.575	92.44
542.789	90.44
543.002	92.44
543.216	98.44
543.43	88.44
543.644	111.44
543.857	96.44
544.071	106.44
544.285	105.44
544.498	114.44
544.712	100.44
544.925	93.44
545.139	85.44
545.352	85.44
545.566	84.44
545.779	95.44
545.993	88.44
546.206	78.44
546.42	90.44
546.633	103.44
546.847	103.44
547.06	103.44
547.274	89.44
547.487	93.44
547.7	101.44
547.914	100.44
548.127	93.44
548.34	93.44
548.554	97.44
548.767	98.44
548.98	86.44
549.193	90.44
549.407	87.44
549.62	102.44
549.833	85.44
550.046	95.44
550.259	100.44
550.473	88.44
550.686	89.44
550.899	97.44
551.112	77.44
551.325	86.44
551.538	91.44
551.751	92.44
551.964	90.44
552.177	87.44
552.39	97.44
552.603	91.44
552.816	98.44
553.029	97.44
553.242	99.44
553.455	104.44
553.667	93.44
553.88	98.44
554.093	101.44
554.306	95.44
554.519	97.44
554.732	92.44
554.944	101.44
555.157	69.44
555.37	82.44
555.583	86.44
555.795	95.44
556.008	100.44
556.221	99.44
556.433	90.44
556.646	103.44
556.859	85.44
557.071	86.44
557.284	101.44
557.496	98.44
557.709	88.44
557.921	90.44
558.134	92.44
558.346	90.44
558.559	95.44
558.771	78.44
558.984	106.44
559.196	82.44
559.409	83.44
559.621	91.44
559.833	101.44
560.046	81.44
560.258	93.44
560.47	89.44
560.683	96.44
560.895	90.44
561.107	100.44
561.32	93.44
561.532	89.44
561.744	74.44
561.956	98.44
562.168	83.44
562.381	94.44
562.593	79.44
562.805	94.44
563.017	77.44
563.229	104.44
563.441	99.44
563.653	83.44
563.865	93.44
564.077	85.44
564.289	92.44
564.501	83.44
564.713	91.44
564.925	92.44
565.137	91.44
565.349	90.44
565.561	94.44
565.773	98.44
565.985	58.44
566.197	75.44
566.408	71.44
566.62	89.44
566.832	82.44
567.044	97.44
567.255	92.44
567.467	74.44
567.679	87.44
567.891	82.44
568.102	94.44
568.314	93.44
568.526	78.44
568.737	91.44
568.949	98.44
569.161	83.44
569.372	94.44
569.584	91.44
569.795	90.44
570.007	114.44
570.218	195.44
570.43	121.44
570.641	106.44
570.853	86.44
571.064	83.44
571.276	87.44
571.487	93.44
571.698	102.44
571.91	83.44
572.121	89.44
572.333	81.44
572.544	94.44
572.755	83.44
572.966	89.44
573.178	91.44
573.389	98.44
573.6	99.44
573.811	90.44
574.023	72.44
574.234	89.44
574.445	82.44
574.656	95.44
574.867	98.44
575.078	94.44
575.289	92.44
575.501	102.44
575.712	77.44
575.923	90.44
576.134	97.44
576.345	90.44
576.556	107.44
576.767	93.44
576.978	87.44
577.188	93.44
577.399	98.44
577.61	97.44
577.821	99.44
578.032	108.44
578.243	221.44
578.454	505.44
578.665	151.44
578.875	85.44
579.086	100.44
579.297	74.44
579.508	95.44
579.718	86.44
579.929	97.44
580.14	92.44
580.35	99.44
580.561	98.44
580.772	94.44
580.982	102.44
581.193	94.44
581.403	89.44
581.614	79.44
581.825	93.44
582.035	91.44
582.246	83.44
582.456	94.44
582.667	87.44
582.877	75.44
583.087	85.44
583.298	85.44
583.508	98.44
583.719	85.44
583.929	93.44
584.139	95.44
584.35	83.44
584.56	88.44
584.77	85.44
584.981	91.44
585.191	87.44
585.401	96.44
585.611	97.44
585.821	97.44
586.032	95.44
586.242	93.44
586.452	88.44
586.662	90.44
586.872	97.44
587.082	76.44
587.292	87.44
587.502	87.44
587.713	92.44
587.923	87.44
588.133	91.44
588.343	74.44
588.553	89.44
588.762	81.44
588.972	82.44
589.182	108.44
589.392	84.44
589.602	100.44
589.812	97.44
590.022	98.44
590.232	73.44
590.441	85.44
590.651	80.44
590.861	88.44
591.071	92.44
591.281	98.44
591.49	98.44
591.7	94.44
591.91	97.44
592.119	85.44
592.329	100.44
592.539	101.44
592.748	85.44
592.958	69.44
593.167	81.44
593.377	87.44
593.587	83.44
593.796	96.44
594.006	78.44
594.215	85.44
594.424	91.44
594.634	86.44
594.843	92.44
595.053	79.44
595.262	87.44
595.472	96.44
595.681	97.44
595.89	102.44
596.1	92.44
596.309	84.44
596.518	78.44
596.727	77.44
596.937	74.44
597.146	81.44
597.355	99.44
597.564	91.44
597.774	82.44
597.983	83.44
598.192	91.44
598.401	98.44
598.61	86.44
598.819	93.44
599.028	76.44
599.237	85.44
599.446	92.44
599.655	93.44
599.864	98.44
600.073	91.44
600.282	86.44
600.491	101.44
600.7	87.44
600.909	100.44
601.118	94.44
601.327	101.44
601.536	75.44
601.745	94.44
601.953	94.44
602.162	108.44
602.371	86.44
602.58	93.44
602.789	93.44
602.997	84.44
603.206	97.44
603.415	84.44
603.623	87.44
603.832	92.44
604.041	72.44
604.249	75.44
604.458	83.44
604.666	82.44
604.875	88.44
605.084	89.44
605.292	103.44
605.501	75.44
605.709	86.44
605.918	99.44
606.126	83.44
606.334	83.44
606.543	92.44
606.751	86.44
606.96	78.44
607.168	86.44
607.376	97.44
607.585	92.44
607.793	93.44
608.001	81.44
608.21	98.44
608.418	88.44
608.626	84.44
608.834	79.44
609.043	89.44
609.251	78.44
609.459	79.44
609.667	88.44
609.875	103.44
610.083	86.44
610.291	91.44
610.499	77.44
610.707	101.44
610.916	98.44
611.124	78.44
611.332	95.44
611.54	98.44
611.748	86.44
611.955	101.44
612.163	84.44
612.371	87.44
612.579	89.44
612.787	85.44
612.995	94.44
613.203	90.44
613.411	89.44
613.618	100.44
613.826	83.44
614.034	95.44
614.242	90.44
614.449	88.44
614.657	72.44
614.865	89.44
615.072	77.44
615.28	90.44
615.488	87.44
615.695	91.44
615.903	87.44
616.111	86.44
616.318	92.44
616.526	91.44
616.733	89.44
616.941	97.44
617.148	97.44
617.356	97.44
617.563	78.44
617.771	94.44
617.978	87.44
618.185	85.44
618.393	92.44
618.6	87.44
618.807	93.44
619.015	77.44
619.222	67.44
619.429	82.44
619.637	85.44
619.844	82.44
620.051	89.44
620.258	89.44
620.466	81.44
620.673	82.44
620.88	87.44
621.087	76.44
621.294	83.44
621.501	95.44
621.708	77.44
621.915	91.44
622.122	74.44
622.329	89.44
622.536	89.44
622.743	85.44
622.95	93.44
623.157	84.44
623.364	66.44
623.571	93.44
623.778	92.44
623.985	87.44
624.192	109.44
624.399	94.44
624.606	88.44
624.812	87.44
625.019	81.44
625.226	73.44
625.433	95.44
625.639	84.44
625.846	83.44
626.053	79.44
626.259	93.44
626.466	91.44
626.673	95.44
626.879	76.44
627.086	75.44
627.293	106.44
627.499	81.44
627.706	81.44
627.912	82.44
628.119	94.44
628.325	97.44
628.532	89.44
628.738	90.44
628.945	86.44
629.151	90.44
629.357	84.44
629.564	82.44
629.77	93.44
629.976	85.44
630.183	90.44
630.389	77.44
630.595	70.44
630.802	87.44
631.008	83.44
631.214	96.44
631.42	88.44
631.627	85.44
631.833	70.44
632.039	83.44
632.245	83.44
632.451	82.44
632.657	87.44
632.863	73.44
633.069	87.44
633.275	94.44
633.481	75.44
633.688	99.44
633.893	77.44
634.099	89.44
634.305	68.44
634.511	91.44
634.717	81.44
634.923	83.44
635.129	82.44
635.335	91.44
635.541	91.44
635.747	95.44
635.952	92.44
636.158	79.44
636.364	101.44
636.57	89.44
636.775	86.44
636.981	80.44
637.187	92.44
637.392	79.44
637.598	86.44
637.804	81.44
638.009	79.44
638.215	86.44
638.421	97.44
638.626	88.44
638.832	76.44
639.037	91.44
639.243	88.44
639.448	74.44
639.654	94.44
639.859	84.44
640.065	91.44
640.27	82.44
640.475	88.44
640.681	92.44
640.886	96.44
641.091	87.44
641.297	89.44
641.502	87.44
641.707	98.44
641.913	97.44
642.118	81.44
642.323	77.44
642.528	86.44
642.733	84.44
642.939	84.44
643.144	72.44
643.349	89.44
643.554	90.44
643.759	90.44
643.964	96.44
644.169	94.44
644.374	85.44
644.579	109.44
644.784	88.44
644.989	89.44
645.194	88.44
645.399	90.44
645.604	85.44
645.809	83.44
646.014	93.44
646.219	78.44
646.423	99.44
646.628	81.44
646.833	90.44
647.038	92.44
647.243	92.44
647.447	95.44
647.652	93.44
647.857	83.44
648.062	92.44
648.266	87.44
648.471	94.44
648.676	105.44
648.88	78.44
649.085	98.44
649.289	86.44
649.494	103.44
649.698	119.44
649.903	91.44
650.107	85.44
650.312	101.44
650.516	83.44
650.721	98.44
650.925	83.44
651.13	79.44
651.334	89.44
651.539	90.44
651.743	93.44
651.947	82.44
652.152	74.44
652.356	73.44
652.56	86.44
652.764	89.44
652.969	85.44
653.173	78.44
653.377	87.44
653.581	83.44
653.785	87.44
653.99	84.44
654.194	99.44
654.398	87.44
654.602	77.44
654.806	81.44
655.01	112.44
655.214	91.44
655.418	89.44
655.622	82.44
655.826	83.44
656.03	82.44
656.234	99.44
656.438	85.44
656.642	83.44
656.846	82.44
657.049	94.44
657.253	86.44
657.457	82.44
657.661	77.44
657.865	66.44
658.068	75.44
658.272	94.44
658.476	87.44
658.68	76.44
658.883	85.44
659.087	80.44
659.291	90.44
659.494	84.44
659.698	63.44
659.901	89.44
660.105	93.44
660.309	84.44
660.512	89.44
660.716	74.44
660.919	83.44
661.123	85.44
661.326	86.44
661.53	83.44
661.733	71.44
661.936	102.44
662.14	84.44
662.343	75.44
662.546	77.44
662.75	80.44
662.953	71.44
663.156	82.44
663.36	67.44
663.563	86.44
663.766	91.44
663.969	86.44
664.173	73.44
664.376	78.44
664.579	81.44
664.782	75.44
664.985	88.44
665.188	91.44
665.391	89.44
665.594	78.44
665.797	78.44
666	94.44
666.203	84.44
666.406	75.44
666.609	89.44
666.812	86.44
667.015	70.44
667.218	68.44
667.421	90.44
667.624	65.44
667.827	72.44
668.03	91.44
668.232	79.44
668.435	76.44
668.638	88.44
668.841	90.44
669.043	78.44
669.246	75.44
669.449	71.44
669.651	84.44
669.854	71.44
670.057	89.44
670.259	79.44
670.462	68.44
670.665	64.44
670.867	84.44
671.07	96.44
671.272	88.44
671.475	80.44
671.677	86.44
671.88	93.44
672.082	84.44
672.284	87.44
672.487	82.44
672.689	85.44
672.892	89.44
