Data from Circ_1982_H10_HRD10591_00093.txt Node
Date: Wed Jan 03 12:30:59 EST 2024
User: Yrep
Spectrometer: HR+D1059
Trigger mode: 1
Integration Time (sec): 1.000000E-1
Scans to average: 1
Electric dark correction enabled: true
Nonlinearity correction enabled: false
Boxcar width: 0
XAxis mode: Wavelengths
Number of Pixels in Spectrum: 2048
>>>>>Begin Spectral Data<<<<<
223.165	-13.56
223.4	-13.56
223.635	-13.56
223.869	-11.56
224.104	-27.56
224.338	-21.56
224.573	-5.56
224.808	-21.56
225.042	-19.56
225.277	-7.56
225.511	-11.56
225.746	14.44
225.98	4.44
226.215	16.44
226.449	16.44
226.683	20.44
226.918	26.44
227.152	41.44
227.387	28.44
227.621	38.44
227.856	49.44
228.09	38.44
228.324	47.44
228.559	61.44
228.793	61.44
229.027	50.44
229.262	62.44
229.496	62.44
229.73	77.44
229.964	63.44
230.199	71.44
230.433	85.44
230.667	82.44
230.901	82.44
231.136	74.44
231.37	74.44
231.604	71.44
231.838	83.44
232.072	81.44
232.306	82.44
232.541	86.44
232.775	71.44
233.009	83.44
233.243	88.44
233.477	89.44
233.711	83.44
233.945	80.44
234.179	81.44
234.413	78.44
234.647	73.44
234.881	71.44
235.115	78.44
235.349	87.44
235.583	78.44
235.817	66.44
236.051	83.44
236.285	70.44
236.519	70.44
236.753	72.44
236.987	73.44
237.221	70.44
237.455	84.44
237.689	74.44
237.922	71.44
238.156	75.44
238.39	67.44
238.624	64.44
238.858	63.44
239.091	88.44
239.325	56.44
239.559	70.44
239.793	69.44
240.027	78.44
240.26	67.44
240.494	73.44
240.728	67.44
240.961	72.44
241.195	81.44
241.429	82.44
241.662	71.44
241.896	84.44
242.13	94.44
242.363	72.44
242.597	71.44
242.83	76.44
243.064	73.44
243.298	86.44
243.531	59.44
243.765	68.44
243.998	69.44
244.232	76.44
244.465	72.44
244.699	62.44
244.932	65.44
245.166	80.44
245.399	87.44
245.633	94.44
245.866	76.44
246.099	83.44
246.333	74.44
246.566	79.44
246.8	74.44
247.033	78.44
247.266	90.44
247.5	78.44
247.733	81.44
247.966	87.44
248.2	82.44
248.433	76.44
248.666	96.44
248.899	87.44
249.133	100.44
249.366	94.44
249.599	95.44
249.832	80.44
250.066	73.44
250.299	76.44
250.532	76.44
250.765	82.44
250.998	71.44
251.231	62.44
251.465	73.44
251.698	63.44
251.931	72.44
252.164	84.44
252.397	91.44
252.63	84.44
252.863	73.44
253.096	78.44
253.329	80.44
253.562	64.44
253.795	76.44
254.028	82.44
254.261	87.44
254.494	66.44
254.727	87.44
254.96	66.44
255.193	78.44
255.426	76.44
255.659	78.44
255.892	86.44
256.124	75.44
256.357	96.44
256.59	88.44
256.823	71.44
257.056	82.44
257.289	68.44
257.521	73.44
257.754	73.44
257.987	82.44
258.22	85.44
258.452	92.44
258.685	75.44
258.918	91.44
259.151	64.44
259.383	69.44
259.616	66.44
259.849	80.44
260.081	87.44
260.314	86.44
260.547	70.44
260.779	75.44
261.012	86.44
261.244	91.44
261.477	84.44
261.71	95.44
261.942	81.44
262.175	98.44
262.407	84.44
262.64	74.44
262.872	94.44
263.105	91.44
263.337	71.44
263.57	73.44
263.802	89.44
264.035	87.44
264.267	68.44
264.499	86.44
264.732	75.44
264.964	74.44
265.197	92.44
265.429	78.44
265.661	86.44
265.894	95.44
266.126	74.44
266.358	80.44
266.591	71.44
266.823	83.44
267.055	78.44
267.287	83.44
267.52	76.44
267.752	82.44
267.984	97.44
268.216	85.44
268.448	72.44
268.681	70.44
268.913	80.44
269.145	71.44
269.377	83.44
269.609	84.44
269.841	77.44
270.073	91.44
270.306	92.44
270.538	90.44
270.77	92.44
271.002	83.44
271.234	82.44
271.466	92.44
271.698	87.44
271.93	73.44
272.162	87.44
272.394	75.44
272.626	85.44
272.858	91.44
273.09	74.44
273.322	68.44
273.553	82.44
273.785	84.44
274.017	75.44
274.249	76.44
274.481	79.44
274.713	87.44
274.945	82.44
275.176	90.44
275.408	95.44
275.64	86.44
275.872	87.44
276.104	88.44
276.335	86.44
276.567	104.44
276.799	106.44
277.031	97.44
277.262	87.44
277.494	83.44
277.726	90.44
277.957	94.44
278.189	75.44
278.421	73.44
278.652	98.44
278.884	78.44
279.115	82.44
279.347	89.44
279.579	84.44
279.81	72.44
280.042	88.44
280.273	86.44
280.505	73.44
280.736	87.44
280.968	80.44
281.199	80.44
281.431	86.44
281.662	76.44
281.894	79.44
282.125	94.44
282.356	114.44
282.588	104.44
282.819	95.44
283.051	87.44
283.282	89.44
283.513	84.44
283.745	79.44
283.976	73.44
284.207	62.44
284.439	85.44
284.67	90.44
284.901	95.44
285.132	84.44
285.364	82.44
285.595	90.44
285.826	70.44
286.057	86.44
286.288	80.44
286.52	70.44
286.751	90.44
286.982	84.44
287.213	82.44
287.444	81.44
287.675	93.44
287.906	89.44
288.138	87.44
288.369	88.44
288.6	69.44
288.831	89.44
289.062	71.44
289.293	85.44
289.524	74.44
289.755	85.44
289.986	82.44
290.217	85.44
290.448	86.44
290.679	82.44
290.91	83.44
291.141	86.44
291.371	92.44
291.602	71.44
291.833	103.44
292.064	104.44
292.295	91.44
292.526	93.44
292.757	73.44
292.987	93.44
293.218	84.44
293.449	79.44
293.68	85.44
293.91	83.44
294.141	92.44
294.372	89.44
294.603	91.44
294.833	94.44
295.064	89.44
295.295	86.44
295.525	80.44
295.756	88.44
295.987	107.44
296.217	123.44
296.448	102.44
296.679	88.44
296.909	83.44
297.14	80.44
297.37	95.44
297.601	74.44
297.831	88.44
298.062	95.44
298.292	90.44
298.523	82.44
298.753	77.44
298.984	97.44
299.214	76.44
299.445	86.44
299.675	82.44
299.905	82.44
300.136	103.44
300.366	99.44
300.597	88.44
300.827	110.44
301.057	79.44
301.288	96.44
301.518	85.44
301.748	106.44
301.979	102.44
302.209	84.44
302.439	85.44
302.669	74.44
302.9	98.44
303.13	83.44
303.36	90.44
303.59	88.44
303.82	90.44
304.051	91.44
304.281	89.44
304.511	94.44
304.741	84.44
304.971	94.44
305.201	89.44
305.431	81.44
305.661	108.44
305.891	92.44
306.121	81.44
306.352	94.44
306.582	88.44
306.812	79.44
307.042	81.44
307.272	74.44
307.502	91.44
307.731	89.44
307.961	74.44
308.191	86.44
308.421	83.44
308.651	86.44
308.881	83.44
309.111	85.44
309.341	94.44
309.571	98.44
309.8	102.44
310.03	90.44
310.26	94.44
310.49	102.44
310.72	99.44
310.949	91.44
311.179	102.44
311.409	96.44
311.639	96.44
311.868	92.44
312.098	90.44
312.328	90.44
312.557	96.44
312.787	98.44
313.017	103.44
313.246	93.44
313.476	81.44
313.706	99.44
313.935	90.44
314.165	91.44
314.394	89.44
314.624	101.44
314.853	89.44
315.083	98.44
315.312	82.44
315.542	92.44
315.771	82.44
316.001	100.44
316.23	96.44
316.46	92.44
316.689	89.44
316.919	91.44
317.148	88.44
317.377	95.44
317.607	79.44
317.836	78.44
318.065	89.44
318.295	96.44
318.524	72.44
318.753	84.44
318.983	97.44
319.212	88.44
319.441	102.44
319.67	87.44
319.9	73.44
320.129	93.44
320.358	92.44
320.587	92.44
320.816	90.44
321.046	85.44
321.275	88.44
321.504	95.44
321.733	95.44
321.962	103.44
322.191	100.44
322.42	98.44
322.649	94.44
322.878	105.44
323.108	106.44
323.337	104.44
323.566	106.44
323.795	130.44
324.024	166.44
324.253	282.44
324.482	564.44
324.71	1098.44
324.939	1456.44
325.168	558.44
325.397	202.44
325.626	122.44
325.855	111.44
326.084	104.44
326.313	109.44
326.542	129.44
326.77	167.44
326.999	327.44
327.228	657.44
327.457	1120.44
327.686	908.44
327.914	282.44
328.143	159.44
328.372	131.44
328.6	101.44
328.829	108.44
329.058	95.44
329.287	105.44
329.515	99.44
329.744	86.44
329.972	92.44
330.201	113.44
330.43	129.44
330.658	117.44
330.887	116.44
331.115	97.44
331.344	93.44
331.572	80.44
331.801	90.44
332.03	101.44
332.258	87.44
332.486	91.44
332.715	96.44
332.943	94.44
333.172	84.44
333.4	88.44
333.629	103.44
333.857	103.44
334.085	109.44
334.314	97.44
334.542	111.44
334.771	126.44
334.999	88.44
335.227	87.44
335.455	83.44
335.684	89.44
335.912	93.44
336.14	89.44
336.369	97.44
336.597	83.44
336.825	96.44
337.053	91.44
337.281	94.44
337.51	86.44
337.738	88.44
337.966	99.44
338.194	100.44
338.422	93.44
338.65	97.44
338.878	97.44
339.106	83.44
339.334	82.44
339.562	95.44
339.79	93.44
340.018	101.44
340.246	89.44
340.474	76.44
340.702	76.44
340.93	79.44
341.158	92.44
341.386	112.44
341.614	105.44
341.842	84.44
342.07	96.44
342.298	103.44
342.526	86.44
342.754	87.44
342.981	88.44
343.209	85.44
343.437	87.44
343.665	111.44
343.893	94.44
344.12	95.44
344.348	88.44
344.576	83.44
344.804	91.44
345.031	81.44
345.259	88.44
345.487	88.44
345.714	89.44
345.942	91.44
346.17	88.44
346.397	72.44
346.625	80.44
346.853	80.44
347.08	97.44
347.308	94.44
347.535	83.44
347.763	103.44
347.99	96.44
348.218	89.44
348.445	94.44
348.673	94.44
348.9	83.44
349.128	103.44
349.355	94.44
349.583	96.44
349.81	91.44
350.037	81.44
350.265	83.44
350.492	86.44
350.72	94.44
350.947	103.44
351.174	100.44
351.402	99.44
351.629	88.44
351.856	96.44
352.083	99.44
352.311	103.44
352.538	99.44
352.765	105.44
352.992	118.44
353.22	86.44
353.447	91.44
353.674	101.44
353.901	101.44
354.128	100.44
354.355	97.44
354.583	100.44
354.81	102.44
355.037	83.44
355.264	86.44
355.491	96.44
355.718	85.44
355.945	89.44
356.172	104.44
356.399	82.44
356.626	86.44
356.853	87.44
357.08	92.44
357.307	88.44
357.534	94.44
357.761	87.44
357.988	87.44
358.215	98.44
358.441	96.44
358.668	82.44
358.895	87.44
359.122	95.44
359.349	80.44
359.576	94.44
359.802	100.44
360.029	91.44
360.256	100.44
360.483	74.44
360.709	84.44
360.936	102.44
361.163	93.44
361.39	96.44
361.616	82.44
361.843	96.44
362.07	92.44
362.296	98.44
362.523	104.44
362.749	80.44
362.976	91.44
363.203	84.44
363.429	81.44
363.656	93.44
363.882	80.44
364.109	79.44
364.335	84.44
364.562	91.44
364.788	82.44
365.015	98.44
365.241	94.44
365.468	97.44
365.694	86.44
365.92	85.44
366.147	96.44
366.373	91.44
366.599	87.44
366.826	102.44
367.052	79.44
367.278	85.44
367.505	71.44
367.731	81.44
367.957	94.44
368.184	89.44
368.41	98.44
368.636	98.44
368.862	112.44
369.089	100.44
369.315	101.44
369.541	101.44
369.767	79.44
369.993	86.44
370.219	82.44
370.445	73.44
370.672	87.44
370.898	83.44
371.124	88.44
371.35	83.44
371.576	85.44
371.802	88.44
372.028	93.44
372.254	91.44
372.48	90.44
372.706	95.44
372.932	79.44
373.158	85.44
373.384	72.44
373.61	80.44
373.835	91.44
374.061	84.44
374.287	93.44
374.513	90.44
374.739	71.44
374.965	91.44
375.191	82.44
375.416	94.44
375.642	107.44
375.868	83.44
376.094	85.44
376.319	87.44
376.545	89.44
376.771	85.44
376.997	87.44
377.222	79.44
377.448	92.44
377.674	95.44
377.899	91.44
378.125	89.44
378.35	79.44
378.576	103.44
378.802	92.44
379.027	87.44
379.253	92.44
379.478	87.44
379.704	94.44
379.929	78.44
380.155	92.44
380.38	94.44
380.606	86.44
380.831	90.44
381.057	84.44
381.282	85.44
381.507	94.44
381.733	76.44
381.958	99.44
382.184	91.44
382.409	97.44
382.634	99.44
382.86	94.44
383.085	96.44
383.31	94.44
383.535	101.44
383.761	111.44
383.986	105.44
384.211	94.44
384.436	100.44
384.662	103.44
384.887	87.44
385.112	99.44
385.337	83.44
385.562	87.44
385.787	96.44
386.013	111.44
386.238	117.44
386.463	86.44
386.688	107.44
386.913	87.44
387.138	106.44
387.363	117.44
387.588	91.44
387.813	91.44
388.038	106.44
388.263	112.44
388.488	105.44
388.713	90.44
388.938	88.44
389.163	98.44
389.387	102.44
389.612	87.44
389.837	85.44
390.062	78.44
390.287	89.44
390.512	86.44
390.736	88.44
390.961	101.44
391.186	82.44
391.411	101.44
391.636	112.44
391.86	84.44
392.085	85.44
392.31	80.44
392.534	85.44
392.759	95.44
392.984	80.44
393.208	94.44
393.433	84.44
393.658	79.44
393.882	86.44
394.107	87.44
394.331	81.44
394.556	87.44
394.78	107.44
395.005	79.44
395.229	69.44
395.454	67.44
395.678	83.44
395.903	88.44
396.127	84.44
396.352	91.44
396.576	79.44
396.801	78.44
397.025	79.44
397.249	88.44
397.474	97.44
397.698	88.44
397.922	84.44
398.147	86.44
398.371	84.44
398.595	90.44
398.82	79.44
399.044	67.44
399.268	94.44
399.492	95.44
399.717	89.44
399.941	97.44
400.165	107.44
400.389	91.44
400.613	84.44
400.837	95.44
401.062	75.44
401.286	86.44
401.51	93.44
401.734	86.44
401.958	95.44
402.182	111.44
402.406	150.44
402.63	107.44
402.854	87.44
403.078	73.44
403.302	73.44
403.526	80.44
403.75	88.44
403.974	84.44
404.198	79.44
404.422	91.44
404.645	81.44
404.869	76.44
405.093	82.44
405.317	94.44
405.541	91.44
405.765	96.44
405.988	93.44
406.212	132.44
406.436	157.44
406.66	120.44
406.883	91.44
407.107	88.44
407.331	101.44
407.555	96.44
407.778	72.44
408.002	74.44
408.226	75.44
408.449	86.44
408.673	84.44
408.896	91.44
409.12	100.44
409.344	78.44
409.567	86.44
409.791	81.44
410.014	97.44
410.238	95.44
410.461	74.44
410.685	91.44
410.908	91.44
411.132	84.44
411.355	92.44
411.578	95.44
411.802	107.44
412.025	83.44
412.249	84.44
412.472	83.44
412.695	81.44
412.919	95.44
413.142	84.44
413.365	87.44
413.589	80.44
413.812	72.44
414.035	84.44
414.258	94.44
414.482	74.44
414.705	86.44
414.928	94.44
415.151	78.44
415.374	90.44
415.597	98.44
415.821	73.44
416.044	91.44
416.267	100.44
416.49	102.44
416.713	91.44
416.936	86.44
417.159	82.44
417.382	87.44
417.605	75.44
417.828	90.44
418.051	78.44
418.274	106.44
418.497	87.44
418.72	87.44
418.943	86.44
419.166	84.44
419.389	87.44
419.611	92.44
419.834	85.44
420.057	91.44
420.28	82.44
420.503	99.44
420.726	67.44
420.948	80.44
421.171	82.44
421.394	94.44
421.617	94.44
421.839	80.44
422.062	96.44
422.285	88.44
422.507	91.44
422.73	99.44
422.953	98.44
423.175	98.44
423.398	87.44
423.621	97.44
423.843	80.44
424.066	94.44
424.288	91.44
424.511	84.44
424.733	84.44
424.956	90.44
425.178	72.44
425.401	98.44
425.623	102.44
425.846	87.44
426.068	72.44
426.291	78.44
426.513	85.44
426.735	86.44
426.958	87.44
427.18	98.44
427.402	119.44
427.625	138.44
427.847	121.44
428.069	111.44
428.292	89.44
428.514	104.44
428.736	98.44
428.958	86.44
429.181	82.44
429.403	92.44
429.625	84.44
429.847	86.44
430.069	76.44
430.292	82.44
430.514	81.44
430.736	96.44
430.958	88.44
431.18	84.44
431.402	86.44
431.624	88.44
431.846	102.44
432.068	93.44
432.29	83.44
432.512	85.44
432.734	98.44
432.956	86.44
433.178	93.44
433.4	101.44
433.622	89.44
433.844	98.44
434.066	85.44
434.287	76.44
434.509	89.44
434.731	75.44
434.953	70.44
435.175	82.44
435.397	86.44
435.618	91.44
435.84	85.44
436.062	113.44
436.284	107.44
436.505	74.44
436.727	76.44
436.949	100.44
437.17	78.44
437.392	94.44
437.614	83.44
437.835	105.44
438.057	104.44
438.278	91.44
438.5	102.44
438.721	109.44
438.943	86.44
439.165	82.44
439.386	73.44
439.608	82.44
439.829	95.44
440.05	116.44
440.272	114.44
440.493	98.44
440.715	85.44
440.936	71.44
441.158	91.44
441.379	82.44
441.6	91.44
441.822	87.44
442.043	101.44
442.264	96.44
442.486	101.44
442.707	83.44
442.928	97.44
443.149	106.44
443.371	106.44
443.592	102.44
443.813	104.44
444.034	93.44
444.255	105.44
444.476	94.44
444.698	91.44
444.919	78.44
445.14	110.44
445.361	115.44
445.582	105.44
445.803	127.44
446.024	100.44
446.245	119.44
446.466	82.44
446.687	82.44
446.908	69.44
447.129	87.44
447.35	82.44
447.571	86.44
447.792	84.44
448.013	89.44
448.234	104.44
448.455	102.44
448.675	109.44
448.896	95.44
449.117	96.44
449.338	94.44
449.559	119.44
449.779	111.44
450	81.44
450.221	71.44
450.442	90.44
450.662	89.44
450.883	90.44
451.104	90.44
451.324	91.44
451.545	90.44
451.766	88.44
451.986	81.44
452.207	83.44
452.428	84.44
452.648	89.44
452.869	97.44
453.089	103.44
453.31	88.44
453.53	95.44
453.751	88.44
453.971	90.44
454.192	83.44
454.412	79.44
454.633	92.44
454.853	89.44
455.073	71.44
455.294	87.44
455.514	81.44
455.734	86.44
455.955	74.44
456.175	84.44
456.395	71.44
456.616	93.44
456.836	84.44
457.056	90.44
457.276	82.44
457.497	83.44
457.717	95.44
457.937	92.44
458.157	68.44
458.377	84.44
458.598	103.44
458.818	122.44
459.038	139.44
459.258	103.44
459.478	81.44
459.698	82.44
459.918	86.44
460.138	88.44
460.358	81.44
460.578	84.44
460.798	81.44
461.018	99.44
461.238	79.44
461.458	86.44
461.678	68.44
461.898	92.44
462.118	90.44
462.338	72.44
462.558	85.44
462.777	82.44
462.997	78.44
463.217	86.44
463.437	85.44
463.657	91.44
463.876	91.44
464.096	88.44
464.316	83.44
464.536	106.44
464.755	81.44
464.975	94.44
465.195	106.44
465.414	115.44
465.634	86.44
465.854	90.44
466.073	100.44
466.293	99.44
466.512	89.44
466.732	92.44
466.951	92.44
467.171	91.44
467.391	88.44
467.61	88.44
467.829	89.44
468.049	100.44
468.268	94.44
468.488	80.44
468.707	86.44
468.927	87.44
469.146	88.44
469.365	97.44
469.585	78.44
469.804	78.44
470.023	86.44
470.243	92.44
470.462	101.44
470.681	104.44
470.901	80.44
471.12	82.44
471.339	86.44
471.558	82.44
471.777	84.44
471.997	79.44
472.216	109.44
472.435	121.44
472.654	83.44
472.873	82.44
473.092	81.44
473.311	86.44
473.53	77.44
473.749	91.44
473.968	102.44
474.187	109.44
474.406	86.44
474.625	78.44
474.844	96.44
475.063	88.44
475.282	82.44
475.501	80.44
475.72	103.44
475.939	84.44
476.158	84.44
476.377	75.44
476.596	90.44
476.814	99.44
477.033	87.44
477.252	99.44
477.471	80.44
477.69	78.44
477.908	83.44
478.127	83.44
478.346	85.44
478.564	103.44
478.783	93.44
479.002	95.44
479.22	89.44
479.439	72.44
479.658	82.44
479.876	75.44
480.095	95.44
480.313	75.44
480.532	89.44
480.751	89.44
480.969	95.44
481.188	163.44
481.406	126.44
481.624	88.44
481.843	96.44
482.061	73.44
482.28	72.44
482.498	94.44
482.717	86.44
482.935	79.44
483.153	95.44
483.372	96.44
483.59	104.44
483.808	82.44
484.027	97.44
484.245	88.44
484.463	86.44
484.681	93.44
484.9	91.44
485.118	100.44
485.336	87.44
485.554	94.44
485.772	98.44
485.99	90.44
486.209	98.44
486.427	104.44
486.645	98.44
486.863	111.44
487.081	102.44
487.299	79.44
487.517	100.44
487.735	93.44
487.953	99.44
488.171	94.44
488.389	90.44
488.607	82.44
488.825	88.44
489.043	95.44
489.261	81.44
489.479	98.44
489.696	91.44
489.914	90.44
490.132	88.44
490.35	100.44
490.568	98.44
490.786	75.44
491.003	87.44
491.221	90.44
491.439	87.44
491.657	96.44
491.874	91.44
492.092	84.44
492.31	95.44
492.527	90.44
492.745	78.44
492.963	78.44
493.18	94.44
493.398	100.44
493.615	112.44
493.833	83.44
494.05	86.44
494.268	83.44
494.485	75.44
494.703	88.44
494.92	85.44
495.138	89.44
495.355	95.44
495.573	97.44
495.79	98.44
496.008	93.44
496.225	103.44
496.442	89.44
496.66	88.44
496.877	104.44
497.094	91.44
497.312	82.44
497.529	92.44
497.746	101.44
497.963	87.44
498.181	97.44
498.398	98.44
498.615	83.44
498.832	95.44
499.049	90.44
499.267	72.44
499.484	91.44
499.701	99.44
499.918	96.44
500.135	85.44
500.352	68.44
500.569	75.44
500.786	79.44
501.003	86.44
501.22	87.44
501.437	93.44
501.654	98.44
501.871	102.44
502.088	81.44
502.305	85.44
502.522	83.44
502.739	81.44
502.956	93.44
503.172	79.44
503.389	95.44
503.606	95.44
503.823	97.44
504.04	83.44
504.256	89.44
504.473	75.44
504.69	91.44
504.907	82.44
505.123	82.44
505.34	82.44
505.557	85.44
505.773	90.44
505.99	75.44
506.207	83.44
506.423	78.44
506.64	97.44
506.856	87.44
507.073	80.44
507.289	85.44
507.506	107.44
507.722	117.44
507.939	100.44
508.155	82.44
508.372	73.44
508.588	98.44
508.805	99.44
509.021	102.44
509.238	89.44
509.454	97.44
509.67	92.44
509.887	105.44
510.103	112.44
510.319	171.44
510.536	577.44
510.752	1716.44
510.968	494.44
511.184	144.44
511.401	102.44
511.617	100.44
511.833	92.44
512.049	93.44
512.265	92.44
512.481	92.44
512.698	89.44
512.914	81.44
513.13	103.44
513.346	111.44
513.562	88.44
513.778	88.44
513.994	97.44
514.21	97.44
514.426	99.44
514.642	118.44
514.858	118.44
515.074	128.44
515.29	346.44
515.506	1017.44
515.721	386.44
515.937	149.44
516.153	102.44
516.369	98.44
516.585	106.44
516.801	94.44
517.016	84.44
517.232	94.44
517.448	89.44
517.664	88.44
517.879	78.44
518.095	107.44
518.311	102.44
518.527	92.44
518.742	86.44
518.958	89.44
519.173	97.44
519.389	93.44
519.605	105.44
519.82	87.44
520.036	85.44
520.251	112.44
520.467	115.44
520.682	98.44
520.898	100.44
521.113	99.44
521.329	116.44
521.544	142.44
521.76	415.44
521.975	1675.44
522.19	966.44
522.406	224.44
522.621	111.44
522.836	104.44
523.052	103.44
523.267	86.44
523.482	100.44
523.698	105.44
523.913	108.44
524.128	104.44
524.343	94.44
524.559	90.44
524.774	92.44
524.989	101.44
525.204	96.44
525.419	95.44
525.634	95.44
525.849	86.44
526.064	88.44
526.28	94.44
526.495	94.44
526.71	76.44
526.925	85.44
527.14	83.44
527.355	82.44
527.57	95.44
527.785	90.44
527.999	86.44
528.214	91.44
528.429	93.44
528.644	88.44
528.859	82.44
529.074	93.44
529.289	118.44
529.503	137.44
529.718	102.44
529.933	83.44
530.148	97.44
530.363	88.44
530.577	90.44
530.792	95.44
531.007	86.44
531.221	92.44
531.436	102.44
531.651	94.44
531.865	84.44
532.08	87.44
532.295	85.44
532.509	79.44
532.724	83.44
532.938	87.44
533.153	109.44
533.367	92.44
533.582	85.44
533.796	101.44
534.011	89.44
534.225	107.44
534.44	97.44
534.654	94.44
534.868	87.44
535.083	101.44
535.297	86.44
535.511	98.44
535.726	96.44
535.94	91.44
536.154	83.44
536.369	88.44
536.583	102.44
536.797	87.44
537.011	81.44
537.225	90.44
537.44	84.44
537.654	99.44
537.868	89.44
538.082	90.44
538.296	86.44
538.51	73.44
538.724	81.44
538.938	84.44
539.153	84.44
539.367	96.44
539.581	98.44
539.795	84.44
540.009	86.44
540.222	76.44
540.436	103.44
540.65	79.44
540.864	105.44
541.078	92.44
541.292	76.44
541.506	84.44
541.72	94.44
541.934	80.44
542.147	92.44
542.361	88.44
542.575	85.44
542.789	72.44
543.002	91.44
543.216	90.44
543.43	101.44
543.644	92.44
543.857	96.44
544.071	87.44
544.285	82.44
544.498	100.44
544.712	87.44
544.925	86.44
545.139	86.44
545.352	88.44
545.566	76.44
545.779	90.44
545.993	90.44
546.206	70.44
546.42	78.44
546.633	84.44
546.847	83.44
547.06	74.44
547.274	89.44
547.487	75.44
547.7	84.44
547.914	93.44
548.127	82.44
548.34	86.44
548.554	86.44
548.767	83.44
548.98	88.44
549.193	100.44
549.407	104.44
549.62	96.44
549.833	80.44
550.046	82.44
550.259	90.44
550.473	83.44
550.686	87.44
550.899	104.44
551.112	86.44
551.325	81.44
551.538	73.44
551.751	90.44
551.964	91.44
552.177	96.44
552.39	82.44
552.603	82.44
552.816	81.44
553.029	89.44
553.242	77.44
553.455	96.44
553.667	84.44
553.88	105.44
554.093	88.44
554.306	103.44
554.519	102.44
554.732	83.44
554.944	97.44
555.157	100.44
555.37	83.44
555.583	89.44
555.795	80.44
556.008	90.44
556.221	84.44
556.433	78.44
556.646	79.44
556.859	94.44
557.071	97.44
557.284	90.44
557.496	71.44
557.709	91.44
557.921	87.44
558.134	83.44
558.346	89.44
558.559	87.44
558.771	90.44
558.984	99.44
559.196	91.44
559.409	92.44
559.621	86.44
559.833	87.44
560.046	73.44
560.258	82.44
560.47	78.44
560.683	87.44
560.895	84.44
561.107	69.44
561.32	74.44
561.532	91.44
561.744	91.44
561.956	95.44
562.168	93.44
562.381	102.44
562.593	98.44
562.805	98.44
563.017	89.44
563.229	77.44
563.441	86.44
563.653	71.44
563.865	105.44
564.077	85.44
564.289	81.44
564.501	83.44
564.713	86.44
564.925	94.44
565.137	84.44
565.349	89.44
565.561	90.44
565.773	91.44
565.985	80.44
566.197	97.44
566.408	84.44
566.62	79.44
566.832	75.44
567.044	89.44
567.255	84.44
567.467	88.44
567.679	79.44
567.891	88.44
568.102	85.44
568.314	83.44
568.526	90.44
568.737	88.44
568.949	91.44
569.161	85.44
569.372	87.44
569.584	86.44
569.795	88.44
570.007	110.44
570.218	189.44
570.43	123.44
570.641	83.44
570.853	86.44
571.064	81.44
571.276	82.44
571.487	96.44
571.698	100.44
571.91	71.44
572.121	82.44
572.333	87.44
572.544	75.44
572.755	80.44
572.966	85.44
573.178	82.44
573.389	86.44
573.6	82.44
573.811	100.44
574.023	90.44
574.234	85.44
574.445	93.44
574.656	67.44
574.867	90.44
575.078	90.44
575.289	95.44
575.501	87.44
575.712	82.44
575.923	94.44
576.134	89.44
576.345	76.44
576.556	91.44
576.767	96.44
576.978	84.44
577.188	89.44
577.399	87.44
577.61	70.44
577.821	96.44
578.032	99.44
578.243	209.44
578.454	535.44
578.665	164.44
578.875	99.44
579.086	85.44
579.297	76.44
579.508	90.44
579.718	69.44
579.929	96.44
580.14	90.44
580.35	73.44
580.561	79.44
580.772	88.44
580.982	82.44
581.193	72.44
581.403	78.44
581.614	87.44
581.825	87.44
582.035	82.44
582.246	80.44
582.456	104.44
582.667	87.44
582.877	83.44
583.087	88.44
583.298	80.44
583.508	67.44
583.719	87.44
583.929	82.44
584.139	69.44
584.35	79.44
584.56	85.44
584.77	84.44
584.981	89.44
585.191	86.44
585.401	86.44
585.611	87.44
585.821	87.44
586.032	104.44
586.242	79.44
586.452	87.44
586.662	87.44
586.872	90.44
587.082	100.44
587.292	81.44
587.502	95.44
587.713	86.44
587.923	94.44
588.133	86.44
588.343	90.44
588.553	80.44
588.762	85.44
588.972	91.44
589.182	106.44
589.392	103.44
589.602	94.44
589.812	94.44
590.022	90.44
590.232	95.44
590.441	80.44
590.651	88.44
590.861	88.44
591.071	75.44
591.281	91.44
591.49	83.44
591.7	81.44
591.91	87.44
592.119	89.44
592.329	80.44
592.539	98.44
592.748	80.44
592.958	83.44
593.167	79.44
593.377	86.44
593.587	88.44
593.796	80.44
594.006	87.44
594.215	82.44
594.424	68.44
594.634	102.44
594.843	76.44
595.053	94.44
595.262	86.44
595.472	94.44
595.681	87.44
595.89	90.44
596.1	100.44
596.309	89.44
596.518	82.44
596.727	84.44
596.937	90.44
597.146	73.44
597.355	83.44
597.564	67.44
597.774	86.44
597.983	82.44
598.192	83.44
598.401	87.44
598.61	73.44
598.819	84.44
599.028	74.44
599.237	101.44
599.446	74.44
599.655	99.44
599.864	86.44
600.073	87.44
600.282	70.44
600.491	92.44
600.7	85.44
600.909	97.44
601.118	101.44
601.327	95.44
601.536	101.44
601.745	79.44
601.953	89.44
602.162	82.44
602.371	77.44
602.58	90.44
602.789	85.44
602.997	78.44
603.206	87.44
603.415	90.44
603.623	89.44
603.832	77.44
604.041	71.44
604.249	71.44
604.458	86.44
604.666	79.44
604.875	92.44
605.084	85.44
605.292	94.44
605.501	87.44
605.709	80.44
605.918	80.44
606.126	95.44
606.334	82.44
606.543	90.44
606.751	75.44
606.96	84.44
607.168	92.44
607.376	88.44
607.585	96.44
607.793	91.44
608.001	86.44
608.21	65.44
608.418	79.44
608.626	94.44
608.834	75.44
609.043	98.44
609.251	86.44
609.459	84.44
609.667	95.44
609.875	76.44
610.083	71.44
610.291	87.44
610.499	79.44
610.707	88.44
610.916	93.44
611.124	86.44
611.332	70.44
611.54	85.44
611.748	86.44
611.955	94.44
612.163	87.44
612.371	90.44
612.579	96.44
612.787	96.44
612.995	98.44
613.203	95.44
613.411	84.44
613.618	82.44
613.826	75.44
614.034	85.44
614.242	83.44
614.449	74.44
614.657	96.44
614.865	75.44
615.072	76.44
615.28	85.44
615.488	86.44
615.695	96.44
615.903	85.44
616.111	102.44
616.318	103.44
616.526	91.44
616.733	103.44
616.941	88.44
617.148	103.44
617.356	86.44
617.563	81.44
617.771	86.44
617.978	82.44
618.185	97.44
618.393	91.44
618.6	86.44
618.807	73.44
619.015	90.44
619.222	84.44
619.429	84.44
619.637	95.44
619.844	104.44
620.051	84.44
620.258	97.44
620.466	61.44
620.673	82.44
620.88	89.44
621.087	85.44
621.294	92.44
621.501	73.44
621.708	80.44
621.915	81.44
622.122	86.44
622.329	90.44
622.536	72.44
622.743	96.44
622.95	97.44
623.157	82.44
623.364	95.44
623.571	92.44
623.778	88.44
623.985	73.44
624.192	82.44
624.399	85.44
624.606	75.44
624.812	87.44
625.019	94.44
625.226	82.44
625.433	94.44
625.639	83.44
625.846	86.44
626.053	93.44
626.259	81.44
626.466	80.44
626.673	85.44
626.879	85.44
627.086	75.44
627.293	88.44
627.499	84.44
627.706	72.44
627.912	83.44
628.119	89.44
628.325	69.44
628.532	78.44
628.738	82.44
628.945	95.44
629.151	91.44
629.357	80.44
629.564	79.44
629.77	76.44
629.976	94.44
630.183	94.44
630.389	97.44
630.595	86.44
630.802	73.44
631.008	82.44
631.214	82.44
631.42	87.44
631.627	86.44
631.833	85.44
632.039	82.44
632.245	88.44
632.451	89.44
632.657	81.44
632.863	84.44
633.069	95.44
633.275	72.44
633.481	85.44
633.688	88.44
633.893	73.44
634.099	92.44
634.305	89.44
634.511	102.44
634.717	76.44
634.923	65.44
635.129	75.44
635.335	72.44
635.541	76.44
635.747	82.44
635.952	75.44
636.158	85.44
636.364	91.44
636.57	75.44
636.775	83.44
636.981	69.44
637.187	88.44
637.392	79.44
637.598	86.44
637.804	75.44
638.009	73.44
638.215	81.44
638.421	72.44
638.626	86.44
638.832	65.44
639.037	93.44
639.243	81.44
639.448	95.44
639.654	88.44
639.859	91.44
640.065	65.44
640.27	89.44
640.475	88.44
640.681	75.44
640.886	104.44
641.091	92.44
641.297	79.44
641.502	78.44
641.707	73.44
641.913	84.44
642.118	80.44
642.323	88.44
642.528	85.44
642.733	81.44
642.939	87.44
643.144	95.44
643.349	87.44
643.554	85.44
643.759	87.44
643.964	74.44
644.169	86.44
644.374	74.44
644.579	84.44
644.784	98.44
644.989	83.44
645.194	97.44
645.399	86.44
645.604	84.44
645.809	86.44
646.014	86.44
646.219	80.44
646.423	96.44
646.628	87.44
646.833	78.44
647.038	86.44
647.243	88.44
647.447	75.44
647.652	79.44
647.857	73.44
648.062	66.44
648.266	85.44
648.471	84.44
648.676	91.44
648.88	83.44
649.085	91.44
649.289	92.44
649.494	92.44
649.698	103.44
649.903	87.44
650.107	80.44
650.312	87.44
650.516	97.44
650.721	78.44
650.925	89.44
651.13	81.44
651.334	80.44
651.539	85.44
651.743	81.44
651.947	86.44
652.152	98.44
652.356	69.44
652.56	77.44
652.764	85.44
652.969	89.44
653.173	72.44
653.377	94.44
653.581	85.44
653.785	83.44
653.99	94.44
654.194	95.44
654.398	85.44
654.602	65.44
654.806	89.44
655.01	93.44
655.214	89.44
655.418	79.44
655.622	85.44
655.826	80.44
656.03	82.44
656.234	80.44
656.438	99.44
656.642	105.44
656.846	96.44
657.049	84.44
657.253	83.44
657.457	78.44
657.661	70.44
657.865	71.44
658.068	74.44
658.272	72.44
658.476	68.44
658.68	71.44
658.883	87.44
659.087	72.44
659.291	82.44
659.494	90.44
659.698	81.44
659.901	75.44
660.105	80.44
660.309	85.44
660.512	88.44
660.716	75.44
660.919	71.44
661.123	85.44
661.326	83.44
661.53	71.44
661.733	69.44
661.936	69.44
662.14	94.44
662.343	78.44
662.546	82.44
662.75	69.44
662.953	72.44
663.156	69.44
663.36	96.44
663.563	71.44
663.766	84.44
663.969	75.44
664.173	80.44
664.376	77.44
664.579	84.44
664.782	81.44
664.985	66.44
665.188	88.44
665.391	75.44
665.594	74.44
665.797	75.44
666	79.44
666.203	87.44
666.406	80.44
666.609	91.44
666.812	82.44
667.015	79.44
667.218	96.44
667.421	90.44
667.624	70.44
667.827	81.44
668.03	71.44
668.232	90.44
668.435	80.44
668.638	80.44
668.841	87.44
669.043	74.44
669.246	74.44
669.449	79.44
669.651	75.44
669.854	70.44
670.057	84.44
670.259	76.44
670.462	80.44
670.665	94.44
670.867	84.44
671.07	74.44
671.272	91.44
671.475	91.44
671.677	58.44
671.88	81.44
672.082	68.44
672.284	72.44
672.487	91.44
672.689	80.44
672.892	73.44
