Data from TestCu_HRD10591_00065.txt Node
Date: Thu Oct 05 14:05:45 EDT 2023
User: Yrep
Spectrometer: HR+D1059
Trigger mode: 1
Integration Time (sec): 1.000000E-1
Scans to average: 1
Electric dark correction enabled: true
Nonlinearity correction enabled: false
Boxcar width: 0
XAxis mode: Wavelengths
Number of Pixels in Spectrum: 2048
>>>>>Begin Spectral Data<<<<<
223.165	-10.38
223.4	-10.38
223.635	-10.38
223.869	-28.38
224.104	-13.38
224.338	-29.38
224.573	-27.38
224.808	-21.38
225.042	-1.38
225.277	7.62
225.511	9.62
225.746	-5.38
225.98	9.62
226.215	4.62
226.449	25.62
226.683	26.62
226.918	25.62
227.152	27.62
227.387	41.62
227.621	50.62
227.856	37.62
228.09	47.62
228.324	65.62
228.559	45.62
228.793	64.62
229.027	99.62
229.262	103.62
229.496	135.62
229.73	165.62
229.964	152.62
230.199	128.62
230.433	116.62
230.667	120.62
230.901	121.62
231.136	107.62
231.37	99.62
231.604	113.62
231.838	106.62
232.072	117.62
232.306	115.62
232.541	111.62
232.775	107.62
233.009	101.62
233.243	110.62
233.477	119.62
233.711	116.62
233.945	112.62
234.179	125.62
234.413	133.62
234.647	106.62
234.881	123.62
235.115	116.62
235.349	120.62
235.583	131.62
235.817	135.62
236.051	128.62
236.285	138.62
236.519	135.62
236.753	138.62
236.987	177.62
237.221	204.62
237.455	197.62
237.689	145.62
237.922	137.62
238.156	122.62
238.39	127.62
238.624	121.62
238.858	135.62
239.091	124.62
239.325	127.62
239.559	134.62
239.793	132.62
240.027	126.62
240.26	163.62
240.494	163.62
240.728	163.62
240.961	121.62
241.195	129.62
241.429	148.62
241.662	122.62
241.896	131.62
242.13	132.62
242.363	136.62
242.597	137.62
242.83	137.62
243.064	139.62
243.298	137.62
243.531	135.62
243.765	132.62
243.998	136.62
244.232	140.62
244.465	145.62
244.699	127.62
244.932	130.62
245.166	137.62
245.399	134.62
245.633	132.62
245.866	165.62
246.099	132.62
246.333	140.62
246.566	143.62
246.8	144.62
247.033	144.62
247.266	161.62
247.5	171.62
247.733	153.62
247.966	173.62
248.2	161.62
248.433	149.62
248.666	173.62
248.899	177.62
249.133	209.62
249.366	202.62
249.599	168.62
249.832	180.62
250.066	158.62
250.299	169.62
250.532	185.62
250.765	219.62
250.998	219.62
251.231	216.62
251.465	190.62
251.698	179.62
251.931	184.62
252.164	191.62
252.397	186.62
252.63	184.62
252.863	208.62
253.096	215.62
253.329	206.62
253.562	185.62
253.795	197.62
254.028	206.62
254.261	203.62
254.494	242.62
254.727	278.62
254.96	238.62
255.193	215.62
255.426	210.62
255.659	187.62
255.892	191.62
256.124	185.62
256.357	195.62
256.59	185.62
256.823	197.62
257.056	191.62
257.289	197.62
257.521	191.62
257.754	199.62
257.987	183.62
258.22	205.62
258.452	201.62
258.685	208.62
258.918	197.62
259.151	216.62
259.383	202.62
259.616	221.62
259.849	235.62
260.081	234.62
260.314	261.62
260.547	242.62
260.779	219.62
261.012	205.62
261.244	206.62
261.477	228.62
261.71	214.62
261.942	229.62
262.175	255.62
262.407	229.62
262.64	201.62
262.872	202.62
263.105	207.62
263.337	211.62
263.57	215.62
263.802	206.62
264.035	201.62
264.267	206.62
264.499	214.62
264.732	217.62
264.964	207.62
265.197	214.62
265.429	219.62
265.661	218.62
265.894	209.62
266.126	215.62
266.358	200.62
266.591	237.62
266.823	236.62
267.055	233.62
267.287	223.62
267.52	221.62
267.752	230.62
267.984	233.62
268.216	238.62
268.448	233.62
268.681	245.62
268.913	253.62
269.145	279.62
269.377	274.62
269.609	246.62
269.841	261.62
270.073	279.62
270.306	288.62
270.538	313.62
270.77	275.62
271.002	278.62
271.234	277.62
271.466	294.62
271.698	316.62
271.93	327.62
272.162	301.62
272.394	289.62
272.626	270.62
272.858	243.62
273.09	241.62
273.322	250.62
273.553	267.62
273.785	253.62
274.017	248.62
274.249	264.62
274.481	248.62
274.713	257.62
274.945	264.62
275.176	278.62
275.408	271.62
275.64	265.62
275.872	272.62
276.104	293.62
276.335	297.62
276.567	306.62
276.799	340.62
277.031	338.62
277.262	354.62
277.494	303.62
277.726	273.62
277.957	287.62
278.189	279.62
278.421	269.62
278.652	275.62
278.884	285.62
279.115	283.62
279.347	270.62
279.579	283.62
279.81	272.62
280.042	270.62
280.273	268.62
280.505	299.62
280.736	269.62
280.968	281.62
281.199	270.62
281.431	275.62
281.662	282.62
281.894	289.62
282.125	342.62
282.356	342.62
282.588	361.62
282.819	344.62
283.051	296.62
283.282	290.62
283.513	316.62
283.745	308.62
283.976	307.62
284.207	295.62
284.439	293.62
284.67	281.62
284.901	285.62
285.132	293.62
285.364	318.62
285.595	306.62
285.826	291.62
286.057	303.62
286.288	286.62
286.52	320.62
286.751	307.62
286.982	328.62
287.213	307.62
287.444	323.62
287.675	309.62
287.906	353.62
288.138	326.62
288.369	341.62
288.6	328.62
288.831	323.62
289.062	326.62
289.293	326.62
289.524	324.62
289.755	323.62
289.986	322.62
290.217	316.62
290.448	314.62
290.679	327.62
290.91	330.62
291.141	323.62
291.371	312.62
291.602	313.62
291.833	310.62
292.064	337.62
292.295	335.62
292.526	331.62
292.757	326.62
292.987	325.62
293.218	315.62
293.449	319.62
293.68	325.62
293.91	345.62
294.141	329.62
294.372	325.62
294.603	335.62
294.833	348.62
295.064	307.62
295.295	353.62
295.525	355.62
295.756	372.62
295.987	387.62
296.217	398.62
296.448	395.62
296.679	342.62
296.909	328.62
297.14	347.62
297.37	342.62
297.601	349.62
297.831	364.62
298.062	365.62
298.292	386.62
298.523	367.62
298.753	375.62
298.984	355.62
299.214	364.62
299.445	363.62
299.675	359.62
299.905	381.62
300.136	371.62
300.366	371.62
300.597	381.62
300.827	394.62
301.057	413.62
301.288	419.62
301.518	394.62
301.748	413.62
301.979	397.62
302.209	417.62
302.439	389.62
302.669	389.62
302.9	381.62
303.13	381.62
303.36	406.62
303.59	416.62
303.82	407.62
304.051	391.62
304.281	383.62
304.511	403.62
304.741	389.62
304.971	396.62
305.201	402.62
305.431	387.62
305.661	379.62
305.891	407.62
306.121	397.62
306.352	395.62
306.582	407.62
306.812	383.62
307.042	384.62
307.272	410.62
307.502	387.62
307.731	402.62
307.961	407.62
308.191	375.62
308.421	411.62
308.651	383.62
308.881	427.62
309.111	420.62
309.341	424.62
309.571	429.62
309.8	451.62
310.03	498.62
310.26	479.62
310.49	471.62
310.72	525.62
310.949	532.62
311.179	474.62
311.409	460.62
311.639	472.62
311.868	440.62
312.098	454.62
312.328	479.62
312.557	566.62
312.787	532.62
313.017	503.62
313.246	475.62
313.476	479.62
313.706	466.62
313.935	487.62
314.165	533.62
314.394	491.62
314.624	506.62
314.853	471.62
315.083	460.62
315.312	450.62
315.542	465.62
315.771	456.62
316.001	461.62
316.23	457.62
316.46	474.62
316.689	469.62
316.919	492.62
317.148	504.62
317.377	497.62
317.607	501.62
317.836	472.62
318.065	465.62
318.295	463.62
318.524	469.62
318.753	468.62
318.983	469.62
319.212	487.62
319.441	474.62
319.67	502.62
319.9	488.62
320.129	447.62
320.358	457.62
320.587	485.62
320.816	493.62
321.046	489.62
321.275	491.62
321.504	490.62
321.733	526.62
321.962	532.62
322.191	551.62
322.42	587.62
322.649	596.62
322.878	606.62
323.108	640.62
323.337	699.62
323.566	723.62
323.795	838.62
324.024	1120.62
324.253	1904.62
324.482	3162.62
324.71	4692.62
324.939	4111.62
325.168	1850.62
325.397	933.62
325.626	728.62
325.855	657.62
326.084	658.62
326.313	700.62
326.542	780.62
326.77	1073.62
326.999	1751.62
327.228	2708.62
327.457	3409.62
327.686	2276.62
327.914	1125.62
328.143	863.62
328.372	785.62
328.6	784.62
328.829	808.62
329.058	834.62
329.287	757.62
329.515	673.62
329.744	630.62
329.972	631.62
330.201	695.62
330.43	804.62
330.658	910.62
330.887	898.62
331.115	767.62
331.344	656.62
331.572	663.62
331.801	659.62
332.03	647.62
332.258	646.62
332.486	610.62
332.715	622.62
332.943	632.62
333.172	644.62
333.4	652.62
333.629	653.62
333.857	689.62
334.085	623.62
334.314	624.62
334.542	630.62
334.771	657.62
334.999	627.62
335.227	642.62
335.455	593.62
335.684	607.62
335.912	595.62
336.14	614.62
336.369	608.62
336.597	638.62
336.825	617.62
337.053	574.62
337.281	595.62
337.51	608.62
337.738	613.62
337.966	618.62
338.194	586.62
338.422	587.62
338.65	579.62
338.878	571.62
339.106	561.62
339.334	566.62
339.562	570.62
339.79	569.62
340.018	558.62
340.246	579.62
340.474	572.62
340.702	561.62
340.93	554.62
341.158	563.62
341.386	593.62
341.614	585.62
341.842	561.62
342.07	570.62
342.298	567.62
342.526	559.62
342.754	550.62
342.981	550.62
343.209	571.62
343.437	573.62
343.665	625.62
343.893	606.62
344.12	611.62
344.348	601.62
344.576	593.62
344.804	607.62
345.031	640.62
345.259	607.62
345.487	597.62
345.714	589.62
345.942	566.62
346.17	557.62
346.397	570.62
346.625	583.62
346.853	559.62
347.08	562.62
347.308	558.62
347.535	601.62
347.763	605.62
347.99	586.62
348.218	614.62
348.445	609.62
348.673	574.62
348.9	554.62
349.128	559.62
349.355	549.62
349.583	549.62
349.81	541.62
350.037	530.62
350.265	533.62
350.492	559.62
350.72	563.62
350.947	582.62
351.174	600.62
351.402	562.62
351.629	595.62
351.856	608.62
352.083	599.62
352.311	627.62
352.538	623.62
352.765	624.62
352.992	589.62
353.22	551.62
353.447	571.62
353.674	553.62
353.901	529.62
354.128	526.62
354.355	535.62
354.583	548.62
354.81	525.62
355.037	517.62
355.264	526.62
355.491	534.62
355.718	490.62
355.945	505.62
356.172	509.62
356.399	513.62
356.626	534.62
356.853	533.62
357.08	516.62
357.307	521.62
357.534	521.62
357.761	530.62
357.988	542.62
358.215	545.62
358.441	515.62
358.668	521.62
358.895	549.62
359.122	553.62
359.349	578.62
359.576	642.62
359.802	690.62
360.029	745.62
360.256	703.62
360.483	601.62
360.709	585.62
360.936	563.62
361.163	592.62
361.39	608.62
361.616	589.62
361.843	585.62
362.07	613.62
362.296	593.62
362.523	582.62
362.749	583.62
362.976	553.62
363.203	573.62
363.429	567.62
363.656	545.62
363.882	563.62
364.109	549.62
364.335	543.62
364.562	559.62
364.788	552.62
365.015	589.62
365.241	565.62
365.468	578.62
365.694	565.62
365.92	589.62
366.147	563.62
366.373	552.62
366.599	555.62
366.826	545.62
367.052	555.62
367.278	562.62
367.505	552.62
367.731	562.62
367.957	536.62
368.184	569.62
368.41	582.62
368.636	596.62
368.862	571.62
369.089	591.62
369.315	569.62
369.541	585.62
369.767	566.62
369.993	570.62
370.219	557.62
370.445	548.62
370.672	569.62
370.898	559.62
371.124	580.62
371.35	547.62
371.576	572.62
371.802	579.62
372.028	567.62
372.254	581.62
372.48	571.62
372.706	571.62
372.932	579.62
373.158	596.62
373.384	583.62
373.61	570.62
373.835	585.62
374.061	585.62
374.287	591.62
374.513	584.62
374.739	603.62
374.965	622.62
375.191	602.62
375.416	577.62
375.642	605.62
375.868	597.62
376.094	541.62
376.319	585.62
376.545	572.62
376.771	561.62
376.997	583.62
377.222	579.62
377.448	577.62
377.674	571.62
377.899	545.62
378.125	564.62
378.35	564.62
378.576	563.62
378.802	562.62
379.027	552.62
379.253	563.62
379.478	578.62
379.704	559.62
379.929	555.62
380.155	576.62
380.38	560.62
380.606	566.62
380.831	578.62
381.057	588.62
381.282	553.62
381.507	570.62
381.733	573.62
381.958	597.62
382.184	592.62
382.409	612.62
382.634	595.62
382.86	589.62
383.085	607.62
383.31	611.62
383.535	634.62
383.761	609.62
383.986	609.62
384.211	629.62
384.436	638.62
384.662	647.62
384.887	640.62
385.112	658.62
385.337	663.62
385.562	665.62
385.787	679.62
386.013	692.62
386.238	701.62
386.463	682.62
386.688	677.62
386.913	655.62
387.138	655.62
387.363	672.62
387.588	675.62
387.813	648.62
388.038	663.62
388.263	672.62
388.488	644.62
388.713	667.62
388.938	646.62
389.163	677.62
389.387	639.62
389.612	646.62
389.837	656.62
390.062	635.62
390.287	649.62
390.512	661.62
390.736	669.62
390.961	671.62
391.186	673.62
391.411	686.62
391.636	713.62
391.86	718.62
392.085	718.62
392.31	687.62
392.534	694.62
392.759	691.62
392.984	666.62
393.208	683.62
393.433	671.62
393.658	684.62
393.882	684.62
394.107	693.62
394.331	698.62
394.556	718.62
394.78	687.62
395.005	691.62
395.229	702.62
395.454	733.62
395.678	749.62
395.903	737.62
396.127	748.62
396.352	723.62
396.576	697.62
396.801	696.62
397.025	713.62
397.249	718.62
397.474	743.62
397.698	726.62
397.922	779.62
398.147	787.62
398.371	783.62
398.595	802.62
398.82	833.62
399.044	904.62
399.268	994.62
399.492	1077.62
399.717	1076.62
399.941	1042.62
400.165	1015.62
400.389	928.62
400.613	851.62
400.837	804.62
401.062	807.62
401.286	839.62
401.51	825.62
401.734	813.62
401.958	857.62
402.182	909.62
402.406	895.62
402.63	865.62
402.854	875.62
403.078	851.62
403.302	897.62
403.526	879.62
403.75	897.62
403.974	913.62
404.198	903.62
404.422	927.62
404.645	915.62
404.869	897.62
405.093	914.62
405.317	915.62
405.541	919.62
405.765	893.62
405.988	944.62
406.212	1000.62
406.436	1035.62
406.66	979.62
406.883	1009.62
407.107	1045.62
407.331	1092.62
407.555	1123.62
407.778	1059.62
408.002	959.62
408.226	953.62
408.449	945.62
408.673	935.62
408.896	937.62
409.12	951.62
409.344	888.62
409.567	890.62
409.791	872.62
410.014	851.62
410.238	846.62
410.461	835.62
410.685	880.62
410.908	871.62
411.132	898.62
411.355	908.62
411.578	866.62
411.802	822.62
412.025	831.62
412.249	813.62
412.472	811.62
412.695	806.62
412.919	790.62
413.142	801.62
413.365	802.62
413.589	790.62
413.812	784.62
414.035	782.62
414.258	793.62
414.482	799.62
414.705	803.62
414.928	790.62
415.151	806.62
415.374	770.62
415.597	784.62
415.821	774.62
416.044	777.62
416.267	770.62
416.49	775.62
416.713	786.62
416.936	766.62
417.159	785.62
417.382	777.62
417.605	791.62
417.828	825.62
418.051	809.62
418.274	834.62
418.497	804.62
418.72	806.62
418.943	804.62
419.166	807.62
419.389	854.62
419.611	838.62
419.834	811.62
420.057	834.62
420.28	811.62
420.503	813.62
420.726	847.62
420.948	816.62
421.171	895.62
421.394	865.62
421.617	809.62
421.839	791.62
422.062	831.62
422.285	871.62
422.507	945.62
422.73	967.62
422.953	884.62
423.175	831.62
423.398	857.62
423.621	844.62
423.843	870.62
424.066	891.62
424.288	895.62
424.511	920.62
424.733	993.62
424.956	1042.62
425.178	970.62
425.401	973.62
425.623	911.62
425.846	846.62
426.068	817.62
426.291	813.62
426.513	815.62
426.735	862.62
426.958	959.62
427.18	1059.62
427.402	1236.62
427.625	1237.62
427.847	991.62
428.069	819.62
428.292	793.62
428.514	743.62
428.736	773.62
428.958	751.62
429.181	763.62
429.403	727.62
429.625	778.62
429.847	835.62
430.069	845.62
430.292	767.62
430.514	717.62
430.736	746.62
430.958	711.62
431.18	703.62
431.402	709.62
431.624	720.62
431.846	703.62
432.068	717.62
432.29	704.62
432.512	733.62
432.734	738.62
432.956	748.62
433.178	747.62
433.4	749.62
433.622	727.62
433.844	742.62
434.066	755.62
434.287	757.62
434.509	781.62
434.731	809.62
434.953	833.62
435.175	821.62
435.397	845.62
435.618	841.62
435.84	934.62
436.062	1019.62
436.284	945.62
436.505	817.62
436.727	804.62
436.949	759.62
437.17	722.62
437.392	766.62
437.614	791.62
437.835	902.62
438.057	1031.62
438.278	1079.62
438.5	1045.62
438.721	1077.62
438.943	941.62
439.165	836.62
439.386	811.62
439.608	819.62
439.829	865.62
440.05	961.62
440.272	955.62
440.493	829.62
440.715	784.62
440.936	819.62
441.158	790.62
441.379	798.62
441.6	857.62
441.822	899.62
442.043	954.62
442.264	1037.62
442.486	948.62
442.707	851.62
442.928	891.62
443.149	930.62
443.371	975.62
443.592	1054.62
443.813	1112.62
444.034	1045.62
444.255	916.62
444.476	910.62
444.698	896.62
444.919	882.62
445.14	921.62
445.361	951.62
445.582	1032.62
445.803	1171.62
446.024	1219.62
446.245	1088.62
446.466	914.62
446.687	804.62
446.908	761.62
447.129	731.62
447.35	746.62
447.571	726.62
447.792	729.62
448.013	752.62
448.234	807.62
448.455	941.62
448.675	1027.62
448.896	1014.62
449.117	902.62
449.338	975.62
449.559	1098.62
449.779	1047.62
450	829.62
450.221	761.62
450.442	735.62
450.662	751.62
450.883	809.62
451.104	787.62
451.324	745.62
451.545	678.62
451.766	688.62
451.986	676.62
452.207	672.62
452.428	676.62
452.648	686.62
452.869	693.62
453.089	693.62
453.31	712.62
453.53	677.62
453.751	687.62
453.971	728.62
454.192	745.62
454.412	668.62
454.633	654.62
454.853	635.62
455.073	666.62
455.294	751.62
455.514	769.62
455.734	687.62
455.955	646.62
456.175	611.62
456.395	609.62
456.616	628.62
456.836	629.62
457.056	617.62
457.276	589.62
457.497	628.62
457.717	640.62
457.937	641.62
458.157	654.62
458.377	685.62
458.598	808.62
458.818	991.62
459.038	993.62
459.258	875.62
459.478	763.62
459.698	746.62
459.918	740.62
460.138	787.62
460.358	791.62
460.578	759.62
460.798	801.62
461.018	777.62
461.238	771.62
461.458	749.62
461.678	773.62
461.898	783.62
462.118	791.62
462.338	804.62
462.558	839.62
462.777	897.62
462.997	913.62
463.217	933.62
463.437	937.62
463.657	873.62
463.876	858.62
464.096	881.62
464.316	895.62
464.536	893.62
464.755	887.62
464.975	971.62
465.195	1129.62
465.414	1076.62
465.634	837.62
465.854	785.62
466.073	731.62
466.293	744.62
466.512	693.62
466.732	681.62
466.951	681.62
467.171	690.62
467.391	741.62
467.61	764.62
467.829	722.62
468.049	703.62
468.268	652.62
468.488	649.62
468.707	651.62
468.927	666.62
469.146	659.62
469.365	675.62
469.585	686.62
469.804	731.62
470.023	738.62
470.243	729.62
470.462	791.62
470.681	811.62
470.901	726.62
471.12	692.62
471.339	718.62
471.558	701.62
471.777	687.62
471.997	641.62
472.216	640.62
472.435	662.62
472.654	647.62
472.873	636.62
473.092	660.62
473.311	644.62
473.53	654.62
473.749	676.62
473.968	795.62
474.187	885.62
474.406	801.62
474.625	666.62
474.844	643.62
475.063	666.62
475.282	656.62
475.501	670.62
475.72	688.62
475.939	691.62
476.158	707.62
476.377	692.62
476.596	703.62
476.814	722.62
477.033	719.62
477.252	749.62
477.471	747.62
477.69	743.62
477.908	749.62
478.127	778.62
478.346	762.62
478.564	801.62
478.783	795.62
479.002	815.62
479.22	845.62
479.439	855.62
479.658	881.62
479.876	842.62
480.095	840.62
480.313	906.62
480.532	908.62
480.751	833.62
480.969	836.62
481.188	814.62
481.406	786.62
481.624	781.62
481.843	801.62
482.061	758.62
482.28	758.62
482.498	744.62
482.717	739.62
482.935	741.62
483.153	760.62
483.372	781.62
483.59	759.62
483.808	751.62
484.027	772.62
484.245	767.62
484.463	794.62
484.681	800.62
484.9	786.62
485.118	797.62
485.336	809.62
485.554	784.62
485.772	781.62
485.99	802.62
486.209	810.62
486.427	824.62
486.645	851.62
486.863	877.62
487.081	837.62
487.299	832.62
487.517	830.62
487.735	813.62
487.953	829.62
488.171	823.62
488.389	821.62
488.607	840.62
488.825	816.62
489.043	815.62
489.261	813.62
489.479	811.62
489.696	849.62
489.914	854.62
490.132	859.62
490.35	851.62
490.568	864.62
490.786	863.62
491.003	910.62
491.221	932.62
491.439	922.62
491.657	954.62
491.874	968.62
492.092	961.62
492.31	982.62
492.527	950.62
492.745	960.62
492.963	952.62
493.18	963.62
493.398	976.62
493.615	973.62
493.833	987.62
494.05	971.62
494.268	963.62
494.485	958.62
494.703	952.62
494.92	980.62
495.138	977.62
495.355	961.62
495.573	968.62
495.79	976.62
496.008	974.62
496.225	971.62
496.442	968.62
496.66	937.62
496.877	949.62
497.094	971.62
497.312	979.62
497.529	1004.62
497.746	1061.62
497.963	1074.62
498.181	1101.62
498.398	1113.62
498.615	1191.62
498.832	1231.62
499.049	1269.62
499.267	1319.62
499.484	1461.62
499.701	1515.62
499.918	1625.62
500.135	1795.62
500.352	1862.62
500.569	1874.62
500.786	1861.62
501.003	1745.62
501.22	1610.62
501.437	1555.62
501.654	1463.62
501.871	1397.62
502.088	1278.62
502.305	1187.62
502.522	1163.62
502.739	1134.62
502.956	1068.62
503.172	1024.62
503.389	1066.62
503.606	1058.62
503.823	1034.62
504.04	989.62
504.256	993.62
504.473	1015.62
504.69	1015.62
504.907	976.62
505.123	976.62
505.34	930.62
505.557	950.62
505.773	910.62
505.99	900.62
506.207	883.62
506.423	891.62
506.64	894.62
506.856	888.62
507.073	870.62
507.289	861.62
507.506	905.62
507.722	925.62
507.939	901.62
508.155	892.62
508.372	860.62
508.588	849.62
508.805	833.62
509.021	827.62
509.238	835.62
509.454	851.62
509.67	809.62
509.887	822.62
510.103	849.62
510.319	991.62
510.536	1658.62
510.752	2643.62
510.968	1209.62
511.184	809.62
511.401	808.62
511.617	789.62
511.833	762.62
512.049	739.62
512.265	770.62
512.481	771.62
512.698	784.62
512.914	792.62
513.13	793.62
513.346	762.62
513.562	777.62
513.778	808.62
513.994	827.62
514.21	851.62
514.426	974.62
514.642	1037.62
514.858	1066.62
515.074	1315.62
515.29	2100.62
515.506	3035.62
515.721	1563.62
515.937	1038.62
516.153	928.62
516.369	897.62
516.585	907.62
516.801	896.62
517.016	885.62
517.232	937.62
517.448	926.62
517.664	946.62
517.879	935.62
518.095	954.62
518.311	905.62
518.527	885.62
518.742	886.62
518.958	867.62
519.173	838.62
519.389	853.62
519.605	827.62
519.82	858.62
520.036	864.62
520.251	953.62
520.467	926.62
520.682	931.62
520.898	953.62
521.113	1039.62
521.329	1192.62
521.544	1539.62
521.76	2733.62
521.975	4979.62
522.19	2783.62
522.406	1313.62
522.621	948.62
522.836	837.62
523.052	776.62
523.267	784.62
523.482	751.62
523.698	756.62
523.913	757.62
524.128	737.62
524.343	702.62
524.559	733.62
524.774	684.62
524.989	687.62
525.204	718.62
525.419	733.62
525.634	679.62
525.849	675.62
526.064	655.62
526.28	674.62
526.495	620.62
526.71	649.62
526.925	634.62
527.14	643.62
527.355	635.62
527.57	658.62
527.785	647.62
527.999	637.62
528.214	630.62
528.429	651.62
528.644	662.62
528.859	663.62
529.074	710.62
529.289	845.62
529.503	952.62
529.718	793.62
529.933	688.62
530.148	661.62
530.363	654.62
530.577	634.62
530.792	635.62
531.007	635.62
531.221	633.62
531.436	626.62
531.651	631.62
531.865	636.62
532.08	620.62
532.295	631.62
532.509	624.62
532.724	608.62
532.938	616.62
533.153	626.62
533.367	627.62
533.582	609.62
533.796	645.62
534.011	623.62
534.225	621.62
534.44	590.62
534.654	620.62
534.868	600.62
535.083	617.62
535.297	629.62
535.511	677.62
535.726	670.62
535.94	619.62
536.154	605.62
536.369	597.62
536.583	612.62
536.797	615.62
537.011	602.62
537.225	575.62
537.44	578.62
537.654	591.62
537.868	581.62
538.082	616.62
538.296	605.62
538.51	605.62
538.724	607.62
538.938	587.62
539.153	618.62
539.367	622.62
539.581	611.62
539.795	597.62
540.009	565.62
540.222	590.62
540.436	577.62
540.65	604.62
540.864	604.62
541.078	621.62
541.292	598.62
541.506	584.62
541.72	601.62
541.934	617.62
542.147	597.62
542.361	584.62
542.575	579.62
542.789	578.62
543.002	596.62
543.216	594.62
543.43	596.62
543.644	589.62
543.857	583.62
544.071	582.62
544.285	582.62
544.498	608.62
544.712	613.62
544.925	586.62
545.139	602.62
545.352	618.62
545.566	607.62
545.779	612.62
545.993	594.62
546.206	597.62
546.42	599.62
546.633	593.62
546.847	612.62
547.06	590.62
547.274	596.62
547.487	586.62
547.7	578.62
547.914	595.62
548.127	587.62
548.34	607.62
548.554	562.62
548.767	605.62
548.98	614.62
549.193	618.62
549.407	630.62
549.62	619.62
549.833	610.62
550.046	588.62
550.259	603.62
550.473	567.62
550.686	564.62
550.899	609.62
551.112	569.62
551.325	570.62
551.538	553.62
551.751	570.62
551.964	562.62
552.177	595.62
552.39	584.62
552.603	608.62
552.816	621.62
553.029	609.62
553.242	611.62
553.455	650.62
553.667	666.62
553.88	660.62
554.093	635.62
554.306	631.62
554.519	581.62
554.732	604.62
554.944	575.62
555.157	557.62
555.37	562.62
555.583	533.62
555.795	539.62
556.008	542.62
556.221	549.62
556.433	504.62
556.646	525.62
556.859	530.62
557.071	520.62
557.284	511.62
557.496	528.62
557.709	508.62
557.921	514.62
558.134	514.62
558.346	505.62
558.559	525.62
558.771	505.62
558.984	498.62
559.196	495.62
559.409	501.62
559.621	510.62
559.833	484.62
560.046	493.62
560.258	491.62
560.47	485.62
560.683	511.62
560.895	512.62
561.107	485.62
561.32	499.62
561.532	479.62
561.744	492.62
561.956	490.62
562.168	507.62
562.381	478.62
562.593	487.62
562.805	500.62
563.017	491.62
563.229	490.62
563.441	489.62
563.653	505.62
563.865	481.62
564.077	503.62
564.289	511.62
564.501	501.62
564.713	529.62
564.925	536.62
565.137	542.62
565.349	535.62
565.561	557.62
565.773	573.62
565.985	585.62
566.197	600.62
566.408	636.62
566.62	674.62
566.832	698.62
567.044	682.62
567.255	735.62
567.467	705.62
567.679	738.62
567.891	783.62
568.102	730.62
568.314	730.62
568.526	667.62
568.737	623.62
568.949	576.62
569.161	550.62
569.372	531.62
569.584	515.62
569.795	524.62
570.007	526.62
570.218	623.62
570.43	524.62
570.641	488.62
570.853	464.62
571.064	485.62
571.276	493.62
571.487	472.62
571.698	467.62
571.91	455.62
572.121	444.62
572.333	443.62
572.544	433.62
572.755	409.62
572.966	390.62
573.178	405.62
573.389	434.62
573.6	433.62
573.811	409.62
574.023	403.62
574.234	400.62
574.445	396.62
574.656	382.62
574.867	405.62
575.078	377.62
575.289	391.62
575.501	375.62
575.712	378.62
575.923	383.62
576.134	381.62
576.345	378.62
576.556	394.62
576.767	379.62
576.978	373.62
577.188	383.62
577.399	369.62
577.61	390.62
577.821	372.62
578.032	413.62
578.243	551.62
578.454	921.62
578.665	490.62
578.875	387.62
579.086	370.62
579.297	367.62
579.508	364.62
579.718	336.62
579.929	370.62
580.14	355.62
580.35	335.62
580.561	337.62
580.772	330.62
580.982	349.62
581.193	369.62
581.403	335.62
581.614	340.62
581.825	342.62
582.035	335.62
582.246	348.62
582.456	330.62
582.667	346.62
582.877	344.62
583.087	333.62
583.298	341.62
583.508	350.62
583.719	329.62
583.929	321.62
584.139	350.62
584.35	343.62
584.56	349.62
584.77	345.62
584.981	333.62
585.191	329.62
585.401	346.62
585.611	350.62
585.821	338.62
586.032	331.62
586.242	315.62
586.452	328.62
586.662	318.62
586.872	333.62
587.082	327.62
587.292	313.62
587.502	325.62
587.713	329.62
587.923	334.62
588.133	329.62
588.343	336.62
588.553	306.62
588.762	340.62
588.972	339.62
589.182	329.62
589.392	327.62
589.602	325.62
589.812	322.62
590.022	323.62
590.232	337.62
590.441	319.62
590.651	340.62
590.861	327.62
591.071	323.62
591.281	340.62
591.49	330.62
591.7	336.62
591.91	331.62
592.119	345.62
592.329	356.62
592.539	362.62
592.748	372.62
592.958	397.62
593.167	365.62
593.377	389.62
593.587	390.62
593.796	392.62
594.006	391.62
594.215	401.62
594.424	376.62
594.634	381.62
594.843	345.62
595.053	365.62
595.262	357.62
595.472	347.62
595.681	343.62
595.89	346.62
596.1	324.62
596.309	326.62
596.518	326.62
596.727	315.62
596.937	328.62
597.146	314.62
597.355	298.62
597.564	318.62
597.774	297.62
597.983	311.62
598.192	296.62
598.401	286.62
598.61	293.62
598.819	307.62
599.028	305.62
599.237	278.62
599.446	285.62
599.655	289.62
599.864	283.62
600.073	281.62
600.282	296.62
600.491	275.62
600.7	299.62
600.909	303.62
601.118	292.62
601.327	295.62
601.536	311.62
601.745	300.62
601.953	294.62
602.162	282.62
602.371	282.62
602.58	298.62
602.789	291.62
602.997	282.62
603.206	308.62
603.415	287.62
603.623	273.62
603.832	275.62
604.041	304.62
604.249	299.62
604.458	273.62
604.666	280.62
604.875	268.62
605.084	275.62
605.292	272.62
605.501	277.62
605.709	280.62
605.918	271.62
606.126	289.62
606.334	283.62
606.543	267.62
606.751	303.62
606.96	269.62
607.168	285.62
607.376	271.62
607.585	291.62
607.793	279.62
608.001	278.62
608.21	279.62
608.418	269.62
608.626	265.62
608.834	262.62
609.043	277.62
609.251	270.62
609.459	293.62
609.667	282.62
609.875	282.62
610.083	277.62
610.291	264.62
610.499	282.62
610.707	279.62
610.916	288.62
611.124	276.62
611.332	269.62
611.54	262.62
611.748	254.62
611.955	273.62
612.163	275.62
612.371	287.62
612.579	285.62
612.787	278.62
612.995	283.62
613.203	281.62
613.411	274.62
613.618	267.62
613.826	270.62
614.034	277.62
614.242	278.62
614.449	258.62
614.657	265.62
614.865	265.62
615.072	288.62
615.28	280.62
615.488	278.62
615.695	282.62
615.903	286.62
616.111	271.62
616.318	285.62
616.526	276.62
616.733	301.62
616.941	279.62
617.148	282.62
617.356	257.62
617.563	255.62
617.771	271.62
617.978	287.62
618.185	273.62
618.393	281.62
618.6	265.62
618.807	259.62
619.015	260.62
619.222	273.62
619.429	265.62
619.637	285.62
619.844	278.62
620.051	283.62
620.258	259.62
620.466	277.62
620.673	258.62
620.88	277.62
621.087	243.62
621.294	262.62
621.501	246.62
621.708	251.62
621.915	264.62
622.122	249.62
622.329	264.62
622.536	269.62
622.743	255.62
622.95	261.62
623.157	254.62
623.364	247.62
623.571	265.62
623.778	250.62
623.985	248.62
624.192	239.62
624.399	257.62
624.606	258.62
624.812	239.62
625.019	246.62
625.226	241.62
625.433	245.62
625.639	246.62
625.846	238.62
626.053	241.62
626.259	229.62
626.466	232.62
626.673	237.62
626.879	230.62
627.086	240.62
627.293	237.62
627.499	239.62
627.706	235.62
627.912	248.62
628.119	250.62
628.325	239.62
628.532	247.62
628.738	241.62
628.945	235.62
629.151	232.62
629.357	246.62
629.564	244.62
629.77	233.62
629.976	221.62
630.183	240.62
630.389	223.62
630.595	223.62
630.802	237.62
631.008	224.62
631.214	225.62
631.42	233.62
631.627	219.62
631.833	234.62
632.039	222.62
632.245	216.62
632.451	227.62
632.657	219.62
632.863	212.62
633.069	212.62
633.275	211.62
633.481	212.62
633.688	207.62
633.893	229.62
634.099	209.62
634.305	219.62
634.511	212.62
634.717	207.62
634.923	206.62
635.129	202.62
635.335	205.62
635.541	197.62
635.747	209.62
635.952	226.62
636.158	202.62
636.364	223.62
636.57	203.62
636.775	213.62
636.981	209.62
637.187	221.62
637.392	185.62
637.598	221.62
637.804	215.62
638.009	222.62
638.215	222.62
638.421	208.62
638.626	209.62
638.832	209.62
639.037	201.62
639.243	207.62
639.448	211.62
639.654	209.62
639.859	184.62
640.065	211.62
640.27	211.62
640.475	206.62
640.681	214.62
640.886	209.62
641.091	192.62
641.297	197.62
641.502	191.62
641.707	194.62
641.913	203.62
642.118	190.62
642.323	195.62
642.528	195.62
642.733	178.62
642.939	211.62
643.144	184.62
643.349	194.62
643.554	199.62
643.759	205.62
643.964	205.62
644.169	197.62
644.374	190.62
644.579	202.62
644.784	188.62
644.989	194.62
645.194	197.62
645.399	195.62
645.604	192.62
645.809	194.62
646.014	193.62
646.219	201.62
646.423	196.62
646.628	204.62
646.833	194.62
647.038	211.62
647.243	210.62
647.447	206.62
647.652	203.62
647.857	204.62
648.062	195.62
648.266	207.62
648.471	219.62
648.676	212.62
648.88	199.62
649.085	223.62
649.289	217.62
649.494	225.62
649.698	273.62
649.903	235.62
650.107	209.62
650.312	207.62
650.516	188.62
650.721	200.62
650.925	193.62
651.13	177.62
651.334	209.62
651.539	188.62
651.743	190.62
651.947	202.62
652.152	187.62
652.356	170.62
652.56	185.62
652.764	173.62
652.969	187.62
653.173	191.62
653.377	170.62
653.581	179.62
653.785	188.62
653.99	164.62
654.194	173.62
654.398	163.62
654.602	205.62
654.806	199.62
655.01	225.62
655.214	185.62
655.418	183.62
655.622	189.62
655.826	186.62
656.03	183.62
656.234	189.62
656.438	202.62
656.642	202.62
656.846	189.62
657.049	166.62
657.253	161.62
657.457	171.62
657.661	151.62
657.865	163.62
658.068	141.62
658.272	137.62
658.476	137.62
658.68	141.62
658.883	134.62
659.087	139.62
659.291	130.62
659.494	130.62
659.698	119.62
659.901	120.62
660.105	122.62
660.309	110.62
660.512	107.62
660.716	126.62
660.919	114.62
661.123	107.62
661.326	102.62
661.53	103.62
661.733	113.62
661.936	106.62
662.14	105.62
662.343	100.62
662.546	96.62
662.75	108.62
662.953	84.62
663.156	91.62
663.36	95.62
663.563	95.62
663.766	80.62
663.969	100.62
664.173	72.62
664.376	87.62
664.579	84.62
664.782	82.62
664.985	81.62
665.188	87.62
665.391	87.62
665.594	81.62
665.797	87.62
666	101.62
666.203	97.62
666.406	87.62
666.609	86.62
666.812	87.62
667.015	90.62
667.218	90.62
667.421	89.62
667.624	88.62
667.827	90.62
668.03	97.62
668.232	82.62
668.435	95.62
668.638	83.62
668.841	89.62
669.043	82.62
669.246	86.62
669.449	78.62
669.651	82.62
669.854	84.62
670.057	79.62
670.259	81.62
670.462	95.62
670.665	72.62
670.867	97.62
671.07	85.62
671.272	81.62
671.475	85.62
671.677	82.62
671.88	90.62
672.082	93.62
672.284	87.62
672.487	69.62
672.689	68.62
672.892	95.62
