Data from 1600_4_HRD10591_00008.txt Node
Date: Mon Jan 19 13:56:14 EST 2026
User: Yrep
Spectrometer: HR+D1059
Trigger mode: 1
Integration Time (sec): 1.000000E-1
Scans to average: 1
Electric dark correction enabled: true
Nonlinearity correction enabled: false
Boxcar width: 0
XAxis mode: Wavelengths
Number of Pixels in Spectrum: 2048
>>>>>Begin Spectral Data<<<<<
223.165	-13.19
223.4	-13.19
223.635	-13.19
223.869	-18.19
224.104	-28.19
224.338	-9.19
224.573	-17.19
224.808	3.81
225.042	-11.19
225.277	6.81
225.511	-18.19
225.746	0.81
225.98	4.81
226.215	0.81
226.449	13.81
226.683	18.81
226.918	28.81
227.152	36.81
227.387	40.81
227.621	51.81
227.856	38.81
228.09	51.81
228.324	51.81
228.559	71.81
228.793	48.81
229.027	67.81
229.262	68.81
229.496	75.81
229.73	74.81
229.964	78.81
230.199	62.81
230.433	77.81
230.667	80.81
230.901	83.81
231.136	85.81
231.37	92.81
231.604	92.81
231.838	87.81
232.072	86.81
232.306	85.81
232.541	91.81
232.775	73.81
233.009	71.81
233.243	79.81
233.477	87.81
233.711	66.81
233.945	80.81
234.179	90.81
234.413	85.81
234.647	69.81
234.881	87.81
235.115	94.81
235.349	86.81
235.583	74.81
235.817	70.81
236.051	71.81
236.285	82.81
236.519	80.81
236.753	70.81
236.987	60.81
237.221	63.81
237.455	81.81
237.689	82.81
237.922	67.81
238.156	67.81
238.39	76.81
238.624	72.81
238.858	67.81
239.091	68.81
239.325	79.81
239.559	68.81
239.793	66.81
240.027	80.81
240.26	79.81
240.494	82.81
240.728	82.81
240.961	71.81
241.195	72.81
241.429	63.81
241.662	91.81
241.896	74.81
242.13	80.81
242.363	83.81
242.597	66.81
242.83	82.81
243.064	76.81
243.298	88.81
243.531	79.81
243.765	76.81
243.998	86.81
244.232	79.81
244.465	80.81
244.699	91.81
244.932	63.81
245.166	70.81
245.399	91.81
245.633	83.81
245.866	64.81
246.099	68.81
246.333	78.81
246.566	79.81
246.8	89.81
247.033	90.81
247.266	90.81
247.5	75.81
247.733	76.81
247.966	89.81
248.2	85.81
248.433	80.81
248.666	79.81
248.899	75.81
249.133	66.81
249.366	77.81
249.599	83.81
249.832	87.81
250.066	74.81
250.299	76.81
250.532	76.81
250.765	81.81
250.998	91.81
251.231	90.81
251.465	90.81
251.698	71.81
251.931	90.81
252.164	82.81
252.397	77.81
252.63	82.81
252.863	93.81
253.096	84.81
253.329	84.81
253.562	83.81
253.795	89.81
254.028	60.81
254.261	87.81
254.494	89.81
254.727	76.81
254.96	68.81
255.193	92.81
255.426	71.81
255.659	73.81
255.892	98.81
256.124	75.81
256.357	89.81
256.59	74.81
256.823	66.81
257.056	97.81
257.289	89.81
257.521	86.81
257.754	89.81
257.987	87.81
258.22	83.81
258.452	76.81
258.685	66.81
258.918	82.81
259.151	76.81
259.383	87.81
259.616	80.81
259.849	84.81
260.081	96.81
260.314	90.81
260.547	74.81
260.779	76.81
261.012	81.81
261.244	84.81
261.477	85.81
261.71	69.81
261.942	88.81
262.175	88.81
262.407	73.81
262.64	82.81
262.872	78.81
263.105	82.81
263.337	92.81
263.57	80.81
263.802	81.81
264.035	97.81
264.267	87.81
264.499	88.81
264.732	84.81
264.964	71.81
265.197	91.81
265.429	95.81
265.661	98.81
265.894	82.81
266.126	70.81
266.358	85.81
266.591	80.81
266.823	80.81
267.055	85.81
267.287	84.81
267.52	86.81
267.752	85.81
267.984	82.81
268.216	87.81
268.448	80.81
268.681	74.81
268.913	74.81
269.145	83.81
269.377	77.81
269.609	75.81
269.841	91.81
270.073	71.81
270.306	72.81
270.538	75.81
270.77	96.81
271.002	90.81
271.234	88.81
271.466	89.81
271.698	76.81
271.93	90.81
272.162	96.81
272.394	87.81
272.626	75.81
272.858	80.81
273.09	82.81
273.322	82.81
273.553	96.81
273.785	80.81
274.017	69.81
274.249	80.81
274.481	77.81
274.713	77.81
274.945	76.81
275.176	78.81
275.408	90.81
275.64	85.81
275.872	98.81
276.104	84.81
276.335	82.81
276.567	85.81
276.799	64.81
277.031	85.81
277.262	84.81
277.494	82.81
277.726	86.81
277.957	87.81
278.189	85.81
278.421	84.81
278.652	86.81
278.884	69.81
279.115	76.81
279.347	98.81
279.579	86.81
279.81	80.81
280.042	102.81
280.273	97.81
280.505	83.81
280.736	85.81
280.968	96.81
281.199	92.81
281.431	83.81
281.662	81.81
281.894	77.81
282.125	90.81
282.356	86.81
282.588	85.81
282.819	91.81
283.051	76.81
283.282	87.81
283.513	75.81
283.745	94.81
283.976	94.81
284.207	89.81
284.439	86.81
284.67	83.81
284.901	94.81
285.132	79.81
285.364	90.81
285.595	95.81
285.826	91.81
286.057	81.81
286.288	89.81
286.52	77.81
286.751	76.81
286.982	81.81
287.213	89.81
287.444	83.81
287.675	80.81
287.906	88.81
288.138	94.81
288.369	91.81
288.6	84.81
288.831	99.81
289.062	95.81
289.293	72.81
289.524	90.81
289.755	92.81
289.986	110.81
290.217	78.81
290.448	96.81
290.679	91.81
290.91	95.81
291.141	98.81
291.371	89.81
291.602	77.81
291.833	88.81
292.064	87.81
292.295	91.81
292.526	80.81
292.757	87.81
292.987	88.81
293.218	83.81
293.449	76.81
293.68	82.81
293.91	93.81
294.141	93.81
294.372	102.81
294.603	91.81
294.833	88.81
295.064	90.81
295.295	82.81
295.525	84.81
295.756	92.81
295.987	91.81
296.217	89.81
296.448	95.81
296.679	87.81
296.909	83.81
297.14	99.81
297.37	98.81
297.601	79.81
297.831	78.81
298.062	86.81
298.292	84.81
298.523	91.81
298.753	87.81
298.984	81.81
299.214	88.81
299.445	84.81
299.675	92.81
299.905	88.81
300.136	103.81
300.366	78.81
300.597	86.81
300.827	75.81
301.057	94.81
301.288	93.81
301.518	114.81
301.748	73.81
301.979	95.81
302.209	82.81
302.439	76.81
302.669	86.81
302.9	96.81
303.13	85.81
303.36	82.81
303.59	82.81
303.82	98.81
304.051	86.81
304.281	98.81
304.511	101.81
304.741	94.81
304.971	88.81
305.201	103.81
305.431	99.81
305.661	74.81
305.891	80.81
306.121	74.81
306.352	81.81
306.582	86.81
306.812	82.81
307.042	88.81
307.272	100.81
307.502	78.81
307.731	104.81
307.961	82.81
308.191	96.81
308.421	94.81
308.651	90.81
308.881	81.81
309.111	99.81
309.341	97.81
309.571	87.81
309.8	89.81
310.03	90.81
310.26	94.81
310.49	79.81
310.72	91.81
310.949	87.81
311.179	98.81
311.409	100.81
311.639	86.81
311.868	88.81
312.098	87.81
312.328	99.81
312.557	77.81
312.787	80.81
313.017	96.81
313.246	90.81
313.476	91.81
313.706	97.81
313.935	80.81
314.165	89.81
314.394	78.81
314.624	76.81
314.853	77.81
315.083	72.81
315.312	84.81
315.542	84.81
315.771	97.81
316.001	82.81
316.23	98.81
316.46	94.81
316.689	84.81
316.919	99.81
317.148	88.81
317.377	78.81
317.607	107.81
317.836	103.81
318.065	80.81
318.295	85.81
318.524	68.81
318.753	87.81
318.983	77.81
319.212	97.81
319.441	88.81
319.67	86.81
319.9	101.81
320.129	98.81
320.358	86.81
320.587	82.81
320.816	73.81
321.046	91.81
321.275	86.81
321.504	89.81
321.733	88.81
321.962	84.81
322.191	84.81
322.42	84.81
322.649	104.81
322.878	89.81
323.108	91.81
323.337	94.81
323.566	100.81
323.795	95.81
324.024	100.81
324.253	97.81
324.482	83.81
324.71	84.81
324.939	91.81
325.168	88.81
325.397	76.81
325.626	91.81
325.855	91.81
326.084	90.81
326.313	81.81
326.542	96.81
326.77	94.81
326.999	86.81
327.228	80.81
327.457	75.81
327.686	92.81
327.914	81.81
328.143	107.81
328.372	89.81
328.6	84.81
328.829	92.81
329.058	71.81
329.287	92.81
329.515	67.81
329.744	90.81
329.972	97.81
330.201	100.81
330.43	99.81
330.658	96.81
330.887	103.81
331.115	75.81
331.344	94.81
331.572	75.81
331.801	76.81
332.03	90.81
332.258	78.81
332.486	83.81
332.715	91.81
332.943	95.81
333.172	92.81
333.4	84.81
333.629	92.81
333.857	82.81
334.085	81.81
334.314	82.81
334.542	95.81
334.771	101.81
334.999	87.81
335.227	85.81
335.455	89.81
335.684	102.81
335.912	72.81
336.14	82.81
336.369	81.81
336.597	92.81
336.825	94.81
337.053	83.81
337.281	94.81
337.51	102.81
337.738	96.81
337.966	99.81
338.194	90.81
338.422	72.81
338.65	86.81
338.878	82.81
339.106	96.81
339.334	89.81
339.562	92.81
339.79	89.81
340.018	76.81
340.246	87.81
340.474	86.81
340.702	82.81
340.93	110.81
341.158	92.81
341.386	82.81
341.614	78.81
341.842	106.81
342.07	91.81
342.298	82.81
342.526	101.81
342.754	84.81
342.981	90.81
343.209	86.81
343.437	90.81
343.665	90.81
343.893	80.81
344.12	87.81
344.348	95.81
344.576	75.81
344.804	91.81
345.031	94.81
345.259	69.81
345.487	86.81
345.714	77.81
345.942	85.81
346.17	88.81
346.397	92.81
346.625	87.81
346.853	75.81
347.08	83.81
347.308	94.81
347.535	108.81
347.763	90.81
347.99	104.81
348.218	92.81
348.445	80.81
348.673	88.81
348.9	77.81
349.128	87.81
349.355	87.81
349.583	88.81
349.81	95.81
350.037	86.81
350.265	82.81
350.492	88.81
350.72	73.81
350.947	94.81
351.174	108.81
351.402	92.81
351.629	73.81
351.856	84.81
352.083	78.81
352.311	88.81
352.538	83.81
352.765	84.81
352.992	88.81
353.22	93.81
353.447	90.81
353.674	84.81
353.901	94.81
354.128	92.81
354.355	89.81
354.583	90.81
354.81	90.81
355.037	83.81
355.264	90.81
355.491	98.81
355.718	94.81
355.945	98.81
356.172	71.81
356.399	80.81
356.626	98.81
356.853	96.81
357.08	97.81
357.307	96.81
357.534	84.81
357.761	76.81
357.988	84.81
358.215	100.81
358.441	81.81
358.668	98.81
358.895	86.81
359.122	85.81
359.349	99.81
359.576	86.81
359.802	80.81
360.029	91.81
360.256	87.81
360.483	92.81
360.709	84.81
360.936	95.81
361.163	96.81
361.39	103.81
361.616	77.81
361.843	87.81
362.07	86.81
362.296	91.81
362.523	92.81
362.749	92.81
362.976	87.81
363.203	98.81
363.429	107.81
363.656	86.81
363.882	101.81
364.109	104.81
364.335	90.81
364.562	92.81
364.788	92.81
365.015	96.81
365.241	95.81
365.468	97.81
365.694	99.81
365.92	77.81
366.147	86.81
366.373	86.81
366.599	94.81
366.826	86.81
367.052	87.81
367.278	83.81
367.505	87.81
367.731	103.81
367.957	81.81
368.184	96.81
368.41	92.81
368.636	93.81
368.862	87.81
369.089	85.81
369.315	89.81
369.541	84.81
369.767	91.81
369.993	98.81
370.219	74.81
370.445	75.81
370.672	90.81
370.898	81.81
371.124	92.81
371.35	100.81
371.576	90.81
371.802	97.81
372.028	102.81
372.254	94.81
372.48	100.81
372.706	84.81
372.932	83.81
373.158	85.81
373.384	97.81
373.61	107.81
373.835	84.81
374.061	94.81
374.287	88.81
374.513	101.81
374.739	110.81
374.965	97.81
375.191	95.81
375.416	94.81
375.642	87.81
375.868	87.81
376.094	95.81
376.319	103.81
376.545	85.81
376.771	92.81
376.997	79.81
377.222	79.81
377.448	71.81
377.674	85.81
377.899	91.81
378.125	104.81
378.35	96.81
378.576	93.81
378.802	81.81
379.027	80.81
379.253	80.81
379.478	86.81
379.704	101.81
379.929	77.81
380.155	88.81
380.38	78.81
380.606	93.81
380.831	82.81
381.057	92.81
381.282	92.81
381.507	88.81
381.733	96.81
381.958	98.81
382.184	111.81
382.409	90.81
382.634	113.81
382.86	91.81
383.085	86.81
383.31	92.81
383.535	96.81
383.761	103.81
383.986	103.81
384.211	91.81
384.436	96.81
384.662	86.81
384.887	86.81
385.112	74.81
385.337	97.81
385.562	76.81
385.787	101.81
386.013	99.81
386.238	95.81
386.463	83.81
386.688	108.81
386.913	98.81
387.138	82.81
387.363	99.81
387.588	92.81
387.813	76.81
388.038	96.81
388.263	97.81
388.488	86.81
388.713	96.81
388.938	86.81
389.163	88.81
389.387	87.81
389.612	99.81
389.837	86.81
390.062	77.81
390.287	107.81
390.512	95.81
390.736	101.81
390.961	91.81
391.186	76.81
391.411	88.81
391.636	76.81
391.86	73.81
392.085	95.81
392.31	90.81
392.534	86.81
392.759	84.81
392.984	100.81
393.208	129.81
393.433	164.81
393.658	144.81
393.882	102.81
394.107	102.81
394.331	114.81
394.556	110.81
394.78	86.81
395.005	99.81
395.229	82.81
395.454	87.81
395.678	94.81
395.903	113.81
396.127	118.81
396.352	127.81
396.576	112.81
396.801	142.81
397.025	148.81
397.249	106.81
397.474	99.81
397.698	100.81
397.922	83.81
398.147	88.81
398.371	85.81
398.595	96.81
398.82	104.81
399.044	91.81
399.268	66.81
399.492	86.81
399.717	96.81
399.941	86.81
400.165	92.81
400.389	99.81
400.613	92.81
400.837	96.81
401.062	82.81
401.286	83.81
401.51	90.81
401.734	90.81
401.958	82.81
402.182	94.81
402.406	87.81
402.63	97.81
402.854	83.81
403.078	86.81
403.302	92.81
403.526	108.81
403.75	89.81
403.974	92.81
404.198	76.81
404.422	95.81
404.645	98.81
404.869	78.81
405.093	92.81
405.317	86.81
405.541	96.81
405.765	86.81
405.988	86.81
406.212	99.81
406.436	90.81
406.66	88.81
406.883	90.81
407.107	76.81
407.331	86.81
407.555	87.81
407.778	88.81
408.002	86.81
408.226	83.81
408.449	102.81
408.673	95.81
408.896	82.81
409.12	84.81
409.344	75.81
409.567	86.81
409.791	88.81
410.014	95.81
410.238	88.81
410.461	94.81
410.685	76.81
410.908	72.81
411.132	91.81
411.355	77.81
411.578	83.81
411.802	98.81
412.025	104.81
412.249	83.81
412.472	91.81
412.695	63.81
412.919	69.81
413.142	88.81
413.365	94.81
413.589	91.81
413.812	79.81
414.035	91.81
414.258	85.81
414.482	97.81
414.705	97.81
414.928	87.81
415.151	87.81
415.374	65.81
415.597	90.81
415.821	86.81
416.044	74.81
416.267	84.81
416.49	82.81
416.713	72.81
416.936	91.81
417.159	82.81
417.382	75.81
417.605	83.81
417.828	92.81
418.051	93.81
418.274	86.81
418.497	84.81
418.72	76.81
418.943	80.81
419.166	90.81
419.389	77.81
419.611	97.81
419.834	73.81
420.057	89.81
420.28	88.81
420.503	95.81
420.726	96.81
420.948	95.81
421.171	101.81
421.394	89.81
421.617	78.81
421.839	83.81
422.062	101.81
422.285	106.81
422.507	138.81
422.73	183.81
422.953	179.81
423.175	127.81
423.398	90.81
423.621	81.81
423.843	75.81
424.066	83.81
424.288	97.81
424.511	80.81
424.733	84.81
424.956	86.81
425.178	74.81
425.401	85.81
425.623	84.81
425.846	102.81
426.068	86.81
426.291	95.81
426.513	86.81
426.735	90.81
426.958	91.81
427.18	87.81
427.402	91.81
427.625	92.81
427.847	78.81
428.069	86.81
428.292	94.81
428.514	100.81
428.736	92.81
428.958	101.81
429.181	100.81
429.403	93.81
429.625	86.81
429.847	90.81
430.069	110.81
430.292	123.81
430.514	106.81
430.736	103.81
430.958	116.81
431.18	97.81
431.402	94.81
431.624	82.81
431.846	90.81
432.068	99.81
432.29	92.81
432.512	95.81
432.734	91.81
432.956	92.81
433.178	98.81
433.4	76.81
433.622	102.81
433.844	82.81
434.066	81.81
434.287	95.81
434.509	68.81
434.731	90.81
434.953	82.81
435.175	64.81
435.397	86.81
435.618	99.81
435.84	89.81
436.062	92.81
436.284	80.81
436.505	86.81
436.727	93.81
436.949	91.81
437.17	86.81
437.392	94.81
437.614	102.81
437.835	70.81
438.057	76.81
438.278	87.81
438.5	90.81
438.721	100.81
438.943	87.81
439.165	69.81
439.386	99.81
439.608	83.81
439.829	79.81
440.05	79.81
440.272	88.81
440.493	91.81
440.715	77.81
440.936	86.81
441.158	89.81
441.379	100.81
441.6	88.81
441.822	83.81
442.043	76.81
442.264	83.81
442.486	99.81
442.707	96.81
442.928	92.81
443.149	103.81
443.371	107.81
443.592	130.81
443.813	118.81
444.034	90.81
444.255	94.81
444.476	88.81
444.698	95.81
444.919	98.81
445.14	169.81
445.361	150.81
445.582	141.81
445.803	155.81
446.024	93.81
446.245	88.81
446.466	96.81
446.687	96.81
446.908	84.81
447.129	84.81
447.35	71.81
447.571	93.81
447.792	83.81
448.013	88.81
448.234	80.81
448.455	73.81
448.675	75.81
448.896	92.81
449.117	91.81
449.338	100.81
449.559	82.81
449.779	95.81
450	91.81
450.221	84.81
450.442	99.81
450.662	72.81
450.883	83.81
451.104	79.81
451.324	94.81
451.545	80.81
451.766	78.81
451.986	81.81
452.207	83.81
452.428	87.81
452.648	92.81
452.869	99.81
453.089	96.81
453.31	83.81
453.53	87.81
453.751	111.81
453.971	95.81
454.192	96.81
454.412	76.81
454.633	91.81
454.853	80.81
455.073	102.81
455.294	103.81
455.514	90.81
455.734	79.81
455.955	94.81
456.175	93.81
456.395	68.81
456.616	81.81
456.836	77.81
457.056	85.81
457.276	90.81
457.497	95.81
457.717	74.81
457.937	84.81
458.157	94.81
458.377	95.81
458.598	97.81
458.818	88.81
459.038	86.81
459.258	92.81
459.478	82.81
459.698	86.81
459.918	70.81
460.138	81.81
460.358	82.81
460.578	90.81
460.798	98.81
461.018	87.81
461.238	96.81
461.458	78.81
461.678	87.81
461.898	68.81
462.118	82.81
462.338	79.81
462.558	92.81
462.777	80.81
462.997	84.81
463.217	84.81
463.437	81.81
463.657	73.81
463.876	78.81
464.096	76.81
464.316	92.81
464.536	91.81
464.755	96.81
464.975	79.81
465.195	68.81
465.414	88.81
465.634	85.81
465.854	94.81
466.073	75.81
466.293	71.81
466.512	91.81
466.732	77.81
466.951	87.81
467.171	82.81
467.391	85.81
467.61	83.81
467.829	81.81
468.049	84.81
468.268	85.81
468.488	80.81
468.707	92.81
468.927	91.81
469.146	92.81
469.365	81.81
469.585	87.81
469.804	87.81
470.023	82.81
470.243	86.81
470.462	86.81
470.681	59.81
470.901	80.81
471.12	84.81
471.339	95.81
471.558	74.81
471.777	88.81
471.997	80.81
472.216	84.81
472.435	100.81
472.654	100.81
472.873	97.81
473.092	92.81
473.311	89.81
473.53	69.81
473.749	82.81
473.968	90.81
474.187	79.81
474.406	88.81
474.625	81.81
474.844	88.81
475.063	83.81
475.282	101.81
475.501	89.81
475.72	79.81
475.939	79.81
476.158	88.81
476.377	79.81
476.596	82.81
476.814	84.81
477.033	100.81
477.252	93.81
477.471	95.81
477.69	91.81
477.908	95.81
478.127	96.81
478.346	81.81
478.564	94.81
478.783	84.81
479.002	88.81
479.22	98.81
479.439	93.81
479.658	97.81
479.876	86.81
480.095	85.81
480.313	81.81
480.532	89.81
480.751	89.81
480.969	88.81
481.188	74.81
481.406	95.81
481.624	88.81
481.843	89.81
482.061	94.81
482.28	89.81
482.498	96.81
482.717	92.81
482.935	77.81
483.153	102.81
483.372	97.81
483.59	94.81
483.808	83.81
484.027	98.81
484.245	96.81
484.463	104.81
484.681	81.81
484.9	81.81
485.118	92.81
485.336	98.81
485.554	104.81
485.772	89.81
485.99	95.81
486.209	94.81
486.427	81.81
486.645	91.81
486.863	83.81
487.081	84.81
487.299	87.81
487.517	86.81
487.735	79.81
487.953	111.81
488.171	105.81
488.389	101.81
488.607	82.81
488.825	109.81
489.043	79.81
489.261	86.81
489.479	94.81
489.696	82.81
489.914	84.81
490.132	86.81
490.35	94.81
490.568	77.81
490.786	90.81
491.003	90.81
491.221	88.81
491.439	75.81
491.657	90.81
491.874	97.81
492.092	92.81
492.31	88.81
492.527	96.81
492.745	62.81
492.963	79.81
493.18	97.81
493.398	90.81
493.615	89.81
493.833	83.81
494.05	84.81
494.268	76.81
494.485	87.81
494.703	89.81
494.92	89.81
495.138	94.81
495.355	98.81
495.573	87.81
495.79	89.81
496.008	91.81
496.225	96.81
496.442	80.81
496.66	90.81
496.877	92.81
497.094	92.81
497.312	91.81
497.529	85.81
497.746	88.81
497.963	94.81
498.181	87.81
498.398	101.81
498.615	84.81
498.832	80.81
499.049	96.81
499.267	90.81
499.484	87.81
499.701	103.81
499.918	99.81
500.135	87.81
500.352	94.81
500.569	74.81
500.786	99.81
501.003	89.81
501.22	89.81
501.437	96.81
501.654	98.81
501.871	81.81
502.088	85.81
502.305	94.81
502.522	80.81
502.739	92.81
502.956	79.81
503.172	88.81
503.389	87.81
503.606	98.81
503.823	103.81
504.04	102.81
504.256	90.81
504.473	104.81
504.69	94.81
504.907	94.81
505.123	83.81
505.34	85.81
505.557	81.81
505.773	88.81
505.99	94.81
506.207	88.81
506.423	104.81
506.64	90.81
506.856	94.81
507.073	91.81
507.289	87.81
507.506	95.81
507.722	84.81
507.939	90.81
508.155	100.81
508.372	90.81
508.588	87.81
508.805	82.81
509.021	90.81
509.238	96.81
509.454	101.81
509.67	76.81
509.887	98.81
510.103	84.81
510.319	80.81
510.536	89.81
510.752	93.81
510.968	87.81
511.184	87.81
511.401	95.81
511.617	89.81
511.833	92.81
512.049	90.81
512.265	92.81
512.481	79.81
512.698	99.81
512.914	95.81
513.13	85.81
513.346	88.81
513.562	85.81
513.778	84.81
513.994	80.81
514.21	98.81
514.426	94.81
514.642	86.81
514.858	95.81
515.074	94.81
515.29	101.81
515.506	86.81
515.721	87.81
515.937	81.81
516.153	81.81
516.369	95.81
516.585	108.81
516.801	89.81
517.016	98.81
517.232	98.81
517.448	90.81
517.664	94.81
517.879	119.81
518.095	96.81
518.311	102.81
518.527	117.81
518.742	110.81
518.958	104.81
519.173	116.81
519.389	89.81
519.605	92.81
519.82	86.81
520.036	91.81
520.251	96.81
520.467	99.81
520.682	89.81
520.898	87.81
521.113	82.81
521.329	94.81
521.544	84.81
521.76	82.81
521.975	88.81
522.19	88.81
522.406	82.81
522.621	82.81
522.836	79.81
523.052	102.81
523.267	78.81
523.482	89.81
523.698	87.81
523.913	96.81
524.128	89.81
524.343	87.81
524.559	89.81
524.774	98.81
524.989	97.81
525.204	91.81
525.419	90.81
525.634	97.81
525.849	84.81
526.064	103.81
526.28	118.81
526.495	141.81
526.71	139.81
526.925	117.81
527.14	132.81
527.355	147.81
527.57	100.81
527.785	80.81
527.999	105.81
528.214	88.81
528.429	86.81
528.644	92.81
528.859	81.81
529.074	78.81
529.289	92.81
529.503	100.81
529.718	97.81
529.933	101.81
530.148	93.81
530.363	83.81
530.577	92.81
530.792	92.81
531.007	89.81
531.221	91.81
531.436	84.81
531.651	102.81
531.865	97.81
532.08	88.81
532.295	92.81
532.509	94.81
532.724	93.81
532.938	91.81
533.153	88.81
533.367	87.81
533.582	104.81
533.796	105.81
534.011	105.81
534.225	93.81
534.44	106.81
534.654	108.81
534.868	98.81
535.083	104.81
535.297	114.81
535.511	96.81
535.726	76.81
535.94	94.81
536.154	95.81
536.369	90.81
536.583	83.81
536.797	85.81
537.011	101.81
537.225	94.81
537.44	82.81
537.654	91.81
537.868	81.81
538.082	90.81
538.296	87.81
538.51	94.81
538.724	88.81
538.938	91.81
539.153	97.81
539.367	96.81
539.581	82.81
539.795	91.81
540.009	98.81
540.222	104.81
540.436	88.81
540.65	88.81
540.864	89.81
541.078	96.81
541.292	96.81
541.506	100.81
541.72	86.81
541.934	83.81
542.147	92.81
542.361	87.81
542.575	90.81
542.789	103.81
543.002	83.81
543.216	96.81
543.43	92.81
543.644	85.81
543.857	97.81
544.071	75.81
544.285	90.81
544.498	100.81
544.712	95.81
544.925	77.81
545.139	100.81
545.352	96.81
545.566	97.81
545.779	97.81
545.993	104.81
546.206	101.81
546.42	76.81
546.633	94.81
546.847	95.81
547.06	95.81
547.274	107.81
547.487	106.81
547.7	108.81
547.914	112.81
548.127	110.81
548.34	123.81
548.554	120.81
548.767	118.81
548.98	112.81
549.193	132.81
549.407	120.81
549.62	114.81
549.833	122.81
550.046	126.81
550.259	124.81
550.473	135.81
550.686	130.81
550.899	139.81
551.112	152.81
551.325	180.81
551.538	179.81
551.751	160.81
551.964	156.81
552.177	177.81
552.39	158.81
552.603	154.81
552.816	165.81
553.029	163.81
553.242	156.81
553.455	156.81
553.667	169.81
553.88	168.81
554.093	178.81
554.306	192.81
554.519	175.81
554.732	168.81
554.944	190.81
555.157	170.81
555.37	170.81
555.583	158.81
555.795	166.81
556.008	149.81
556.221	145.81
556.433	155.81
556.646	145.81
556.859	138.81
557.071	134.81
557.284	132.81
557.496	129.81
557.709	121.81
557.921	128.81
558.134	107.81
558.346	121.81
558.559	119.81
558.771	127.81
558.984	169.81
559.196	186.81
559.409	147.81
559.621	151.81
559.833	137.81
560.046	149.81
560.258	121.81
560.47	126.81
560.683	96.81
560.895	98.81
561.107	108.81
561.32	123.81
561.532	103.81
561.744	104.81
561.956	99.81
562.168	95.81
562.381	99.81
562.593	101.81
562.805	102.81
563.017	92.81
563.229	106.81
563.441	94.81
563.653	94.81
563.865	94.81
564.077	105.81
564.289	105.81
564.501	100.81
564.713	96.81
564.925	92.81
565.137	114.81
565.349	115.81
565.561	80.81
565.773	95.81
565.985	96.81
566.197	92.81
566.408	95.81
566.62	104.81
566.832	103.81
567.044	92.81
567.255	98.81
567.467	96.81
567.679	105.81
567.891	92.81
568.102	86.81
568.314	97.81
568.526	112.81
568.737	101.81
568.949	92.81
569.161	86.81
569.372	97.81
569.584	92.81
569.795	99.81
570.007	96.81
570.218	92.81
570.43	99.81
570.641	103.81
570.853	102.81
571.064	100.81
571.276	96.81
571.487	88.81
571.698	99.81
571.91	98.81
572.121	84.81
572.333	103.81
572.544	81.81
572.755	100.81
572.966	98.81
573.178	90.81
573.389	94.81
573.6	95.81
573.811	95.81
574.023	95.81
574.234	98.81
574.445	76.81
574.656	80.81
574.867	78.81
575.078	91.81
575.289	85.81
575.501	79.81
575.712	81.81
575.923	85.81
576.134	111.81
576.345	94.81
576.556	88.81
576.767	104.81
576.978	93.81
577.188	85.81
577.399	97.81
577.61	107.81
577.821	86.81
578.032	96.81
578.243	103.81
578.454	87.81
578.665	94.81
578.875	104.81
579.086	98.81
579.297	74.81
579.508	106.81
579.718	88.81
579.929	88.81
580.14	79.81
580.35	84.81
580.561	102.81
580.772	88.81
580.982	88.81
581.193	88.81
581.403	95.81
581.614	108.81
581.825	105.81
582.035	86.81
582.246	88.81
582.456	101.81
582.667	88.81
582.877	101.81
583.087	70.81
583.298	98.81
583.508	95.81
583.719	93.81
583.929	86.81
584.139	92.81
584.35	106.81
584.56	96.81
584.77	101.81
584.981	80.81
585.191	100.81
585.401	83.81
585.611	106.81
585.821	113.81
586.032	130.81
586.242	84.81
586.452	98.81
586.662	82.81
586.872	95.81
587.082	102.81
587.292	96.81
587.502	92.81
587.713	101.81
587.923	102.81
588.133	110.81
588.343	110.81
588.553	107.81
588.762	138.81
588.972	208.81
589.182	420.81
589.392	328.81
589.602	248.81
589.812	359.81
590.022	228.81
590.232	128.81
590.441	109.81
590.651	106.81
590.861	112.81
591.071	95.81
591.281	108.81
591.49	107.81
591.7	111.81
591.91	98.81
592.119	98.81
592.329	102.81
592.539	96.81
592.748	94.81
592.958	102.81
593.167	95.81
593.377	95.81
593.587	87.81
593.796	111.81
594.006	100.81
594.215	98.81
594.424	111.81
594.634	107.81
594.843	103.81
595.053	97.81
595.262	116.81
595.472	112.81
595.681	110.81
595.89	115.81
596.1	116.81
596.309	117.81
596.518	97.81
596.727	126.81
596.937	126.81
597.146	127.81
597.355	121.81
597.564	132.81
597.774	127.81
597.983	139.81
598.192	122.81
598.401	111.81
598.61	117.81
598.819	106.81
599.028	116.81
599.237	127.81
599.446	130.81
599.655	132.81
599.864	125.81
600.073	137.81
600.282	130.81
600.491	140.81
600.7	135.81
600.909	135.81
601.118	131.81
601.327	126.81
601.536	123.81
601.745	118.81
601.953	136.81
602.162	139.81
602.371	134.81
602.58	138.81
602.789	123.81
602.997	119.81
603.206	129.81
603.415	124.81
603.623	124.81
603.832	131.81
604.041	126.81
604.249	132.81
604.458	114.81
604.666	123.81
604.875	134.81
605.084	131.81
605.292	131.81
605.501	124.81
605.709	131.81
605.918	139.81
606.126	151.81
606.334	126.81
606.543	144.81
606.751	139.81
606.96	140.81
607.168	128.81
607.376	139.81
607.585	118.81
607.793	130.81
608.001	134.81
608.21	125.81
608.418	132.81
608.626	134.81
608.834	139.81
609.043	134.81
609.251	140.81
609.459	133.81
609.667	126.81
609.875	133.81
610.083	138.81
610.291	153.81
610.499	168.81
610.707	151.81
610.916	126.81
611.124	122.81
611.332	137.81
611.54	150.81
611.748	140.81
611.955	130.81
612.163	158.81
612.371	196.81
612.579	170.81
612.787	150.81
612.995	151.81
613.203	159.81
613.411	138.81
613.618	136.81
613.826	144.81
614.034	143.81
614.242	147.81
614.449	146.81
614.657	135.81
614.865	150.81
615.072	155.81
615.28	147.81
615.488	143.81
615.695	143.81
615.903	141.81
616.111	150.81
616.318	196.81
616.526	234.81
616.733	166.81
616.941	161.81
617.148	188.81
617.356	155.81
617.563	150.81
617.771	166.81
617.978	139.81
618.185	154.81
618.393	138.81
618.6	152.81
618.807	151.81
619.015	140.81
619.222	157.81
619.429	153.81
619.637	150.81
619.844	147.81
620.051	154.81
620.258	151.81
620.466	159.81
620.673	145.81
620.88	150.81
621.087	151.81
621.294	152.81
621.501	162.81
621.708	158.81
621.915	148.81
622.122	137.81
622.329	146.81
622.536	162.81
622.743	161.81
622.95	148.81
623.157	148.81
623.364	159.81
623.571	175.81
623.778	164.81
623.985	139.81
624.192	168.81
624.399	171.81
624.606	141.81
624.812	167.81
625.019	169.81
625.226	158.81
625.433	170.81
625.639	140.81
625.846	147.81
626.053	156.81
626.259	132.81
626.466	150.81
626.673	140.81
626.879	138.81
627.086	144.81
627.293	134.81
627.499	135.81
627.706	130.81
627.912	130.81
628.119	111.81
628.325	128.81
628.532	123.81
628.738	116.81
628.945	121.81
629.151	97.81
629.357	96.81
629.564	104.81
629.77	94.81
629.976	92.81
630.183	90.81
630.389	105.81
630.595	98.81
630.802	101.81
631.008	98.81
631.214	96.81
631.42	83.81
631.627	105.81
631.833	96.81
632.039	96.81
632.245	95.81
632.451	97.81
632.657	95.81
632.863	102.81
633.069	93.81
633.275	95.81
633.481	101.81
633.688	98.81
633.893	103.81
634.099	112.81
634.305	97.81
634.511	105.81
634.717	109.81
634.923	94.81
635.129	98.81
635.335	97.81
635.541	82.81
635.747	102.81
635.952	90.81
636.158	93.81
636.364	92.81
636.57	94.81
636.775	92.81
636.981	80.81
637.187	99.81
637.392	87.81
637.598	87.81
637.804	91.81
638.009	83.81
638.215	94.81
638.421	99.81
638.626	88.81
638.832	90.81
639.037	96.81
639.243	93.81
639.448	87.81
639.654	98.81
639.859	105.81
640.065	92.81
640.27	99.81
640.475	81.81
640.681	89.81
640.886	98.81
641.091	90.81
641.297	103.81
641.502	80.81
641.707	90.81
641.913	95.81
642.118	84.81
642.323	85.81
642.528	99.81
642.733	98.81
642.939	88.81
643.144	88.81
643.349	100.81
643.554	104.81
643.759	92.81
643.964	100.81
644.169	124.81
644.374	92.81
644.579	95.81
644.784	87.81
644.989	106.81
645.194	106.81
645.399	107.81
645.604	114.81
645.809	107.81
646.014	92.81
646.219	96.81
646.423	115.81
646.628	102.81
646.833	91.81
647.038	114.81
647.243	98.81
647.447	107.81
647.652	105.81
647.857	95.81
648.062	96.81
648.266	99.81
648.471	87.81
648.676	111.81
648.88	92.81
649.085	99.81
649.289	75.81
649.494	95.81
649.698	101.81
649.903	103.81
650.107	97.81
650.312	95.81
650.516	83.81
650.721	78.81
650.925	75.81
651.13	87.81
651.334	82.81
651.539	106.81
651.743	87.81
651.947	102.81
652.152	86.81
652.356	98.81
652.56	107.81
652.764	96.81
652.969	89.81
653.173	93.81
653.377	91.81
653.581	76.81
653.785	88.81
653.99	84.81
654.194	91.81
654.398	94.81
654.602	90.81
654.806	80.81
655.01	94.81
655.214	81.81
655.418	74.81
655.622	95.81
655.826	79.81
656.03	97.81
656.234	88.81
656.438	76.81
656.642	76.81
656.846	75.81
657.049	90.81
657.253	80.81
657.457	90.81
657.661	86.81
657.865	87.81
658.068	98.81
658.272	84.81
658.476	89.81
658.68	93.81
658.883	88.81
659.087	78.81
659.291	78.81
659.494	87.81
659.698	93.81
659.901	88.81
660.105	80.81
660.309	91.81
660.512	82.81
660.716	71.81
660.919	87.81
661.123	84.81
661.326	99.81
661.53	93.81
661.733	80.81
661.936	104.81
662.14	84.81
662.343	96.81
662.546	86.81
662.75	96.81
662.953	85.81
663.156	88.81
663.36	90.81
663.563	86.81
663.766	83.81
663.969	76.81
664.173	79.81
664.376	80.81
664.579	78.81
664.782	82.81
664.985	72.81
665.188	85.81
665.391	78.81
665.594	76.81
665.797	80.81
666	86.81
666.203	89.81
666.406	83.81
666.609	90.81
666.812	85.81
667.015	79.81
667.218	90.81
667.421	74.81
667.624	92.81
667.827	95.81
668.03	90.81
668.232	89.81
668.435	83.81
668.638	71.81
668.841	89.81
669.043	87.81
669.246	74.81
669.449	91.81
669.651	82.81
669.854	80.81
670.057	85.81
670.259	68.81
670.462	86.81
670.665	93.81
670.867	88.81
671.07	77.81
671.272	79.81
671.475	85.81
671.677	85.81
671.88	77.81
672.082	80.81
672.284	80.81
672.487	97.81
672.689	84.81
672.892	94.81
