Data from 1600_4_HRD10591_00025.txt Node
Date: Mon Jan 19 13:56:23 EST 2026
User: Yrep
Spectrometer: HR+D1059
Trigger mode: 1
Integration Time (sec): 1.000000E-1
Scans to average: 1
Electric dark correction enabled: true
Nonlinearity correction enabled: false
Boxcar width: 0
XAxis mode: Wavelengths
Number of Pixels in Spectrum: 2048
>>>>>Begin Spectral Data<<<<<
223.165	-19.12
223.4	-19.12
223.635	-19.12
223.869	-26.12
224.104	-5.12
224.338	-20.12
224.573	-10.12
224.808	-7.12
225.042	-22.12
225.277	-15.12
225.511	0.88
225.746	7.88
225.98	9.88
226.215	-1.12
226.449	16.88
226.683	31.88
226.918	12.88
227.152	45.88
227.387	47.88
227.621	41.88
227.856	43.88
228.09	45.88
228.324	39.88
228.559	64.88
228.793	51.88
229.027	59.88
229.262	57.88
229.496	81.88
229.73	51.88
229.964	50.88
230.199	63.88
230.433	65.88
230.667	73.88
230.901	71.88
231.136	71.88
231.37	78.88
231.604	75.88
231.838	81.88
232.072	82.88
232.306	79.88
232.541	75.88
232.775	93.88
233.009	81.88
233.243	81.88
233.477	80.88
233.711	78.88
233.945	82.88
234.179	98.88
234.413	79.88
234.647	89.88
234.881	75.88
235.115	73.88
235.349	71.88
235.583	68.88
235.817	71.88
236.051	69.88
236.285	85.88
236.519	67.88
236.753	81.88
236.987	66.88
237.221	70.88
237.455	75.88
237.689	71.88
237.922	59.88
238.156	85.88
238.39	76.88
238.624	81.88
238.858	88.88
239.091	76.88
239.325	84.88
239.559	77.88
239.793	69.88
240.027	62.88
240.26	65.88
240.494	65.88
240.728	80.88
240.961	73.88
241.195	72.88
241.429	65.88
241.662	84.88
241.896	80.88
242.13	69.88
242.363	79.88
242.597	75.88
242.83	74.88
243.064	75.88
243.298	73.88
243.531	96.88
243.765	74.88
243.998	63.88
244.232	81.88
244.465	83.88
244.699	77.88
244.932	94.88
245.166	70.88
245.399	83.88
245.633	85.88
245.866	83.88
246.099	84.88
246.333	81.88
246.566	64.88
246.8	83.88
247.033	63.88
247.266	59.88
247.5	75.88
247.733	93.88
247.966	83.88
248.2	71.88
248.433	84.88
248.666	83.88
248.899	89.88
249.133	89.88
249.366	93.88
249.599	78.88
249.832	91.88
250.066	82.88
250.299	63.88
250.532	81.88
250.765	92.88
250.998	79.88
251.231	81.88
251.465	83.88
251.698	88.88
251.931	85.88
252.164	76.88
252.397	67.88
252.63	70.88
252.863	84.88
253.096	77.88
253.329	72.88
253.562	85.88
253.795	75.88
254.028	86.88
254.261	73.88
254.494	87.88
254.727	66.88
254.96	84.88
255.193	75.88
255.426	74.88
255.659	88.88
255.892	72.88
256.124	78.88
256.357	83.88
256.59	74.88
256.823	77.88
257.056	73.88
257.289	78.88
257.521	70.88
257.754	81.88
257.987	86.88
258.22	79.88
258.452	92.88
258.685	80.88
258.918	84.88
259.151	73.88
259.383	72.88
259.616	73.88
259.849	68.88
260.081	86.88
260.314	84.88
260.547	78.88
260.779	72.88
261.012	73.88
261.244	80.88
261.477	91.88
261.71	71.88
261.942	83.88
262.175	79.88
262.407	69.88
262.64	75.88
262.872	81.88
263.105	83.88
263.337	75.88
263.57	87.88
263.802	81.88
264.035	73.88
264.267	76.88
264.499	71.88
264.732	77.88
264.964	75.88
265.197	74.88
265.429	86.88
265.661	76.88
265.894	79.88
266.126	91.88
266.358	81.88
266.591	79.88
266.823	72.88
267.055	77.88
267.287	85.88
267.52	82.88
267.752	71.88
267.984	81.88
268.216	80.88
268.448	78.88
268.681	89.88
268.913	87.88
269.145	81.88
269.377	71.88
269.609	88.88
269.841	85.88
270.073	87.88
270.306	91.88
270.538	71.88
270.77	80.88
271.002	81.88
271.234	91.88
271.466	77.88
271.698	65.88
271.93	57.88
272.162	71.88
272.394	76.88
272.626	92.88
272.858	89.88
273.09	89.88
273.322	94.88
273.553	85.88
273.785	85.88
274.017	72.88
274.249	83.88
274.481	80.88
274.713	79.88
274.945	77.88
275.176	95.88
275.408	88.88
275.64	73.88
275.872	80.88
276.104	79.88
276.335	79.88
276.567	96.88
276.799	69.88
277.031	97.88
277.262	91.88
277.494	88.88
277.726	83.88
277.957	83.88
278.189	79.88
278.421	89.88
278.652	86.88
278.884	84.88
279.115	89.88
279.347	80.88
279.579	65.88
279.81	75.88
280.042	75.88
280.273	84.88
280.505	93.88
280.736	73.88
280.968	86.88
281.199	78.88
281.431	79.88
281.662	94.88
281.894	83.88
282.125	91.88
282.356	77.88
282.588	84.88
282.819	77.88
283.051	86.88
283.282	89.88
283.513	92.88
283.745	72.88
283.976	91.88
284.207	79.88
284.439	73.88
284.67	83.88
284.901	82.88
285.132	85.88
285.364	81.88
285.595	87.88
285.826	86.88
286.057	84.88
286.288	85.88
286.52	76.88
286.751	75.88
286.982	83.88
287.213	86.88
287.444	80.88
287.675	88.88
287.906	86.88
288.138	80.88
288.369	93.88
288.6	87.88
288.831	75.88
289.062	94.88
289.293	79.88
289.524	77.88
289.755	87.88
289.986	86.88
290.217	82.88
290.448	89.88
290.679	70.88
290.91	73.88
291.141	83.88
291.371	70.88
291.602	85.88
291.833	82.88
292.064	84.88
292.295	84.88
292.526	90.88
292.757	80.88
292.987	93.88
293.218	79.88
293.449	77.88
293.68	79.88
293.91	85.88
294.141	80.88
294.372	90.88
294.603	80.88
294.833	80.88
295.064	91.88
295.295	88.88
295.525	87.88
295.756	79.88
295.987	79.88
296.217	83.88
296.448	95.88
296.679	71.88
296.909	95.88
297.14	87.88
297.37	96.88
297.601	89.88
297.831	88.88
298.062	80.88
298.292	81.88
298.523	86.88
298.753	90.88
298.984	79.88
299.214	82.88
299.445	71.88
299.675	85.88
299.905	83.88
300.136	74.88
300.366	83.88
300.597	96.88
300.827	83.88
301.057	75.88
301.288	82.88
301.518	78.88
301.748	83.88
301.979	105.88
302.209	90.88
302.439	80.88
302.669	81.88
302.9	89.88
303.13	71.88
303.36	85.88
303.59	76.88
303.82	80.88
304.051	78.88
304.281	77.88
304.511	91.88
304.741	75.88
304.971	80.88
305.201	78.88
305.431	81.88
305.661	89.88
305.891	82.88
306.121	88.88
306.352	79.88
306.582	74.88
306.812	74.88
307.042	98.88
307.272	82.88
307.502	101.88
307.731	95.88
307.961	75.88
308.191	72.88
308.421	92.88
308.651	98.88
308.881	93.88
309.111	91.88
309.341	94.88
309.571	105.88
309.8	83.88
310.03	81.88
310.26	91.88
310.49	76.88
310.72	79.88
310.949	71.88
311.179	91.88
311.409	84.88
311.639	83.88
311.868	74.88
312.098	80.88
312.328	77.88
312.557	75.88
312.787	70.88
313.017	90.88
313.246	87.88
313.476	83.88
313.706	74.88
313.935	72.88
314.165	87.88
314.394	89.88
314.624	73.88
314.853	92.88
315.083	97.88
315.312	93.88
315.542	86.88
315.771	87.88
316.001	85.88
316.23	93.88
316.46	72.88
316.689	81.88
316.919	81.88
317.148	96.88
317.377	81.88
317.607	91.88
317.836	90.88
318.065	83.88
318.295	85.88
318.524	83.88
318.753	73.88
318.983	71.88
319.212	94.88
319.441	80.88
319.67	83.88
319.9	80.88
320.129	81.88
320.358	71.88
320.587	86.88
320.816	69.88
321.046	69.88
321.275	92.88
321.504	83.88
321.733	90.88
321.962	87.88
322.191	89.88
322.42	80.88
322.649	94.88
322.878	89.88
323.108	91.88
323.337	88.88
323.566	99.88
323.795	70.88
324.024	72.88
324.253	74.88
324.482	87.88
324.71	81.88
324.939	90.88
325.168	95.88
325.397	89.88
325.626	91.88
325.855	71.88
326.084	90.88
326.313	79.88
326.542	91.88
326.77	84.88
326.999	86.88
327.228	96.88
327.457	89.88
327.686	95.88
327.914	86.88
328.143	93.88
328.372	79.88
328.6	88.88
328.829	80.88
329.058	90.88
329.287	87.88
329.515	75.88
329.744	100.88
329.972	86.88
330.201	85.88
330.43	83.88
330.658	96.88
330.887	91.88
331.115	86.88
331.344	82.88
331.572	76.88
331.801	95.88
332.03	80.88
332.258	98.88
332.486	95.88
332.715	81.88
332.943	85.88
333.172	80.88
333.4	72.88
333.629	96.88
333.857	91.88
334.085	79.88
334.314	82.88
334.542	81.88
334.771	87.88
334.999	93.88
335.227	88.88
335.455	79.88
335.684	84.88
335.912	71.88
336.14	81.88
336.369	80.88
336.597	78.88
336.825	66.88
337.053	75.88
337.281	80.88
337.51	86.88
337.738	88.88
337.966	75.88
338.194	83.88
338.422	80.88
338.65	91.88
338.878	81.88
339.106	79.88
339.334	87.88
339.562	72.88
339.79	89.88
340.018	84.88
340.246	80.88
340.474	84.88
340.702	74.88
340.93	70.88
341.158	79.88
341.386	87.88
341.614	87.88
341.842	78.88
342.07	88.88
342.298	85.88
342.526	84.88
342.754	88.88
342.981	83.88
343.209	96.88
343.437	99.88
343.665	85.88
343.893	80.88
344.12	86.88
344.348	71.88
344.576	80.88
344.804	72.88
345.031	96.88
345.259	78.88
345.487	82.88
345.714	71.88
345.942	82.88
346.17	86.88
346.397	82.88
346.625	76.88
346.853	72.88
347.08	95.88
347.308	85.88
347.535	91.88
347.763	81.88
347.99	86.88
348.218	89.88
348.445	88.88
348.673	82.88
348.9	64.88
349.128	79.88
349.355	86.88
349.583	83.88
349.81	79.88
350.037	84.88
350.265	91.88
350.492	80.88
350.72	72.88
350.947	96.88
351.174	78.88
351.402	79.88
351.629	86.88
351.856	70.88
352.083	73.88
352.311	78.88
352.538	93.88
352.765	77.88
352.992	96.88
353.22	95.88
353.447	92.88
353.674	92.88
353.901	81.88
354.128	80.88
354.355	72.88
354.583	80.88
354.81	92.88
355.037	97.88
355.264	85.88
355.491	79.88
355.718	95.88
355.945	84.88
356.172	81.88
356.399	77.88
356.626	91.88
356.853	84.88
357.08	87.88
357.307	83.88
357.534	75.88
357.761	79.88
357.988	69.88
358.215	99.88
358.441	97.88
358.668	74.88
358.895	89.88
359.122	83.88
359.349	92.88
359.576	77.88
359.802	72.88
360.029	84.88
360.256	83.88
360.483	90.88
360.709	83.88
360.936	101.88
361.163	94.88
361.39	75.88
361.616	80.88
361.843	83.88
362.07	88.88
362.296	70.88
362.523	97.88
362.749	85.88
362.976	78.88
363.203	88.88
363.429	88.88
363.656	80.88
363.882	84.88
364.109	92.88
364.335	98.88
364.562	85.88
364.788	83.88
365.015	84.88
365.241	76.88
365.468	89.88
365.694	68.88
365.92	77.88
366.147	87.88
366.373	81.88
366.599	77.88
366.826	88.88
367.052	75.88
367.278	91.88
367.505	75.88
367.731	82.88
367.957	92.88
368.184	83.88
368.41	79.88
368.636	84.88
368.862	83.88
369.089	80.88
369.315	89.88
369.541	85.88
369.767	82.88
369.993	86.88
370.219	87.88
370.445	89.88
370.672	95.88
370.898	92.88
371.124	89.88
371.35	88.88
371.576	77.88
371.802	87.88
372.028	75.88
372.254	90.88
372.48	86.88
372.706	69.88
372.932	87.88
373.158	87.88
373.384	96.88
373.61	92.88
373.835	97.88
374.061	82.88
374.287	88.88
374.513	97.88
374.739	91.88
374.965	111.88
375.191	83.88
375.416	96.88
375.642	83.88
375.868	94.88
376.094	88.88
376.319	107.88
376.545	97.88
376.771	89.88
376.997	82.88
377.222	83.88
377.448	80.88
377.674	82.88
377.899	71.88
378.125	82.88
378.35	78.88
378.576	69.88
378.802	91.88
379.027	97.88
379.253	86.88
379.478	86.88
379.704	91.88
379.929	77.88
380.155	82.88
380.38	70.88
380.606	88.88
380.831	99.88
381.057	92.88
381.282	90.88
381.507	102.88
381.733	86.88
381.958	86.88
382.184	86.88
382.409	97.88
382.634	103.88
382.86	103.88
383.085	98.88
383.31	113.88
383.535	119.88
383.761	108.88
383.986	100.88
384.211	78.88
384.436	73.88
384.662	93.88
384.887	96.88
385.112	94.88
385.337	88.88
385.562	78.88
385.787	99.88
386.013	104.88
386.238	73.88
386.463	86.88
386.688	89.88
386.913	73.88
387.138	63.88
387.363	87.88
387.588	88.88
387.813	88.88
388.038	86.88
388.263	83.88
388.488	82.88
388.713	81.88
388.938	79.88
389.163	75.88
389.387	91.88
389.612	92.88
389.837	91.88
390.062	87.88
390.287	88.88
390.512	88.88
390.736	80.88
390.961	92.88
391.186	79.88
391.411	64.88
391.636	84.88
391.86	85.88
392.085	92.88
392.31	90.88
392.534	87.88
392.759	95.88
392.984	120.88
393.208	152.88
393.433	222.88
393.658	174.88
393.882	98.88
394.107	101.88
394.331	109.88
394.556	104.88
394.78	96.88
395.005	94.88
395.229	69.88
395.454	87.88
395.678	93.88
395.903	99.88
396.127	110.88
396.352	131.88
396.576	123.88
396.801	156.88
397.025	166.88
397.249	121.88
397.474	94.88
397.698	85.88
397.922	87.88
398.147	78.88
398.371	80.88
398.595	83.88
398.82	84.88
399.044	79.88
399.268	92.88
399.492	91.88
399.717	78.88
399.941	89.88
400.165	72.88
400.389	93.88
400.613	81.88
400.837	85.88
401.062	72.88
401.286	95.88
401.51	81.88
401.734	87.88
401.958	80.88
402.182	84.88
402.406	92.88
402.63	79.88
402.854	78.88
403.078	88.88
403.302	84.88
403.526	82.88
403.75	89.88
403.974	81.88
404.198	78.88
404.422	81.88
404.645	84.88
404.869	77.88
405.093	78.88
405.317	84.88
405.541	81.88
405.765	87.88
405.988	88.88
406.212	101.88
406.436	81.88
406.66	75.88
406.883	81.88
407.107	79.88
407.331	83.88
407.555	84.88
407.778	97.88
408.002	109.88
408.226	78.88
408.449	72.88
408.673	79.88
408.896	90.88
409.12	87.88
409.344	95.88
409.567	80.88
409.791	92.88
410.014	101.88
410.238	83.88
410.461	84.88
410.685	101.88
410.908	69.88
411.132	97.88
411.355	81.88
411.578	89.88
411.802	85.88
412.025	91.88
412.249	94.88
412.472	80.88
412.695	66.88
412.919	84.88
413.142	84.88
413.365	88.88
413.589	84.88
413.812	84.88
414.035	78.88
414.258	86.88
414.482	92.88
414.705	87.88
414.928	73.88
415.151	74.88
415.374	97.88
415.597	83.88
415.821	91.88
416.044	70.88
416.267	70.88
416.49	71.88
416.713	78.88
416.936	76.88
417.159	85.88
417.382	77.88
417.605	96.88
417.828	89.88
418.051	83.88
418.274	80.88
418.497	82.88
418.72	77.88
418.943	87.88
419.166	75.88
419.389	65.88
419.611	92.88
419.834	89.88
420.057	87.88
420.28	83.88
420.503	88.88
420.726	86.88
420.948	94.88
421.171	85.88
421.394	79.88
421.617	94.88
421.839	79.88
422.062	93.88
422.285	115.88
422.507	133.88
422.73	224.88
422.953	201.88
423.175	108.88
423.398	98.88
423.621	92.88
423.843	87.88
424.066	84.88
424.288	85.88
424.511	74.88
424.733	95.88
424.956	82.88
425.178	77.88
425.401	81.88
425.623	77.88
425.846	83.88
426.068	85.88
426.291	86.88
426.513	90.88
426.735	81.88
426.958	72.88
427.18	96.88
427.402	80.88
427.625	81.88
427.847	74.88
428.069	87.88
428.292	100.88
428.514	95.88
428.736	93.88
428.958	97.88
429.181	95.88
429.403	108.88
429.625	81.88
429.847	89.88
430.069	110.88
430.292	109.88
430.514	108.88
430.736	91.88
430.958	107.88
431.18	84.88
431.402	73.88
431.624	82.88
431.846	95.88
432.068	107.88
432.29	89.88
432.512	88.88
432.734	78.88
432.956	82.88
433.178	84.88
433.4	85.88
433.622	90.88
433.844	99.88
434.066	69.88
434.287	78.88
434.509	87.88
434.731	76.88
434.953	83.88
435.175	76.88
435.397	76.88
435.618	77.88
435.84	72.88
436.062	87.88
436.284	77.88
436.505	92.88
436.727	84.88
436.949	73.88
437.17	69.88
437.392	63.88
437.614	77.88
437.835	69.88
438.057	72.88
438.278	95.88
438.5	91.88
438.721	81.88
438.943	87.88
439.165	73.88
439.386	76.88
439.608	67.88
439.829	73.88
440.05	79.88
440.272	74.88
440.493	102.88
440.715	91.88
440.936	91.88
441.158	79.88
441.379	83.88
441.6	73.88
441.822	72.88
442.043	92.88
442.264	92.88
442.486	102.88
442.707	113.88
442.928	98.88
443.149	73.88
443.371	89.88
443.592	129.88
443.813	118.88
444.034	83.88
444.255	91.88
444.476	91.88
444.698	84.88
444.919	87.88
445.14	148.88
445.361	135.88
445.582	171.88
445.803	152.88
446.024	87.88
446.245	81.88
446.466	96.88
446.687	78.88
446.908	84.88
447.129	72.88
447.35	79.88
447.571	82.88
447.792	81.88
448.013	83.88
448.234	83.88
448.455	82.88
448.675	87.88
448.896	81.88
449.117	94.88
449.338	75.88
449.559	81.88
449.779	79.88
450	91.88
450.221	77.88
450.442	71.88
450.662	97.88
450.883	76.88
451.104	73.88
451.324	93.88
451.545	75.88
451.766	85.88
451.986	82.88
452.207	72.88
452.428	71.88
452.648	97.88
452.869	88.88
453.089	103.88
453.31	85.88
453.53	97.88
453.751	84.88
453.971	78.88
454.192	79.88
454.412	82.88
454.633	77.88
454.853	85.88
455.073	82.88
455.294	79.88
455.514	77.88
455.734	72.88
455.955	77.88
456.175	63.88
456.395	81.88
456.616	93.88
456.836	83.88
457.056	88.88
457.276	76.88
457.497	81.88
457.717	85.88
457.937	78.88
458.157	99.88
458.377	93.88
458.598	92.88
458.818	104.88
459.038	72.88
459.258	71.88
459.478	74.88
459.698	76.88
459.918	71.88
460.138	79.88
460.358	75.88
460.578	87.88
460.798	86.88
461.018	88.88
461.238	83.88
461.458	87.88
461.678	82.88
461.898	75.88
462.118	85.88
462.338	91.88
462.558	81.88
462.777	78.88
462.997	79.88
463.217	71.88
463.437	86.88
463.657	83.88
463.876	80.88
464.096	80.88
464.316	70.88
464.536	75.88
464.755	93.88
464.975	69.88
465.195	84.88
465.414	81.88
465.634	78.88
465.854	79.88
466.073	93.88
466.293	77.88
466.512	74.88
466.732	77.88
466.951	65.88
467.171	83.88
467.391	84.88
467.61	77.88
467.829	100.88
468.049	67.88
468.268	75.88
468.488	81.88
468.707	78.88
468.927	76.88
469.146	79.88
469.365	71.88
469.585	79.88
469.804	80.88
470.023	63.88
470.243	96.88
470.462	83.88
470.681	85.88
470.901	88.88
471.12	81.88
471.339	82.88
471.558	91.88
471.777	83.88
471.997	89.88
472.216	87.88
472.435	85.88
472.654	76.88
472.873	88.88
473.092	74.88
473.311	75.88
473.53	78.88
473.749	91.88
473.968	85.88
474.187	83.88
474.406	77.88
474.625	82.88
474.844	86.88
475.063	83.88
475.282	83.88
475.501	72.88
475.72	77.88
475.939	76.88
476.158	83.88
476.377	88.88
476.596	93.88
476.814	71.88
477.033	85.88
477.252	79.88
477.471	80.88
477.69	71.88
477.908	83.88
478.127	93.88
478.346	90.88
478.564	73.88
478.783	59.88
479.002	70.88
479.22	82.88
479.439	104.88
479.658	83.88
479.876	98.88
480.095	88.88
480.313	82.88
480.532	79.88
480.751	83.88
480.969	92.88
481.188	91.88
481.406	84.88
481.624	79.88
481.843	85.88
482.061	82.88
482.28	91.88
482.498	80.88
482.717	92.88
482.935	82.88
483.153	87.88
483.372	87.88
483.59	94.88
483.808	91.88
484.027	82.88
484.245	100.88
484.463	92.88
484.681	89.88
484.9	85.88
485.118	87.88
485.336	90.88
485.554	74.88
485.772	90.88
485.99	78.88
486.209	95.88
486.427	80.88
486.645	86.88
486.863	84.88
487.081	89.88
487.299	81.88
487.517	84.88
487.735	90.88
487.953	113.88
488.171	82.88
488.389	93.88
488.607	91.88
488.825	82.88
489.043	91.88
489.261	87.88
489.479	76.88
489.696	91.88
489.914	82.88
490.132	96.88
490.35	83.88
490.568	91.88
490.786	82.88
491.003	69.88
491.221	89.88
491.439	76.88
491.657	83.88
491.874	88.88
492.092	91.88
492.31	85.88
492.527	80.88
492.745	99.88
492.963	73.88
493.18	93.88
493.398	93.88
493.615	76.88
493.833	86.88
494.05	93.88
494.268	77.88
494.485	81.88
494.703	71.88
494.92	86.88
495.138	73.88
495.355	95.88
495.573	96.88
495.79	93.88
496.008	89.88
496.225	83.88
496.442	85.88
496.66	97.88
496.877	81.88
497.094	90.88
497.312	88.88
497.529	77.88
497.746	86.88
497.963	77.88
498.181	84.88
498.398	99.88
498.615	90.88
498.832	78.88
499.049	98.88
499.267	95.88
499.484	88.88
499.701	86.88
499.918	78.88
500.135	91.88
500.352	100.88
500.569	81.88
500.786	85.88
501.003	88.88
501.22	91.88
501.437	91.88
501.654	100.88
501.871	83.88
502.088	76.88
502.305	90.88
502.522	80.88
502.739	81.88
502.956	96.88
503.172	78.88
503.389	79.88
503.606	78.88
503.823	97.88
504.04	112.88
504.256	118.88
504.473	97.88
504.69	77.88
504.907	94.88
505.123	90.88
505.34	80.88
505.557	84.88
505.773	82.88
505.99	78.88
506.207	90.88
506.423	94.88
506.64	79.88
506.856	84.88
507.073	77.88
507.289	95.88
507.506	71.88
507.722	81.88
507.939	90.88
508.155	91.88
508.372	89.88
508.588	86.88
508.805	83.88
509.021	80.88
509.238	80.88
509.454	78.88
509.67	99.88
509.887	75.88
510.103	61.88
510.319	95.88
510.536	91.88
510.752	88.88
510.968	63.88
511.184	89.88
511.401	74.88
511.617	79.88
511.833	85.88
512.049	88.88
512.265	82.88
512.481	70.88
512.698	81.88
512.914	91.88
513.13	96.88
513.346	70.88
513.562	83.88
513.778	96.88
513.994	83.88
514.21	75.88
514.426	91.88
514.642	81.88
514.858	74.88
515.074	96.88
515.29	93.88
515.506	93.88
515.721	94.88
515.937	89.88
516.153	83.88
516.369	93.88
516.585	95.88
516.801	96.88
517.016	92.88
517.232	96.88
517.448	113.88
517.664	91.88
517.879	87.88
518.095	70.88
518.311	92.88
518.527	120.88
518.742	100.88
518.958	104.88
519.173	100.88
519.389	78.88
519.605	94.88
519.82	91.88
520.036	85.88
520.251	91.88
520.467	83.88
520.682	87.88
520.898	94.88
521.113	91.88
521.329	87.88
521.544	103.88
521.76	84.88
521.975	83.88
522.19	93.88
522.406	87.88
522.621	105.88
522.836	85.88
523.052	90.88
523.267	84.88
523.482	82.88
523.698	83.88
523.913	85.88
524.128	94.88
524.343	81.88
524.559	79.88
524.774	78.88
524.989	77.88
525.204	91.88
525.419	86.88
525.634	85.88
525.849	99.88
526.064	94.88
526.28	107.88
526.495	130.88
526.71	157.88
526.925	115.88
527.14	136.88
527.355	117.88
527.57	79.88
527.785	79.88
527.999	88.88
528.214	87.88
528.429	85.88
528.644	94.88
528.859	95.88
529.074	81.88
529.289	79.88
529.503	89.88
529.718	97.88
529.933	84.88
530.148	84.88
530.363	91.88
530.577	78.88
530.792	81.88
531.007	85.88
531.221	108.88
531.436	95.88
531.651	81.88
531.865	86.88
532.08	80.88
532.295	89.88
532.509	86.88
532.724	81.88
532.938	88.88
533.153	101.88
533.367	93.88
533.582	85.88
533.796	78.88
534.011	89.88
534.225	91.88
534.44	74.88
534.654	88.88
534.868	89.88
535.083	114.88
535.297	88.88
535.511	92.88
535.726	91.88
535.94	91.88
536.154	87.88
536.369	94.88
536.583	88.88
536.797	73.88
537.011	73.88
537.225	91.88
537.44	96.88
537.654	101.88
537.868	87.88
538.082	86.88
538.296	74.88
538.51	86.88
538.724	89.88
538.938	83.88
539.153	92.88
539.367	96.88
539.581	96.88
539.795	97.88
540.009	101.88
540.222	78.88
540.436	85.88
540.65	75.88
540.864	89.88
541.078	95.88
541.292	103.88
541.506	96.88
541.72	84.88
541.934	91.88
542.147	84.88
542.361	93.88
542.575	101.88
542.789	87.88
543.002	71.88
543.216	80.88
543.43	84.88
543.644	93.88
543.857	103.88
544.071	103.88
544.285	84.88
544.498	93.88
544.712	68.88
544.925	92.88
545.139	87.88
545.352	83.88
545.566	95.88
545.779	94.88
545.993	70.88
546.206	90.88
546.42	96.88
546.633	108.88
546.847	104.88
547.06	109.88
547.274	99.88
547.487	102.88
547.7	101.88
547.914	107.88
548.127	102.88
548.34	107.88
548.554	103.88
548.767	112.88
548.98	119.88
549.193	113.88
549.407	115.88
549.62	113.88
549.833	113.88
550.046	129.88
550.259	119.88
550.473	122.88
550.686	115.88
550.899	124.88
551.112	128.88
551.325	128.88
551.538	151.88
551.751	130.88
551.964	119.88
552.177	124.88
552.39	135.88
552.603	135.88
552.816	136.88
553.029	129.88
553.242	119.88
553.455	133.88
553.667	135.88
553.88	131.88
554.093	133.88
554.306	134.88
554.519	131.88
554.732	150.88
554.944	128.88
555.157	132.88
555.37	128.88
555.583	111.88
555.795	120.88
556.008	123.88
556.221	111.88
556.433	105.88
556.646	117.88
556.859	120.88
557.071	112.88
557.284	122.88
557.496	112.88
557.709	96.88
557.921	97.88
558.134	97.88
558.346	103.88
558.559	94.88
558.771	115.88
558.984	175.88
559.196	183.88
559.409	120.88
559.621	149.88
559.833	127.88
560.046	140.88
560.258	111.88
560.47	131.88
560.683	91.88
560.895	89.88
561.107	83.88
561.32	83.88
561.532	86.88
561.744	95.88
561.956	94.88
562.168	97.88
562.381	86.88
562.593	96.88
562.805	89.88
563.017	77.88
563.229	81.88
563.441	93.88
563.653	90.88
563.865	83.88
564.077	94.88
564.289	87.88
564.501	70.88
564.713	78.88
564.925	82.88
565.137	108.88
565.349	98.88
565.561	69.88
565.773	83.88
565.985	82.88
566.197	80.88
566.408	90.88
566.62	81.88
566.832	79.88
567.044	85.88
567.255	96.88
567.467	87.88
567.679	84.88
567.891	87.88
568.102	88.88
568.314	89.88
568.526	88.88
568.737	87.88
568.949	94.88
569.161	97.88
569.372	81.88
569.584	82.88
569.795	91.88
570.007	85.88
570.218	95.88
570.43	89.88
570.641	99.88
570.853	109.88
571.064	93.88
571.276	86.88
571.487	83.88
571.698	95.88
571.91	92.88
572.121	85.88
572.333	80.88
572.544	79.88
572.755	100.88
572.966	91.88
573.178	101.88
573.389	87.88
573.6	92.88
573.811	88.88
574.023	98.88
574.234	85.88
574.445	95.88
574.656	73.88
574.867	93.88
575.078	88.88
575.289	69.88
575.501	61.88
575.712	86.88
575.923	80.88
576.134	93.88
576.345	82.88
576.556	86.88
576.767	84.88
576.978	90.88
577.188	81.88
577.399	87.88
577.61	84.88
577.821	96.88
578.032	91.88
578.243	90.88
578.454	93.88
578.665	84.88
578.875	98.88
579.086	94.88
579.297	88.88
579.508	101.88
579.718	81.88
579.929	81.88
580.14	75.88
580.35	81.88
580.561	92.88
580.772	94.88
580.982	92.88
581.193	82.88
581.403	88.88
581.614	83.88
581.825	102.88
582.035	91.88
582.246	76.88
582.456	88.88
582.667	76.88
582.877	86.88
583.087	97.88
583.298	93.88
583.508	92.88
583.719	88.88
583.929	96.88
584.139	96.88
584.35	92.88
584.56	85.88
584.77	79.88
584.981	93.88
585.191	79.88
585.401	94.88
585.611	96.88
585.821	107.88
586.032	114.88
586.242	92.88
586.452	103.88
586.662	90.88
586.872	87.88
587.082	84.88
587.292	88.88
587.502	88.88
587.713	80.88
587.923	86.88
588.133	96.88
588.343	98.88
588.553	100.88
588.762	117.88
588.972	179.88
589.182	373.88
589.392	263.88
589.602	198.88
589.812	315.88
590.022	193.88
590.232	104.88
590.441	73.88
590.651	94.88
590.861	81.88
591.071	77.88
591.281	99.88
591.49	99.88
591.7	95.88
591.91	90.88
592.119	86.88
592.329	104.88
592.539	81.88
592.748	111.88
592.958	93.88
593.167	89.88
593.377	96.88
593.587	105.88
593.796	92.88
594.006	98.88
594.215	93.88
594.424	91.88
594.634	88.88
594.843	110.88
595.053	87.88
595.262	105.88
595.472	105.88
595.681	86.88
595.89	96.88
596.1	97.88
596.309	97.88
596.518	108.88
596.727	106.88
596.937	100.88
597.146	112.88
597.355	107.88
597.564	103.88
597.774	121.88
597.983	107.88
598.192	116.88
598.401	111.88
598.61	113.88
598.819	125.88
599.028	103.88
599.237	115.88
599.446	115.88
599.655	113.88
599.864	100.88
600.073	107.88
600.282	117.88
600.491	114.88
600.7	123.88
600.909	121.88
601.118	113.88
601.327	105.88
601.536	109.88
601.745	97.88
601.953	107.88
602.162	117.88
602.371	101.88
602.58	107.88
602.789	119.88
602.997	120.88
603.206	103.88
603.415	104.88
603.623	119.88
603.832	107.88
604.041	120.88
604.249	104.88
604.458	107.88
604.666	113.88
604.875	118.88
605.084	124.88
605.292	107.88
605.501	118.88
605.709	100.88
605.918	105.88
606.126	132.88
606.334	124.88
606.543	127.88
606.751	113.88
606.96	141.88
607.168	110.88
607.376	91.88
607.585	129.88
607.793	117.88
608.001	115.88
608.21	113.88
608.418	115.88
608.626	92.88
608.834	105.88
609.043	112.88
609.251	127.88
609.459	102.88
609.667	107.88
609.875	118.88
610.083	118.88
610.291	115.88
610.499	151.88
610.707	115.88
610.916	118.88
611.124	126.88
611.332	131.88
611.54	130.88
611.748	135.88
611.955	124.88
612.163	132.88
612.371	196.88
612.579	167.88
612.787	125.88
612.995	124.88
613.203	135.88
613.411	135.88
613.618	115.88
613.826	121.88
614.034	130.88
614.242	129.88
614.449	118.88
614.657	129.88
614.865	125.88
615.072	124.88
615.28	116.88
615.488	126.88
615.695	131.88
615.903	128.88
616.111	129.88
616.318	173.88
616.526	211.88
616.733	156.88
616.941	132.88
617.148	145.88
617.356	153.88
617.563	119.88
617.771	132.88
617.978	111.88
618.185	125.88
618.393	121.88
618.6	124.88
618.807	104.88
619.015	113.88
619.222	116.88
619.429	105.88
619.637	115.88
619.844	129.88
620.051	116.88
620.258	112.88
620.466	108.88
620.673	125.88
620.88	102.88
621.087	121.88
621.294	112.88
621.501	129.88
621.708	120.88
621.915	121.88
622.122	108.88
622.329	113.88
622.536	127.88
622.743	112.88
622.95	125.88
623.157	133.88
623.364	118.88
623.571	116.88
623.778	121.88
623.985	115.88
624.192	120.88
624.399	131.88
624.606	111.88
624.812	131.88
625.019	120.88
625.226	123.88
625.433	139.88
625.639	119.88
625.846	115.88
626.053	112.88
626.259	115.88
626.466	99.88
626.673	105.88
626.879	112.88
627.086	98.88
627.293	111.88
627.499	111.88
627.706	101.88
627.912	109.88
628.119	97.88
628.325	91.88
628.532	89.88
628.738	89.88
628.945	93.88
629.151	82.88
629.357	93.88
629.564	89.88
629.77	90.88
629.976	83.88
630.183	71.88
630.389	81.88
630.595	91.88
630.802	73.88
631.008	105.88
631.214	77.88
631.42	87.88
631.627	99.88
631.833	85.88
632.039	87.88
632.245	101.88
632.451	89.88
632.657	87.88
632.863	90.88
633.069	91.88
633.275	81.88
633.481	88.88
633.688	91.88
633.893	75.88
634.099	80.88
634.305	85.88
634.511	88.88
634.717	91.88
634.923	91.88
635.129	99.88
635.335	95.88
635.541	84.88
635.747	75.88
635.952	85.88
636.158	87.88
636.364	95.88
636.57	87.88
636.775	82.88
636.981	84.88
637.187	96.88
637.392	85.88
637.598	87.88
637.804	76.88
638.009	94.88
638.215	79.88
638.421	72.88
638.626	89.88
638.832	92.88
639.037	90.88
639.243	80.88
639.448	82.88
639.654	85.88
639.859	82.88
640.065	77.88
640.27	82.88
640.475	65.88
640.681	75.88
640.886	86.88
641.091	79.88
641.297	98.88
641.502	90.88
641.707	94.88
641.913	76.88
642.118	86.88
642.323	90.88
642.528	83.88
642.733	87.88
642.939	103.88
643.144	96.88
643.349	96.88
643.554	88.88
643.759	88.88
643.964	109.88
644.169	123.88
644.374	86.88
644.579	86.88
644.784	88.88
644.989	91.88
645.194	98.88
645.399	92.88
645.604	73.88
645.809	79.88
646.014	92.88
646.219	87.88
646.423	115.88
646.628	87.88
646.833	92.88
647.038	91.88
647.243	97.88
647.447	80.88
647.652	88.88
647.857	78.88
648.062	85.88
648.266	71.88
648.471	79.88
648.676	84.88
648.88	77.88
649.085	76.88
649.289	69.88
649.494	87.88
649.698	90.88
649.903	89.88
650.107	90.88
650.312	88.88
650.516	97.88
650.721	67.88
650.925	85.88
651.13	61.88
651.334	84.88
651.539	72.88
651.743	97.88
651.947	89.88
652.152	79.88
652.356	81.88
652.56	87.88
652.764	63.88
652.969	89.88
653.173	71.88
653.377	81.88
653.581	79.88
653.785	91.88
653.99	92.88
654.194	94.88
654.398	83.88
654.602	82.88
654.806	83.88
655.01	83.88
655.214	95.88
655.418	95.88
655.622	72.88
655.826	88.88
656.03	94.88
656.234	76.88
656.438	79.88
656.642	83.88
656.846	89.88
657.049	79.88
657.253	88.88
657.457	72.88
657.661	76.88
657.865	76.88
658.068	74.88
658.272	87.88
658.476	82.88
658.68	94.88
658.883	87.88
659.087	94.88
659.291	72.88
659.494	79.88
659.698	73.88
659.901	73.88
660.105	94.88
660.309	71.88
660.512	70.88
660.716	85.88
660.919	77.88
661.123	80.88
661.326	76.88
661.53	83.88
661.733	77.88
661.936	85.88
662.14	78.88
662.343	88.88
662.546	84.88
662.75	85.88
662.953	92.88
663.156	93.88
663.36	78.88
663.563	80.88
663.766	75.88
663.969	79.88
664.173	82.88
664.376	83.88
664.579	94.88
664.782	81.88
664.985	79.88
665.188	78.88
665.391	85.88
665.594	85.88
665.797	82.88
666	86.88
666.203	81.88
666.406	82.88
666.609	86.88
666.812	81.88
667.015	92.88
667.218	87.88
667.421	79.88
667.624	85.88
667.827	87.88
668.03	80.88
668.232	91.88
668.435	91.88
668.638	72.88
668.841	80.88
669.043	84.88
669.246	76.88
669.449	91.88
669.651	88.88
669.854	78.88
670.057	81.88
670.259	84.88
670.462	79.88
670.665	80.88
670.867	91.88
671.07	81.88
671.272	85.88
671.475	76.88
671.677	88.88
671.88	92.88
672.082	87.88
672.284	79.88
672.487	78.88
672.689	86.88
672.892	89.88
