Data from Circ_1992_H10_HRD10591_00007.txt Node
Date: Wed Jan 03 11:47:46 EST 2024
User: Yrep
Spectrometer: HR+D1059
Trigger mode: 1
Integration Time (sec): 1.000000E-1
Scans to average: 1
Electric dark correction enabled: true
Nonlinearity correction enabled: false
Boxcar width: 0
XAxis mode: Wavelengths
Number of Pixels in Spectrum: 2048
>>>>>Begin Spectral Data<<<<<
223.165	-23.25
223.4	-23.25
223.635	-23.25
223.869	-22.25
224.104	-19.25
224.338	-11.25
224.573	-7.25
224.808	-10.25
225.042	-5.25
225.277	-4.25
225.511	-5.25
225.746	10.75
225.98	-7.25
226.215	19.75
226.449	11.75
226.683	24.75
226.918	19.75
227.152	28.75
227.387	38.75
227.621	51.75
227.856	54.75
228.09	41.75
228.324	42.75
228.559	50.75
228.793	51.75
229.027	54.75
229.262	69.75
229.496	51.75
229.73	66.75
229.964	59.75
230.199	83.75
230.433	67.75
230.667	81.75
230.901	82.75
231.136	82.75
231.37	72.75
231.604	75.75
231.838	85.75
232.072	66.75
232.306	79.75
232.541	76.75
232.775	79.75
233.009	71.75
233.243	83.75
233.477	71.75
233.711	83.75
233.945	91.75
234.179	75.75
234.413	78.75
234.647	82.75
234.881	69.75
235.115	69.75
235.349	84.75
235.583	83.75
235.817	84.75
236.051	80.75
236.285	77.75
236.519	79.75
236.753	69.75
236.987	81.75
237.221	75.75
237.455	76.75
237.689	73.75
237.922	78.75
238.156	64.75
238.39	84.75
238.624	62.75
238.858	75.75
239.091	77.75
239.325	73.75
239.559	81.75
239.793	80.75
240.027	79.75
240.26	62.75
240.494	86.75
240.728	81.75
240.961	74.75
241.195	83.75
241.429	55.75
241.662	77.75
241.896	70.75
242.13	76.75
242.363	86.75
242.597	76.75
242.83	78.75
243.064	73.75
243.298	79.75
243.531	63.75
243.765	85.75
243.998	75.75
244.232	67.75
244.465	89.75
244.699	73.75
244.932	75.75
245.166	91.75
245.399	71.75
245.633	76.75
245.866	68.75
246.099	71.75
246.333	83.75
246.566	74.75
246.8	77.75
247.033	79.75
247.266	82.75
247.5	75.75
247.733	87.75
247.966	74.75
248.2	82.75
248.433	74.75
248.666	74.75
248.899	83.75
249.133	79.75
249.366	93.75
249.599	100.75
249.832	76.75
250.066	70.75
250.299	74.75
250.532	82.75
250.765	87.75
250.998	77.75
251.231	74.75
251.465	87.75
251.698	79.75
251.931	76.75
252.164	83.75
252.397	75.75
252.63	72.75
252.863	73.75
253.096	90.75
253.329	82.75
253.562	91.75
253.795	82.75
254.028	81.75
254.261	84.75
254.494	73.75
254.727	82.75
254.96	85.75
255.193	76.75
255.426	77.75
255.659	73.75
255.892	74.75
256.124	80.75
256.357	90.75
256.59	73.75
256.823	91.75
257.056	88.75
257.289	91.75
257.521	93.75
257.754	91.75
257.987	77.75
258.22	84.75
258.452	74.75
258.685	85.75
258.918	75.75
259.151	78.75
259.383	71.75
259.616	99.75
259.849	95.75
260.081	81.75
260.314	80.75
260.547	95.75
260.779	78.75
261.012	74.75
261.244	77.75
261.477	96.75
261.71	95.75
261.942	105.75
262.175	119.75
262.407	100.75
262.64	79.75
262.872	84.75
263.105	95.75
263.337	96.75
263.57	91.75
263.802	84.75
264.035	82.75
264.267	77.75
264.499	79.75
264.732	85.75
264.964	88.75
265.197	86.75
265.429	75.75
265.661	86.75
265.894	71.75
266.126	71.75
266.358	77.75
266.591	89.75
266.823	85.75
267.055	86.75
267.287	75.75
267.52	80.75
267.752	92.75
267.984	80.75
268.216	85.75
268.448	83.75
268.681	75.75
268.913	77.75
269.145	83.75
269.377	86.75
269.609	95.75
269.841	76.75
270.073	93.75
270.306	96.75
270.538	82.75
270.77	96.75
271.002	71.75
271.234	89.75
271.466	71.75
271.698	82.75
271.93	87.75
272.162	91.75
272.394	87.75
272.626	87.75
272.858	90.75
273.09	80.75
273.322	76.75
273.553	75.75
273.785	86.75
274.017	84.75
274.249	89.75
274.481	83.75
274.713	74.75
274.945	87.75
275.176	90.75
275.408	87.75
275.64	84.75
275.872	82.75
276.104	92.75
276.335	96.75
276.567	95.75
276.799	111.75
277.031	104.75
277.262	115.75
277.494	106.75
277.726	84.75
277.957	89.75
278.189	90.75
278.421	89.75
278.652	92.75
278.884	91.75
279.115	87.75
279.347	89.75
279.579	86.75
279.81	106.75
280.042	110.75
280.273	113.75
280.505	105.75
280.736	96.75
280.968	72.75
281.199	85.75
281.431	68.75
281.662	88.75
281.894	89.75
282.125	98.75
282.356	116.75
282.588	127.75
282.819	110.75
283.051	88.75
283.282	81.75
283.513	69.75
283.745	89.75
283.976	86.75
284.207	85.75
284.439	88.75
284.67	85.75
284.901	83.75
285.132	85.75
285.364	78.75
285.595	79.75
285.826	77.75
286.057	104.75
286.288	90.75
286.52	87.75
286.751	77.75
286.982	90.75
287.213	88.75
287.444	92.75
287.675	87.75
287.906	73.75
288.138	87.75
288.369	95.75
288.6	86.75
288.831	84.75
289.062	88.75
289.293	79.75
289.524	87.75
289.755	76.75
289.986	79.75
290.217	90.75
290.448	80.75
290.679	89.75
290.91	103.75
291.141	90.75
291.371	99.75
291.602	83.75
291.833	83.75
292.064	92.75
292.295	85.75
292.526	93.75
292.757	87.75
292.987	87.75
293.218	88.75
293.449	96.75
293.68	79.75
293.91	96.75
294.141	88.75
294.372	96.75
294.603	86.75
294.833	98.75
295.064	71.75
295.295	79.75
295.525	92.75
295.756	93.75
295.987	120.75
296.217	128.75
296.448	115.75
296.679	87.75
296.909	99.75
297.14	87.75
297.37	89.75
297.601	79.75
297.831	81.75
298.062	95.75
298.292	96.75
298.523	85.75
298.753	92.75
298.984	76.75
299.214	75.75
299.445	91.75
299.675	91.75
299.905	93.75
300.136	84.75
300.366	87.75
300.597	78.75
300.827	84.75
301.057	98.75
301.288	97.75
301.518	85.75
301.748	85.75
301.979	85.75
302.209	93.75
302.439	84.75
302.669	108.75
302.9	84.75
303.13	106.75
303.36	93.75
303.59	103.75
303.82	100.75
304.051	89.75
304.281	92.75
304.511	98.75
304.741	89.75
304.971	88.75
305.201	86.75
305.431	106.75
305.661	82.75
305.891	90.75
306.121	94.75
306.352	94.75
306.582	106.75
306.812	100.75
307.042	101.75
307.272	107.75
307.502	103.75
307.731	108.75
307.961	75.75
308.191	95.75
308.421	101.75
308.651	101.75
308.881	98.75
309.111	88.75
309.341	87.75
309.571	84.75
309.8	87.75
310.03	95.75
310.26	97.75
310.49	90.75
310.72	85.75
310.949	98.75
311.179	101.75
311.409	88.75
311.639	80.75
311.868	86.75
312.098	92.75
312.328	97.75
312.557	88.75
312.787	114.75
313.017	96.75
313.246	101.75
313.476	97.75
313.706	81.75
313.935	94.75
314.165	91.75
314.394	107.75
314.624	81.75
314.853	92.75
315.083	113.75
315.312	88.75
315.542	87.75
315.771	93.75
316.001	93.75
316.23	91.75
316.46	89.75
316.689	98.75
316.919	87.75
317.148	93.75
317.377	64.75
317.607	93.75
317.836	78.75
318.065	93.75
318.295	96.75
318.524	101.75
318.753	82.75
318.983	101.75
319.212	98.75
319.441	98.75
319.67	100.75
319.9	110.75
320.129	98.75
320.358	87.75
320.587	84.75
320.816	98.75
321.046	111.75
321.275	95.75
321.504	81.75
321.733	90.75
321.962	90.75
322.191	101.75
322.42	113.75
322.649	123.75
322.878	102.75
323.108	96.75
323.337	123.75
323.566	120.75
323.795	152.75
324.024	183.75
324.253	341.75
324.482	737.75
324.71	1500.75
324.939	2081.75
325.168	762.75
325.397	229.75
325.626	139.75
325.855	128.75
326.084	111.75
326.313	123.75
326.542	149.75
326.77	204.75
326.999	399.75
327.228	847.75
327.457	1567.75
327.686	1237.75
327.914	368.75
328.143	248.75
328.372	258.75
328.6	176.75
328.829	107.75
329.058	131.75
329.287	145.75
329.515	134.75
329.744	126.75
329.972	192.75
330.201	309.75
330.43	427.75
330.658	227.75
330.887	168.75
331.115	124.75
331.344	88.75
331.572	105.75
331.801	106.75
332.03	104.75
332.258	116.75
332.486	107.75
332.715	87.75
332.943	97.75
333.172	107.75
333.4	97.75
333.629	121.75
333.857	148.75
334.085	178.75
334.314	306.75
334.542	517.75
334.771	516.75
334.999	188.75
335.227	119.75
335.455	89.75
335.684	93.75
335.912	88.75
336.14	90.75
336.369	105.75
336.597	104.75
336.825	96.75
337.053	93.75
337.281	89.75
337.51	91.75
337.738	88.75
337.966	82.75
338.194	91.75
338.422	90.75
338.65	91.75
338.878	94.75
339.106	75.75
339.334	91.75
339.562	95.75
339.79	91.75
340.018	100.75
340.246	89.75
340.474	90.75
340.702	97.75
340.93	91.75
341.158	81.75
341.386	90.75
341.614	93.75
341.842	99.75
342.07	101.75
342.298	74.75
342.526	89.75
342.754	85.75
342.981	97.75
343.209	90.75
343.437	92.75
343.665	93.75
343.893	89.75
344.12	87.75
344.348	80.75
344.576	79.75
344.804	101.75
345.031	94.75
345.259	83.75
345.487	88.75
345.714	106.75
345.942	92.75
346.17	84.75
346.397	83.75
346.625	101.75
346.853	95.75
347.08	91.75
347.308	92.75
347.535	97.75
347.763	102.75
347.99	97.75
348.218	99.75
348.445	119.75
348.673	106.75
348.9	100.75
349.128	90.75
349.355	94.75
349.583	93.75
349.81	113.75
350.037	77.75
350.265	86.75
350.492	84.75
350.72	99.75
350.947	98.75
351.174	113.75
351.402	117.75
351.629	115.75
351.856	101.75
352.083	106.75
352.311	107.75
352.538	113.75
352.765	118.75
352.992	113.75
353.22	102.75
353.447	110.75
353.674	105.75
353.901	111.75
354.128	97.75
354.355	109.75
354.583	97.75
354.81	104.75
355.037	85.75
355.264	100.75
355.491	103.75
355.718	97.75
355.945	93.75
356.172	98.75
356.399	89.75
356.626	100.75
356.853	84.75
357.08	91.75
357.307	87.75
357.534	104.75
357.761	95.75
357.988	87.75
358.215	119.75
358.441	109.75
358.668	91.75
358.895	111.75
359.122	89.75
359.349	97.75
359.576	87.75
359.802	97.75
360.029	120.75
360.256	108.75
360.483	102.75
360.709	101.75
360.936	94.75
361.163	93.75
361.39	106.75
361.616	102.75
361.843	91.75
362.07	85.75
362.296	94.75
362.523	101.75
362.749	103.75
362.976	91.75
363.203	97.75
363.429	96.75
363.656	94.75
363.882	82.75
364.109	80.75
364.335	112.75
364.562	84.75
364.788	91.75
365.015	92.75
365.241	91.75
365.468	110.75
365.694	105.75
365.92	94.75
366.147	90.75
366.373	91.75
366.599	99.75
366.826	94.75
367.052	83.75
367.278	90.75
367.505	79.75
367.731	86.75
367.957	101.75
368.184	89.75
368.41	98.75
368.636	110.75
368.862	104.75
369.089	102.75
369.315	97.75
369.541	96.75
369.767	88.75
369.993	92.75
370.219	79.75
370.445	89.75
370.672	92.75
370.898	82.75
371.124	74.75
371.35	81.75
371.576	87.75
371.802	88.75
372.028	84.75
372.254	99.75
372.48	100.75
372.706	95.75
372.932	86.75
373.158	94.75
373.384	108.75
373.61	92.75
373.835	101.75
374.061	95.75
374.287	92.75
374.513	82.75
374.739	94.75
374.965	92.75
375.191	93.75
375.416	84.75
375.642	94.75
375.868	108.75
376.094	89.75
376.319	86.75
376.545	99.75
376.771	92.75
376.997	93.75
377.222	102.75
377.448	95.75
377.674	104.75
377.899	112.75
378.125	93.75
378.35	93.75
378.576	86.75
378.802	99.75
379.027	92.75
379.253	99.75
379.478	98.75
379.704	107.75
379.929	107.75
380.155	113.75
380.38	107.75
380.606	110.75
380.831	113.75
381.057	116.75
381.282	105.75
381.507	99.75
381.733	107.75
381.958	103.75
382.184	105.75
382.409	112.75
382.634	95.75
382.86	121.75
383.085	103.75
383.31	109.75
383.535	112.75
383.761	119.75
383.986	113.75
384.211	97.75
384.436	112.75
384.662	125.75
384.887	139.75
385.112	133.75
385.337	127.75
385.562	124.75
385.787	121.75
386.013	128.75
386.238	152.75
386.463	122.75
386.688	131.75
386.913	129.75
387.138	127.75
387.363	130.75
387.588	126.75
387.813	105.75
388.038	128.75
388.263	168.75
388.488	141.75
388.713	91.75
388.938	83.75
389.163	59.75
389.387	87.75
389.612	105.75
389.837	101.75
390.062	92.75
390.287	104.75
390.512	82.75
390.736	84.75
390.961	84.75
391.186	104.75
391.411	93.75
391.636	89.75
391.86	73.75
392.085	75.75
392.31	66.75
392.534	83.75
392.759	86.75
392.984	90.75
393.208	84.75
393.433	97.75
393.658	91.75
393.882	84.75
394.107	85.75
394.331	84.75
394.556	75.75
394.78	78.75
395.005	90.75
395.229	92.75
395.454	66.75
395.678	89.75
395.903	85.75
396.127	99.75
396.352	86.75
396.576	77.75
396.801	98.75
397.025	92.75
397.249	78.75
397.474	75.75
397.698	90.75
397.922	89.75
398.147	85.75
398.371	83.75
398.595	77.75
398.82	83.75
399.044	80.75
399.268	95.75
399.492	90.75
399.717	98.75
399.941	88.75
400.165	93.75
400.389	89.75
400.613	84.75
400.837	75.75
401.062	92.75
401.286	83.75
401.51	97.75
401.734	81.75
401.958	93.75
402.182	127.75
402.406	158.75
402.63	109.75
402.854	85.75
403.078	81.75
403.302	85.75
403.526	89.75
403.75	87.75
403.974	95.75
404.198	84.75
404.422	98.75
404.645	89.75
404.869	90.75
405.093	116.75
405.317	103.75
405.541	97.75
405.765	100.75
405.988	106.75
406.212	171.75
406.436	219.75
406.66	153.75
406.883	97.75
407.107	88.75
407.331	95.75
407.555	96.75
407.778	88.75
408.002	91.75
408.226	90.75
408.449	86.75
408.673	98.75
408.896	96.75
409.12	108.75
409.344	78.75
409.567	92.75
409.791	84.75
410.014	100.75
410.238	88.75
410.461	87.75
410.685	100.75
410.908	98.75
411.132	106.75
411.355	97.75
411.578	82.75
411.802	83.75
412.025	87.75
412.249	93.75
412.472	103.75
412.695	113.75
412.919	92.75
413.142	90.75
413.365	79.75
413.589	101.75
413.812	91.75
414.035	91.75
414.258	93.75
414.482	83.75
414.705	76.75
414.928	84.75
415.151	85.75
415.374	100.75
415.597	92.75
415.821	105.75
416.044	98.75
416.267	88.75
416.49	73.75
416.713	85.75
416.936	92.75
417.159	85.75
417.382	94.75
417.605	91.75
417.828	82.75
418.051	95.75
418.274	83.75
418.497	89.75
418.72	102.75
418.943	81.75
419.166	79.75
419.389	92.75
419.611	87.75
419.834	89.75
420.057	92.75
420.28	94.75
420.503	73.75
420.726	80.75
420.948	86.75
421.171	107.75
421.394	97.75
421.617	110.75
421.839	73.75
422.062	87.75
422.285	88.75
422.507	114.75
422.73	107.75
422.953	100.75
423.175	80.75
423.398	88.75
423.621	95.75
423.843	88.75
424.066	89.75
424.288	96.75
424.511	81.75
424.733	98.75
424.956	105.75
425.178	96.75
425.401	96.75
425.623	100.75
425.846	98.75
426.068	105.75
426.291	103.75
426.513	80.75
426.735	93.75
426.958	87.75
427.18	103.75
427.402	113.75
427.625	172.75
427.847	160.75
428.069	170.75
428.292	94.75
428.514	83.75
428.736	79.75
428.958	93.75
429.181	86.75
429.403	90.75
429.625	104.75
429.847	97.75
430.069	94.75
430.292	97.75
430.514	98.75
430.736	93.75
430.958	84.75
431.18	81.75
431.402	86.75
431.624	83.75
431.846	81.75
432.068	78.75
432.29	81.75
432.512	77.75
432.734	86.75
432.956	96.75
433.178	98.75
433.4	99.75
433.622	95.75
433.844	84.75
434.066	89.75
434.287	90.75
434.509	87.75
434.731	77.75
434.953	83.75
435.175	75.75
435.397	92.75
435.618	91.75
435.84	105.75
436.062	112.75
436.284	123.75
436.505	98.75
436.727	86.75
436.949	90.75
437.17	103.75
437.392	96.75
437.614	73.75
437.835	120.75
438.057	114.75
438.278	117.75
438.5	95.75
438.721	127.75
438.943	98.75
439.165	86.75
439.386	79.75
439.608	87.75
439.829	106.75
440.05	119.75
440.272	166.75
440.493	101.75
440.715	79.75
440.936	86.75
441.158	76.75
441.379	89.75
441.6	87.75
441.822	92.75
442.043	95.75
442.264	110.75
442.486	113.75
442.707	94.75
442.928	107.75
443.149	156.75
443.371	122.75
443.592	114.75
443.813	110.75
444.034	122.75
444.255	90.75
444.476	80.75
444.698	87.75
444.919	90.75
445.14	124.75
445.361	119.75
445.582	113.75
445.803	149.75
446.024	133.75
446.245	144.75
446.466	108.75
446.687	86.75
446.908	99.75
447.129	98.75
447.35	71.75
447.571	84.75
447.792	86.75
448.013	100.75
448.234	98.75
448.455	80.75
448.675	120.75
448.896	128.75
449.117	97.75
449.338	108.75
449.559	133.75
449.779	136.75
450	95.75
450.221	94.75
450.442	96.75
450.662	99.75
450.883	94.75
451.104	113.75
451.324	87.75
451.545	81.75
451.766	89.75
451.986	85.75
452.207	83.75
452.428	80.75
452.648	96.75
452.869	102.75
453.089	108.75
453.31	116.75
453.53	84.75
453.751	77.75
453.971	92.75
454.192	92.75
454.412	94.75
454.633	88.75
454.853	95.75
455.073	74.75
455.294	87.75
455.514	100.75
455.734	92.75
455.955	81.75
456.175	88.75
456.395	98.75
456.616	81.75
456.836	86.75
457.056	85.75
457.276	82.75
457.497	86.75
457.717	71.75
457.937	100.75
458.157	89.75
458.377	94.75
458.598	89.75
458.818	151.75
459.038	165.75
459.258	109.75
459.478	88.75
459.698	95.75
459.918	104.75
460.138	90.75
460.358	76.75
460.578	85.75
460.798	93.75
461.018	90.75
461.238	80.75
461.458	81.75
461.678	96.75
461.898	93.75
462.118	79.75
462.338	87.75
462.558	84.75
462.777	76.75
462.997	87.75
463.217	90.75
463.437	84.75
463.657	76.75
463.876	77.75
464.096	71.75
464.316	96.75
464.536	93.75
464.755	98.75
464.975	103.75
465.195	164.75
465.414	161.75
465.634	90.75
465.854	91.75
466.073	96.75
466.293	83.75
466.512	81.75
466.732	84.75
466.951	84.75
467.171	91.75
467.391	98.75
467.61	112.75
467.829	117.75
468.049	179.75
468.268	263.75
468.488	113.75
468.707	92.75
468.927	87.75
469.146	84.75
469.365	79.75
469.585	85.75
469.804	105.75
470.023	86.75
470.243	100.75
470.462	95.75
470.681	97.75
470.901	93.75
471.12	91.75
471.339	85.75
471.558	91.75
471.777	102.75
471.997	142.75
472.216	310.75
472.435	689.75
472.654	211.75
472.873	115.75
473.092	87.75
473.311	94.75
473.53	93.75
473.749	83.75
473.968	97.75
474.187	108.75
474.406	97.75
474.625	98.75
474.844	88.75
475.063	92.75
475.282	88.75
475.501	82.75
475.72	75.75
475.939	93.75
476.158	83.75
476.377	96.75
476.596	75.75
476.814	100.75
477.033	83.75
477.252	76.75
477.471	89.75
477.69	90.75
477.908	78.75
478.127	87.75
478.346	79.75
478.564	82.75
478.783	77.75
479.002	101.75
479.22	92.75
479.439	91.75
479.658	96.75
479.876	99.75
480.095	77.75
480.313	97.75
480.532	117.75
480.751	119.75
480.969	316.75
481.188	1135.75
481.406	712.75
481.624	169.75
481.843	110.75
482.061	90.75
482.28	81.75
482.498	90.75
482.717	92.75
482.935	79.75
483.153	88.75
483.372	92.75
483.59	88.75
483.808	95.75
484.027	87.75
484.245	75.75
484.463	98.75
484.681	99.75
484.9	83.75
485.118	94.75
485.336	103.75
485.554	96.75
485.772	97.75
485.99	101.75
486.209	119.75
486.427	113.75
486.645	91.75
486.863	116.75
487.081	81.75
487.299	100.75
487.517	107.75
487.735	93.75
487.953	92.75
488.171	100.75
488.389	83.75
488.607	93.75
488.825	95.75
489.043	91.75
489.261	84.75
489.479	98.75
489.696	84.75
489.914	92.75
490.132	95.75
490.35	84.75
490.568	83.75
490.786	80.75
491.003	89.75
491.221	96.75
491.439	94.75
491.657	89.75
491.874	95.75
492.092	82.75
492.31	84.75
492.527	98.75
492.745	79.75
492.963	97.75
493.18	93.75
493.398	101.75
493.615	91.75
493.833	95.75
494.05	91.75
494.268	74.75
494.485	75.75
494.703	75.75
494.92	98.75
495.138	95.75
495.355	98.75
495.573	88.75
495.79	81.75
496.008	81.75
496.225	88.75
496.442	92.75
496.66	88.75
496.877	69.75
497.094	90.75
497.312	89.75
497.529	79.75
497.746	91.75
497.963	72.75
498.181	88.75
498.398	98.75
498.615	115.75
498.832	100.75
499.049	89.75
499.267	97.75
499.484	77.75
499.701	92.75
499.918	102.75
500.135	88.75
500.352	80.75
500.569	92.75
500.786	86.75
501.003	85.75
501.22	78.75
501.437	83.75
501.654	88.75
501.871	98.75
502.088	90.75
502.305	92.75
502.522	95.75
502.739	92.75
502.956	89.75
503.172	90.75
503.389	78.75
503.606	95.75
503.823	98.75
504.04	88.75
504.256	83.75
504.473	101.75
504.69	84.75
504.907	83.75
505.123	98.75
505.34	91.75
505.557	87.75
505.773	86.75
505.99	76.75
506.207	76.75
506.423	93.75
506.64	94.75
506.856	83.75
507.073	84.75
507.289	92.75
507.506	96.75
507.722	129.75
507.939	107.75
508.155	99.75
508.372	88.75
508.588	93.75
508.805	94.75
509.021	100.75
509.238	93.75
509.454	93.75
509.67	93.75
509.887	99.75
510.103	107.75
510.319	194.75
510.536	599.75
510.752	1956.75
510.968	578.75
511.184	143.75
511.401	117.75
511.617	104.75
511.833	83.75
512.049	87.75
512.265	76.75
512.481	90.75
512.698	85.75
512.914	95.75
513.13	89.75
513.346	88.75
513.562	87.75
513.778	107.75
513.994	103.75
514.21	106.75
514.426	110.75
514.642	130.75
514.858	103.75
515.074	165.75
515.29	417.75
515.506	1351.75
515.721	490.75
515.937	146.75
516.153	107.75
516.369	99.75
516.585	92.75
516.801	84.75
517.016	98.75
517.232	94.75
517.448	92.75
517.664	100.75
517.879	93.75
518.095	87.75
518.311	95.75
518.527	92.75
518.742	92.75
518.958	95.75
519.173	85.75
519.389	85.75
519.605	86.75
519.82	99.75
520.036	90.75
520.251	114.75
520.467	101.75
520.682	106.75
520.898	102.75
521.113	101.75
521.329	124.75
521.544	191.75
521.76	509.75
521.975	2237.75
522.19	1363.75
522.406	293.75
522.621	118.75
522.836	118.75
523.052	97.75
523.267	90.75
523.482	99.75
523.698	100.75
523.913	117.75
524.128	102.75
524.343	91.75
524.559	100.75
524.774	85.75
524.989	89.75
525.204	117.75
525.419	91.75
525.634	77.75
525.849	89.75
526.064	96.75
526.28	95.75
526.495	85.75
526.71	82.75
526.925	92.75
527.14	87.75
527.355	99.75
527.57	75.75
527.785	94.75
527.999	89.75
528.214	89.75
528.429	89.75
528.644	87.75
528.859	84.75
529.074	99.75
529.289	131.75
529.503	176.75
529.718	98.75
529.933	84.75
530.148	86.75
530.363	101.75
530.577	88.75
530.792	91.75
531.007	89.75
531.221	92.75
531.436	85.75
531.651	100.75
531.865	94.75
532.08	77.75
532.295	89.75
532.509	88.75
532.724	95.75
532.938	99.75
533.153	77.75
533.367	78.75
533.582	87.75
533.796	92.75
534.011	85.75
534.225	90.75
534.44	99.75
534.654	93.75
534.868	76.75
535.083	89.75
535.297	84.75
535.511	97.75
535.726	105.75
535.94	118.75
536.154	86.75
536.369	83.75
536.583	75.75
536.797	84.75
537.011	74.75
537.225	99.75
537.44	79.75
537.654	82.75
537.868	85.75
538.082	89.75
538.296	84.75
538.51	97.75
538.724	82.75
538.938	90.75
539.153	93.75
539.367	107.75
539.581	95.75
539.795	90.75
540.009	84.75
540.222	84.75
540.436	83.75
540.65	76.75
540.864	94.75
541.078	92.75
541.292	86.75
541.506	92.75
541.72	90.75
541.934	74.75
542.147	76.75
542.361	89.75
542.575	89.75
542.789	92.75
543.002	81.75
543.216	85.75
543.43	101.75
543.644	103.75
543.857	94.75
544.071	82.75
544.285	80.75
544.498	91.75
544.712	92.75
544.925	81.75
545.139	83.75
545.352	76.75
545.566	88.75
545.779	81.75
545.993	90.75
546.206	88.75
546.42	73.75
546.633	89.75
546.847	86.75
547.06	79.75
547.274	95.75
547.487	77.75
547.7	84.75
547.914	82.75
548.127	83.75
548.34	81.75
548.554	92.75
548.767	92.75
548.98	91.75
549.193	74.75
549.407	90.75
549.62	87.75
549.833	91.75
550.046	87.75
550.259	78.75
550.473	79.75
550.686	76.75
550.899	85.75
551.112	83.75
551.325	89.75
551.538	91.75
551.751	87.75
551.964	66.75
552.177	96.75
552.39	85.75
552.603	103.75
552.816	92.75
553.029	91.75
553.242	89.75
553.455	97.75
553.667	91.75
553.88	91.75
554.093	101.75
554.306	93.75
554.519	94.75
554.732	90.75
554.944	105.75
555.157	101.75
555.37	78.75
555.583	86.75
555.795	82.75
556.008	90.75
556.221	84.75
556.433	84.75
556.646	92.75
556.859	83.75
557.071	93.75
557.284	93.75
557.496	86.75
557.709	69.75
557.921	79.75
558.134	75.75
558.346	65.75
558.559	73.75
558.771	71.75
558.984	79.75
559.196	73.75
559.409	89.75
559.621	99.75
559.833	91.75
560.046	95.75
560.258	99.75
560.47	99.75
560.683	87.75
560.895	88.75
561.107	90.75
561.32	69.75
561.532	69.75
561.744	81.75
561.956	75.75
562.168	79.75
562.381	97.75
562.593	99.75
562.805	82.75
563.017	89.75
563.229	91.75
563.441	75.75
563.653	85.75
563.865	86.75
564.077	88.75
564.289	105.75
564.501	97.75
564.713	84.75
564.925	90.75
565.137	93.75
565.349	83.75
565.561	85.75
565.773	98.75
565.985	84.75
566.197	90.75
566.408	95.75
566.62	73.75
566.832	87.75
567.044	84.75
567.255	79.75
567.467	82.75
567.679	85.75
567.891	81.75
568.102	97.75
568.314	83.75
568.526	86.75
568.737	104.75
568.949	81.75
569.161	85.75
569.372	77.75
569.584	92.75
569.795	93.75
570.007	108.75
570.218	205.75
570.43	116.75
570.641	106.75
570.853	99.75
571.064	83.75
571.276	82.75
571.487	85.75
571.698	81.75
571.91	83.75
572.121	94.75
572.333	79.75
572.544	81.75
572.755	83.75
572.966	86.75
573.178	97.75
573.389	83.75
573.6	97.75
573.811	85.75
574.023	102.75
574.234	86.75
574.445	86.75
574.656	85.75
574.867	82.75
575.078	78.75
575.289	76.75
575.501	86.75
575.712	87.75
575.923	87.75
576.134	83.75
576.345	84.75
576.556	76.75
576.767	78.75
576.978	91.75
577.188	84.75
577.399	87.75
577.61	95.75
577.821	100.75
578.032	101.75
578.243	220.75
578.454	598.75
578.665	166.75
578.875	95.75
579.086	91.75
579.297	90.75
579.508	88.75
579.718	93.75
579.929	89.75
580.14	81.75
580.35	80.75
580.561	69.75
580.772	93.75
580.982	87.75
581.193	90.75
581.403	79.75
581.614	69.75
581.825	97.75
582.035	98.75
582.246	90.75
582.456	84.75
582.667	79.75
582.877	77.75
583.087	86.75
583.298	96.75
583.508	78.75
583.719	99.75
583.929	72.75
584.139	96.75
584.35	78.75
584.56	98.75
584.77	79.75
584.981	84.75
585.191	90.75
585.401	90.75
585.611	90.75
585.821	99.75
586.032	93.75
586.242	82.75
586.452	89.75
586.662	80.75
586.872	79.75
587.082	85.75
587.292	82.75
587.502	84.75
587.713	88.75
587.923	87.75
588.133	88.75
588.343	97.75
588.553	97.75
588.762	93.75
588.972	130.75
589.182	372.75
589.392	185.75
589.602	141.75
589.812	264.75
590.022	137.75
590.232	97.75
590.441	84.75
590.651	79.75
590.861	79.75
591.071	91.75
591.281	85.75
591.49	93.75
591.7	87.75
591.91	95.75
592.119	94.75
592.329	86.75
592.539	100.75
592.748	81.75
592.958	97.75
593.167	75.75
593.377	86.75
593.587	92.75
593.796	76.75
594.006	91.75
594.215	77.75
594.424	86.75
594.634	84.75
594.843	80.75
595.053	85.75
595.262	96.75
595.472	77.75
595.681	91.75
595.89	87.75
596.1	90.75
596.309	81.75
596.518	81.75
596.727	81.75
596.937	68.75
597.146	79.75
597.355	84.75
597.564	96.75
597.774	92.75
597.983	81.75
598.192	96.75
598.401	87.75
598.61	83.75
598.819	84.75
599.028	88.75
599.237	98.75
599.446	76.75
599.655	107.75
599.864	81.75
600.073	83.75
600.282	85.75
600.491	82.75
600.7	91.75
600.909	88.75
601.118	85.75
601.327	72.75
601.536	91.75
601.745	75.75
601.953	85.75
602.162	90.75
602.371	84.75
602.58	91.75
602.789	84.75
602.997	76.75
603.206	84.75
603.415	66.75
603.623	72.75
603.832	89.75
604.041	96.75
604.249	84.75
604.458	77.75
604.666	73.75
604.875	63.75
605.084	81.75
605.292	79.75
605.501	85.75
605.709	73.75
605.918	82.75
606.126	73.75
606.334	97.75
606.543	87.75
606.751	77.75
606.96	86.75
607.168	90.75
607.376	81.75
607.585	87.75
607.793	89.75
608.001	79.75
608.21	85.75
608.418	79.75
608.626	65.75
608.834	76.75
609.043	94.75
609.251	87.75
609.459	89.75
609.667	87.75
609.875	84.75
610.083	90.75
610.291	82.75
610.499	86.75
610.707	86.75
610.916	85.75
611.124	86.75
611.332	87.75
611.54	85.75
611.748	87.75
611.955	82.75
612.163	83.75
612.371	89.75
612.579	77.75
612.787	87.75
612.995	92.75
613.203	59.75
613.411	87.75
613.618	80.75
613.826	84.75
614.034	93.75
614.242	90.75
614.449	75.75
614.657	76.75
614.865	79.75
615.072	81.75
615.28	88.75
615.488	79.75
615.695	84.75
615.903	66.75
616.111	83.75
616.318	97.75
616.526	97.75
616.733	95.75
616.941	81.75
617.148	96.75
617.356	75.75
617.563	91.75
617.771	82.75
617.978	74.75
618.185	84.75
618.393	85.75
618.6	81.75
618.807	78.75
619.015	77.75
619.222	100.75
619.429	84.75
619.637	96.75
619.844	87.75
620.051	83.75
620.258	89.75
620.466	92.75
620.673	91.75
620.88	81.75
621.087	77.75
621.294	88.75
621.501	75.75
621.708	84.75
621.915	90.75
622.122	88.75
622.329	89.75
622.536	85.75
622.743	76.75
622.95	87.75
623.157	73.75
623.364	85.75
623.571	84.75
623.778	82.75
623.985	81.75
624.192	68.75
624.399	84.75
624.606	84.75
624.812	75.75
625.019	74.75
625.226	76.75
625.433	87.75
625.639	67.75
625.846	74.75
626.053	80.75
626.259	82.75
626.466	80.75
626.673	75.75
626.879	83.75
627.086	80.75
627.293	87.75
627.499	75.75
627.706	91.75
627.912	97.75
628.119	82.75
628.325	83.75
628.532	79.75
628.738	81.75
628.945	86.75
629.151	90.75
629.357	69.75
629.564	69.75
629.77	85.75
629.976	79.75
630.183	90.75
630.389	81.75
630.595	85.75
630.802	88.75
631.008	90.75
631.214	78.75
631.42	90.75
631.627	79.75
631.833	68.75
632.039	89.75
632.245	84.75
632.451	81.75
632.657	87.75
632.863	86.75
633.069	74.75
633.275	83.75
633.481	81.75
633.688	77.75
633.893	81.75
634.099	82.75
634.305	86.75
634.511	72.75
634.717	82.75
634.923	85.75
635.129	84.75
635.335	84.75
635.541	100.75
635.747	95.75
635.952	92.75
636.158	87.75
636.364	150.75
636.57	135.75
636.775	93.75
636.981	93.75
637.187	76.75
637.392	98.75
637.598	86.75
637.804	82.75
638.009	98.75
638.215	87.75
638.421	87.75
638.626	84.75
638.832	75.75
639.037	88.75
639.243	100.75
639.448	88.75
639.654	66.75
639.859	79.75
640.065	75.75
640.27	89.75
640.475	87.75
640.681	82.75
640.886	68.75
641.091	92.75
641.297	91.75
641.502	81.75
641.707	97.75
641.913	92.75
642.118	72.75
642.323	83.75
642.528	75.75
642.733	84.75
642.939	94.75
643.144	83.75
643.349	73.75
643.554	86.75
643.759	81.75
643.964	65.75
644.169	85.75
644.374	77.75
644.579	76.75
644.784	83.75
644.989	85.75
645.194	97.75
645.399	85.75
645.604	78.75
645.809	80.75
646.014	92.75
646.219	88.75
646.423	85.75
646.628	98.75
646.833	94.75
647.038	79.75
647.243	85.75
647.447	92.75
647.652	76.75
647.857	92.75
648.062	71.75
648.266	102.75
648.471	84.75
648.676	86.75
648.88	99.75
649.085	93.75
649.289	95.75
649.494	103.75
649.698	130.75
649.903	99.75
650.107	98.75
650.312	92.75
650.516	93.75
650.721	88.75
650.925	74.75
651.13	76.75
651.334	82.75
651.539	76.75
651.743	84.75
651.947	89.75
652.152	81.75
652.356	75.75
652.56	81.75
652.764	87.75
652.969	77.75
653.173	83.75
653.377	74.75
653.581	75.75
653.785	94.75
653.99	67.75
654.194	87.75
654.398	78.75
654.602	66.75
654.806	75.75
655.01	100.75
655.214	75.75
655.418	84.75
655.622	89.75
655.826	75.75
656.03	96.75
656.234	95.75
656.438	93.75
656.642	100.75
656.846	96.75
657.049	90.75
657.253	93.75
657.457	63.75
657.661	71.75
657.865	71.75
658.068	82.75
658.272	81.75
658.476	90.75
658.68	75.75
658.883	79.75
659.087	81.75
659.291	84.75
659.494	82.75
659.698	87.75
659.901	78.75
660.105	87.75
660.309	87.75
660.512	88.75
660.716	78.75
660.919	72.75
661.123	87.75
661.326	74.75
661.53	75.75
661.733	79.75
661.936	75.75
662.14	82.75
662.343	84.75
662.546	88.75
662.75	75.75
662.953	97.75
663.156	76.75
663.36	96.75
663.563	77.75
663.766	73.75
663.969	82.75
664.173	91.75
664.376	79.75
664.579	89.75
664.782	80.75
664.985	73.75
665.188	81.75
665.391	84.75
665.594	78.75
665.797	79.75
666	84.75
666.203	68.75
666.406	80.75
666.609	71.75
666.812	70.75
667.015	91.75
667.218	77.75
667.421	88.75
667.624	82.75
667.827	83.75
668.03	70.75
668.232	81.75
668.435	75.75
668.638	89.75
668.841	87.75
669.043	78.75
669.246	69.75
669.449	85.75
669.651	87.75
669.854	80.75
670.057	87.75
670.259	84.75
670.462	85.75
670.665	71.75
670.867	65.75
671.07	74.75
671.272	87.75
671.475	91.75
671.677	72.75
671.88	72.75
672.082	89.75
672.284	80.75
672.487	83.75
672.689	81.75
672.892	94.75
