Data from Uncirc_1998_H10_HRD10591_00084.txt Node
Date: Wed Jan 03 11:25:41 EST 2024
User: Yrep
Spectrometer: HR+D1059
Trigger mode: 1
Integration Time (sec): 1.000000E-1
Scans to average: 1
Electric dark correction enabled: true
Nonlinearity correction enabled: false
Boxcar width: 0
XAxis mode: Wavelengths
Number of Pixels in Spectrum: 2048
>>>>>Begin Spectral Data<<<<<
223.165	-11.88
223.4	-11.88
223.635	-11.88
223.869	-17.88
224.104	-24.88
224.338	-13.88
224.573	-0.88
224.808	-15.88
225.042	-24.88
225.277	4.12
225.511	-0.88
225.746	-5.88
225.98	12.12
226.215	9.12
226.449	22.12
226.683	26.12
226.918	2.12
227.152	41.12
227.387	41.12
227.621	42.12
227.856	42.12
228.09	54.12
228.324	61.12
228.559	51.12
228.793	53.12
229.027	61.12
229.262	64.12
229.496	66.12
229.73	91.12
229.964	73.12
230.199	82.12
230.433	70.12
230.667	78.12
230.901	83.12
231.136	76.12
231.37	78.12
231.604	78.12
231.838	71.12
232.072	83.12
232.306	86.12
232.541	79.12
232.775	83.12
233.009	70.12
233.243	88.12
233.477	83.12
233.711	88.12
233.945	88.12
234.179	77.12
234.413	74.12
234.647	73.12
234.881	78.12
235.115	76.12
235.349	81.12
235.583	73.12
235.817	84.12
236.051	95.12
236.285	85.12
236.519	63.12
236.753	83.12
236.987	75.12
237.221	79.12
237.455	93.12
237.689	78.12
237.922	87.12
238.156	77.12
238.39	66.12
238.624	85.12
238.858	96.12
239.091	81.12
239.325	88.12
239.559	75.12
239.793	66.12
240.027	79.12
240.26	69.12
240.494	88.12
240.728	56.12
240.961	79.12
241.195	69.12
241.429	74.12
241.662	78.12
241.896	80.12
242.13	67.12
242.363	79.12
242.597	59.12
242.83	79.12
243.064	71.12
243.298	80.12
243.531	88.12
243.765	94.12
243.998	74.12
244.232	89.12
244.465	84.12
244.699	73.12
244.932	75.12
245.166	77.12
245.399	64.12
245.633	103.12
245.866	61.12
246.099	79.12
246.333	77.12
246.566	65.12
246.8	88.12
247.033	73.12
247.266	77.12
247.5	74.12
247.733	91.12
247.966	76.12
248.2	87.12
248.433	75.12
248.666	74.12
248.899	92.12
249.133	100.12
249.366	103.12
249.599	90.12
249.832	75.12
250.066	71.12
250.299	95.12
250.532	77.12
250.765	81.12
250.998	90.12
251.231	95.12
251.465	86.12
251.698	88.12
251.931	87.12
252.164	73.12
252.397	90.12
252.63	70.12
252.863	73.12
253.096	77.12
253.329	82.12
253.562	71.12
253.795	72.12
254.028	81.12
254.261	80.12
254.494	80.12
254.727	89.12
254.96	86.12
255.193	90.12
255.426	82.12
255.659	77.12
255.892	79.12
256.124	78.12
256.357	76.12
256.59	84.12
256.823	69.12
257.056	80.12
257.289	64.12
257.521	83.12
257.754	79.12
257.987	79.12
258.22	101.12
258.452	75.12
258.685	82.12
258.918	80.12
259.151	84.12
259.383	67.12
259.616	85.12
259.849	75.12
260.081	77.12
260.314	88.12
260.547	80.12
260.779	78.12
261.012	84.12
261.244	78.12
261.477	78.12
261.71	92.12
261.942	105.12
262.175	104.12
262.407	80.12
262.64	76.12
262.872	80.12
263.105	78.12
263.337	70.12
263.57	66.12
263.802	84.12
264.035	80.12
264.267	74.12
264.499	79.12
264.732	80.12
264.964	76.12
265.197	86.12
265.429	80.12
265.661	91.12
265.894	81.12
266.126	101.12
266.358	95.12
266.591	80.12
266.823	83.12
267.055	90.12
267.287	89.12
267.52	70.12
267.752	87.12
267.984	96.12
268.216	78.12
268.448	87.12
268.681	95.12
268.913	79.12
269.145	86.12
269.377	89.12
269.609	87.12
269.841	81.12
270.073	79.12
270.306	90.12
270.538	89.12
270.77	88.12
271.002	80.12
271.234	76.12
271.466	93.12
271.698	83.12
271.93	83.12
272.162	96.12
272.394	89.12
272.626	87.12
272.858	78.12
273.09	81.12
273.322	75.12
273.553	91.12
273.785	97.12
274.017	92.12
274.249	89.12
274.481	85.12
274.713	69.12
274.945	79.12
275.176	88.12
275.408	91.12
275.64	89.12
275.872	84.12
276.104	86.12
276.335	85.12
276.567	89.12
276.799	96.12
277.031	90.12
277.262	83.12
277.494	85.12
277.726	91.12
277.957	76.12
278.189	79.12
278.421	82.12
278.652	98.12
278.884	88.12
279.115	96.12
279.347	84.12
279.579	81.12
279.81	85.12
280.042	91.12
280.273	103.12
280.505	90.12
280.736	86.12
280.968	79.12
281.199	65.12
281.431	93.12
281.662	96.12
281.894	90.12
282.125	97.12
282.356	99.12
282.588	124.12
282.819	89.12
283.051	77.12
283.282	85.12
283.513	86.12
283.745	90.12
283.976	82.12
284.207	72.12
284.439	86.12
284.67	95.12
284.901	81.12
285.132	86.12
285.364	81.12
285.595	77.12
285.826	89.12
286.057	85.12
286.288	87.12
286.52	97.12
286.751	96.12
286.982	92.12
287.213	86.12
287.444	89.12
287.675	93.12
287.906	101.12
288.138	101.12
288.369	84.12
288.6	97.12
288.831	94.12
289.062	86.12
289.293	94.12
289.524	87.12
289.755	86.12
289.986	96.12
290.217	82.12
290.448	85.12
290.679	91.12
290.91	95.12
291.141	86.12
291.371	82.12
291.602	95.12
291.833	99.12
292.064	87.12
292.295	90.12
292.526	87.12
292.757	93.12
292.987	86.12
293.218	85.12
293.449	92.12
293.68	86.12
293.91	104.12
294.141	81.12
294.372	86.12
294.603	85.12
294.833	87.12
295.064	79.12
295.295	96.12
295.525	95.12
295.756	91.12
295.987	119.12
296.217	128.12
296.448	139.12
296.679	96.12
296.909	94.12
297.14	78.12
297.37	102.12
297.601	94.12
297.831	90.12
298.062	87.12
298.292	91.12
298.523	78.12
298.753	85.12
298.984	80.12
299.214	83.12
299.445	97.12
299.675	88.12
299.905	85.12
300.136	95.12
300.366	93.12
300.597	93.12
300.827	89.12
301.057	98.12
301.288	107.12
301.518	115.12
301.748	88.12
301.979	101.12
302.209	89.12
302.439	81.12
302.669	109.12
302.9	89.12
303.13	89.12
303.36	92.12
303.59	101.12
303.82	91.12
304.051	103.12
304.281	92.12
304.511	91.12
304.741	87.12
304.971	94.12
305.201	89.12
305.431	88.12
305.661	87.12
305.891	94.12
306.121	100.12
306.352	86.12
306.582	100.12
306.812	94.12
307.042	83.12
307.272	80.12
307.502	104.12
307.731	86.12
307.961	106.12
308.191	98.12
308.421	101.12
308.651	90.12
308.881	90.12
309.111	93.12
309.341	98.12
309.571	95.12
309.8	107.12
310.03	96.12
310.26	107.12
310.49	96.12
310.72	103.12
310.949	85.12
311.179	109.12
311.409	104.12
311.639	94.12
311.868	111.12
312.098	89.12
312.328	91.12
312.557	97.12
312.787	106.12
313.017	90.12
313.246	91.12
313.476	96.12
313.706	112.12
313.935	102.12
314.165	105.12
314.394	104.12
314.624	102.12
314.853	94.12
315.083	87.12
315.312	95.12
315.542	97.12
315.771	93.12
316.001	109.12
316.23	92.12
316.46	93.12
316.689	82.12
316.919	93.12
317.148	101.12
317.377	94.12
317.607	93.12
317.836	100.12
318.065	96.12
318.295	99.12
318.524	103.12
318.753	88.12
318.983	83.12
319.212	94.12
319.441	95.12
319.67	102.12
319.9	81.12
320.129	89.12
320.358	90.12
320.587	112.12
320.816	97.12
321.046	105.12
321.275	104.12
321.504	93.12
321.733	115.12
321.962	101.12
322.191	116.12
322.42	98.12
322.649	107.12
322.878	105.12
323.108	96.12
323.337	113.12
323.566	126.12
323.795	143.12
324.024	186.12
324.253	365.12
324.482	775.12
324.71	1602.12
324.939	2049.12
325.168	789.12
325.397	240.12
325.626	141.12
325.855	121.12
326.084	128.12
326.313	122.12
326.542	153.12
326.77	218.12
326.999	447.12
327.228	883.12
327.457	1616.12
327.686	1282.12
327.914	365.12
328.143	194.12
328.372	149.12
328.6	125.12
328.829	110.12
329.058	127.12
329.287	103.12
329.515	112.12
329.744	73.12
329.972	87.12
330.201	109.12
330.43	112.12
330.658	117.12
330.887	146.12
331.115	111.12
331.344	88.12
331.572	89.12
331.801	100.12
332.03	117.12
332.258	102.12
332.486	104.12
332.715	87.12
332.943	94.12
333.172	94.12
333.4	78.12
333.629	119.12
333.857	118.12
334.085	105.12
334.314	82.12
334.542	111.12
334.771	114.12
334.999	96.12
335.227	94.12
335.455	98.12
335.684	94.12
335.912	96.12
336.14	90.12
336.369	87.12
336.597	97.12
336.825	82.12
337.053	80.12
337.281	103.12
337.51	89.12
337.738	97.12
337.966	92.12
338.194	100.12
338.422	101.12
338.65	106.12
338.878	88.12
339.106	91.12
339.334	94.12
339.562	84.12
339.79	83.12
340.018	107.12
340.246	95.12
340.474	93.12
340.702	107.12
340.93	87.12
341.158	76.12
341.386	95.12
341.614	93.12
341.842	94.12
342.07	108.12
342.298	102.12
342.526	79.12
342.754	96.12
342.981	96.12
343.209	88.12
343.437	82.12
343.665	87.12
343.893	84.12
344.12	81.12
344.348	93.12
344.576	90.12
344.804	90.12
345.031	86.12
345.259	81.12
345.487	94.12
345.714	82.12
345.942	105.12
346.17	94.12
346.397	93.12
346.625	97.12
346.853	83.12
347.08	86.12
347.308	90.12
347.535	94.12
347.763	91.12
347.99	91.12
348.218	116.12
348.445	111.12
348.673	99.12
348.9	99.12
349.128	91.12
349.355	91.12
349.583	94.12
349.81	89.12
350.037	95.12
350.265	98.12
350.492	102.12
350.72	84.12
350.947	103.12
351.174	111.12
351.402	101.12
351.629	101.12
351.856	93.12
352.083	110.12
352.311	92.12
352.538	108.12
352.765	93.12
352.992	103.12
353.22	122.12
353.447	89.12
353.674	95.12
353.901	80.12
354.128	89.12
354.355	91.12
354.583	97.12
354.81	107.12
355.037	102.12
355.264	98.12
355.491	95.12
355.718	90.12
355.945	81.12
356.172	84.12
356.399	82.12
356.626	87.12
356.853	94.12
357.08	97.12
357.307	86.12
357.534	92.12
357.761	98.12
357.988	102.12
358.215	98.12
358.441	93.12
358.668	90.12
358.895	101.12
359.122	85.12
359.349	80.12
359.576	84.12
359.802	98.12
360.029	99.12
360.256	106.12
360.483	89.12
360.709	91.12
360.936	83.12
361.163	96.12
361.39	107.12
361.616	94.12
361.843	90.12
362.07	86.12
362.296	79.12
362.523	81.12
362.749	89.12
362.976	92.12
363.203	91.12
363.429	86.12
363.656	81.12
363.882	83.12
364.109	105.12
364.335	87.12
364.562	90.12
364.788	90.12
365.015	96.12
365.241	97.12
365.468	110.12
365.694	105.12
365.92	101.12
366.147	86.12
366.373	110.12
366.599	92.12
366.826	84.12
367.052	82.12
367.278	74.12
367.505	96.12
367.731	89.12
367.957	89.12
368.184	96.12
368.41	104.12
368.636	97.12
368.862	116.12
369.089	117.12
369.315	94.12
369.541	86.12
369.767	96.12
369.993	82.12
370.219	81.12
370.445	94.12
370.672	88.12
370.898	97.12
371.124	98.12
371.35	94.12
371.576	91.12
371.802	105.12
372.028	102.12
372.254	97.12
372.48	85.12
372.706	95.12
372.932	93.12
373.158	88.12
373.384	86.12
373.61	95.12
373.835	88.12
374.061	102.12
374.287	85.12
374.513	85.12
374.739	105.12
374.965	98.12
375.191	90.12
375.416	93.12
375.642	79.12
375.868	98.12
376.094	108.12
376.319	109.12
376.545	94.12
376.771	93.12
376.997	94.12
377.222	76.12
377.448	84.12
377.674	97.12
377.899	93.12
378.125	92.12
378.35	93.12
378.576	80.12
378.802	85.12
379.027	79.12
379.253	90.12
379.478	92.12
379.704	89.12
379.929	94.12
380.155	99.12
380.38	100.12
380.606	89.12
380.831	82.12
381.057	99.12
381.282	93.12
381.507	89.12
381.733	87.12
381.958	88.12
382.184	100.12
382.409	92.12
382.634	95.12
382.86	104.12
383.085	106.12
383.31	102.12
383.535	99.12
383.761	98.12
383.986	83.12
384.211	91.12
384.436	98.12
384.662	93.12
384.887	88.12
385.112	97.12
385.337	93.12
385.562	98.12
385.787	90.12
386.013	98.12
386.238	113.12
386.463	99.12
386.688	111.12
386.913	95.12
387.138	99.12
387.363	97.12
387.588	113.12
387.813	103.12
388.038	99.12
388.263	96.12
388.488	105.12
388.713	92.12
388.938	91.12
389.163	82.12
389.387	100.12
389.612	93.12
389.837	91.12
390.062	93.12
390.287	96.12
390.512	77.12
390.736	82.12
390.961	95.12
391.186	87.12
391.411	79.12
391.636	97.12
391.86	93.12
392.085	89.12
392.31	82.12
392.534	88.12
392.759	81.12
392.984	94.12
393.208	89.12
393.433	94.12
393.658	63.12
393.882	70.12
394.107	84.12
394.331	92.12
394.556	95.12
394.78	95.12
395.005	94.12
395.229	87.12
395.454	81.12
395.678	86.12
395.903	93.12
396.127	86.12
396.352	89.12
396.576	93.12
396.801	87.12
397.025	79.12
397.249	91.12
397.474	95.12
397.698	81.12
397.922	90.12
398.147	95.12
398.371	85.12
398.595	77.12
398.82	95.12
399.044	95.12
399.268	109.12
399.492	86.12
399.717	90.12
399.941	81.12
400.165	94.12
400.389	74.12
400.613	72.12
400.837	81.12
401.062	79.12
401.286	90.12
401.51	87.12
401.734	91.12
401.958	103.12
402.182	134.12
402.406	152.12
402.63	106.12
402.854	94.12
403.078	80.12
403.302	93.12
403.526	81.12
403.75	81.12
403.974	86.12
404.198	82.12
404.422	77.12
404.645	94.12
404.869	87.12
405.093	94.12
405.317	106.12
405.541	98.12
405.765	89.12
405.988	105.12
406.212	154.12
406.436	188.12
406.66	121.12
406.883	93.12
407.107	82.12
407.331	97.12
407.555	104.12
407.778	90.12
408.002	70.12
408.226	91.12
408.449	85.12
408.673	75.12
408.896	103.12
409.12	94.12
409.344	95.12
409.567	93.12
409.791	93.12
410.014	79.12
410.238	70.12
410.461	81.12
410.685	103.12
410.908	93.12
411.132	114.12
411.355	93.12
411.578	88.12
411.802	85.12
412.025	92.12
412.249	103.12
412.472	75.12
412.695	81.12
412.919	85.12
413.142	71.12
413.365	93.12
413.589	85.12
413.812	97.12
414.035	95.12
414.258	84.12
414.482	94.12
414.705	89.12
414.928	86.12
415.151	91.12
415.374	88.12
415.597	96.12
415.821	74.12
416.044	91.12
416.267	83.12
416.49	92.12
416.713	89.12
416.936	94.12
417.159	86.12
417.382	105.12
417.605	98.12
417.828	76.12
418.051	95.12
418.274	80.12
418.497	86.12
418.72	85.12
418.943	84.12
419.166	91.12
419.389	88.12
419.611	90.12
419.834	84.12
420.057	93.12
420.28	83.12
420.503	89.12
420.726	83.12
420.948	92.12
421.171	88.12
421.394	85.12
421.617	86.12
421.839	91.12
422.062	93.12
422.285	105.12
422.507	101.12
422.73	101.12
422.953	93.12
423.175	100.12
423.398	86.12
423.621	97.12
423.843	94.12
424.066	78.12
424.288	89.12
424.511	105.12
424.733	79.12
424.956	113.12
425.178	104.12
425.401	93.12
425.623	112.12
425.846	87.12
426.068	88.12
426.291	89.12
426.513	82.12
426.735	72.12
426.958	86.12
427.18	91.12
427.402	130.12
427.625	144.12
427.847	117.12
428.069	106.12
428.292	77.12
428.514	90.12
428.736	83.12
428.958	89.12
429.181	94.12
429.403	103.12
429.625	88.12
429.847	96.12
430.069	96.12
430.292	98.12
430.514	94.12
430.736	90.12
430.958	81.12
431.18	79.12
431.402	97.12
431.624	93.12
431.846	92.12
432.068	77.12
432.29	91.12
432.512	81.12
432.734	80.12
432.956	87.12
433.178	90.12
433.4	87.12
433.622	89.12
433.844	89.12
434.066	82.12
434.287	87.12
434.509	83.12
434.731	89.12
434.953	96.12
435.175	91.12
435.397	97.12
435.618	85.12
435.84	106.12
436.062	110.12
436.284	119.12
436.505	100.12
436.727	94.12
436.949	96.12
437.17	77.12
437.392	77.12
437.614	98.12
437.835	112.12
438.057	102.12
438.278	99.12
438.5	107.12
438.721	119.12
438.943	93.12
439.165	85.12
439.386	96.12
439.608	94.12
439.829	93.12
440.05	125.12
440.272	137.12
440.493	97.12
440.715	95.12
440.936	87.12
441.158	88.12
441.379	81.12
441.6	83.12
441.822	100.12
442.043	97.12
442.264	96.12
442.486	90.12
442.707	94.12
442.928	100.12
443.149	136.12
443.371	118.12
443.592	111.12
443.813	94.12
444.034	107.12
444.255	89.12
444.476	89.12
444.698	95.12
444.919	97.12
445.14	130.12
445.361	136.12
445.582	117.12
445.803	127.12
446.024	123.12
446.245	140.12
446.466	113.12
446.687	79.12
446.908	98.12
447.129	87.12
447.35	93.12
447.571	98.12
447.792	87.12
448.013	92.12
448.234	95.12
448.455	106.12
448.675	114.12
448.896	114.12
449.117	93.12
449.338	87.12
449.559	126.12
449.779	127.12
450	105.12
450.221	90.12
450.442	101.12
450.662	92.12
450.883	118.12
451.104	118.12
451.324	94.12
451.545	74.12
451.766	88.12
451.986	83.12
452.207	91.12
452.428	89.12
452.648	92.12
452.869	101.12
453.089	106.12
453.31	102.12
453.53	80.12
453.751	95.12
453.971	95.12
454.192	112.12
454.412	94.12
454.633	99.12
454.853	97.12
455.073	78.12
455.294	87.12
455.514	96.12
455.734	101.12
455.955	79.12
456.175	90.12
456.395	97.12
456.616	82.12
456.836	84.12
457.056	92.12
457.276	86.12
457.497	99.12
457.717	89.12
457.937	82.12
458.157	102.12
458.377	103.12
458.598	97.12
458.818	117.12
459.038	146.12
459.258	120.12
459.478	102.12
459.698	94.12
459.918	96.12
460.138	82.12
460.358	72.12
460.578	82.12
460.798	84.12
461.018	87.12
461.238	82.12
461.458	98.12
461.678	92.12
461.898	91.12
462.118	90.12
462.338	94.12
462.558	92.12
462.777	73.12
462.997	89.12
463.217	90.12
463.437	89.12
463.657	83.12
463.876	70.12
464.096	90.12
464.316	76.12
464.536	71.12
464.755	85.12
464.975	83.12
465.195	132.12
465.414	138.12
465.634	97.12
465.854	89.12
466.073	85.12
466.293	89.12
466.512	82.12
466.732	90.12
466.951	86.12
467.171	105.12
467.391	88.12
467.61	101.12
467.829	82.12
468.049	97.12
468.268	71.12
468.488	83.12
468.707	74.12
468.927	87.12
469.146	77.12
469.365	81.12
469.585	79.12
469.804	91.12
470.023	86.12
470.243	92.12
470.462	83.12
470.681	94.12
470.901	88.12
471.12	87.12
471.339	87.12
471.558	79.12
471.777	89.12
471.997	84.12
472.216	88.12
472.435	101.12
472.654	93.12
472.873	85.12
473.092	81.12
473.311	79.12
473.53	84.12
473.749	83.12
473.968	85.12
474.187	94.12
474.406	99.12
474.625	90.12
474.844	89.12
475.063	93.12
475.282	85.12
475.501	93.12
475.72	86.12
475.939	65.12
476.158	70.12
476.377	94.12
476.596	99.12
476.814	96.12
477.033	96.12
477.252	106.12
477.471	80.12
477.69	87.12
477.908	87.12
478.127	94.12
478.346	94.12
478.564	109.12
478.783	85.12
479.002	84.12
479.22	106.12
479.439	94.12
479.658	93.12
479.876	89.12
480.095	88.12
480.313	83.12
480.532	89.12
480.751	95.12
480.969	97.12
481.188	110.12
481.406	94.12
481.624	90.12
481.843	100.12
482.061	90.12
482.28	92.12
482.498	94.12
482.717	74.12
482.935	94.12
483.153	98.12
483.372	73.12
483.59	99.12
483.808	77.12
484.027	84.12
484.245	93.12
484.463	85.12
484.681	97.12
484.9	91.12
485.118	103.12
485.336	83.12
485.554	86.12
485.772	95.12
485.99	98.12
486.209	98.12
486.427	87.12
486.645	90.12
486.863	122.12
487.081	101.12
487.299	95.12
487.517	94.12
487.735	88.12
487.953	87.12
488.171	93.12
488.389	89.12
488.607	88.12
488.825	94.12
489.043	89.12
489.261	78.12
489.479	93.12
489.696	76.12
489.914	96.12
490.132	87.12
490.35	91.12
490.568	93.12
490.786	78.12
491.003	97.12
491.221	97.12
491.439	99.12
491.657	92.12
491.874	85.12
492.092	101.12
492.31	100.12
492.527	97.12
492.745	95.12
492.963	99.12
493.18	79.12
493.398	103.12
493.615	94.12
493.833	82.12
494.05	77.12
494.268	78.12
494.485	87.12
494.703	96.12
494.92	82.12
495.138	99.12
495.355	78.12
495.573	96.12
495.79	78.12
496.008	94.12
496.225	92.12
496.442	94.12
496.66	82.12
496.877	80.12
497.094	91.12
497.312	77.12
497.529	88.12
497.746	94.12
497.963	95.12
498.181	116.12
498.398	89.12
498.615	113.12
498.832	100.12
499.049	96.12
499.267	77.12
499.484	97.12
499.701	92.12
499.918	90.12
500.135	79.12
500.352	87.12
500.569	94.12
500.786	90.12
501.003	84.12
501.22	98.12
501.437	71.12
501.654	102.12
501.871	96.12
502.088	104.12
502.305	83.12
502.522	77.12
502.739	89.12
502.956	95.12
503.172	87.12
503.389	90.12
503.606	107.12
503.823	88.12
504.04	81.12
504.256	95.12
504.473	89.12
504.69	94.12
504.907	100.12
505.123	93.12
505.34	107.12
505.557	89.12
505.773	81.12
505.99	103.12
506.207	90.12
506.423	88.12
506.64	99.12
506.856	83.12
507.073	83.12
507.289	87.12
507.506	97.12
507.722	110.12
507.939	116.12
508.155	86.12
508.372	94.12
508.588	96.12
508.805	93.12
509.021	108.12
509.238	99.12
509.454	112.12
509.67	112.12
509.887	108.12
510.103	125.12
510.319	207.12
510.536	679.12
510.752	2064.12
510.968	579.12
511.184	156.12
511.401	96.12
511.617	88.12
511.833	94.12
512.049	98.12
512.265	85.12
512.481	91.12
512.698	96.12
512.914	87.12
513.13	99.12
513.346	98.12
513.562	95.12
513.778	93.12
513.994	98.12
514.21	94.12
514.426	103.12
514.642	120.12
514.858	130.12
515.074	153.12
515.29	405.12
515.506	1231.12
515.721	463.12
515.937	136.12
516.153	109.12
516.369	106.12
516.585	102.12
516.801	94.12
517.016	97.12
517.232	80.12
517.448	91.12
517.664	97.12
517.879	102.12
518.095	82.12
518.311	87.12
518.527	95.12
518.742	103.12
518.958	97.12
519.173	100.12
519.389	96.12
519.605	88.12
519.82	91.12
520.036	113.12
520.251	117.12
520.467	100.12
520.682	107.12
520.898	99.12
521.113	110.12
521.329	128.12
521.544	203.12
521.76	505.12
521.975	2044.12
522.19	1226.12
522.406	273.12
522.621	114.12
522.836	98.12
523.052	91.12
523.267	104.12
523.482	96.12
523.698	101.12
523.913	117.12
524.128	95.12
524.343	107.12
524.559	95.12
524.774	85.12
524.989	88.12
525.204	103.12
525.419	97.12
525.634	95.12
525.849	78.12
526.064	84.12
526.28	85.12
526.495	93.12
526.71	75.12
526.925	79.12
527.14	83.12
527.355	91.12
527.57	91.12
527.785	87.12
527.999	107.12
528.214	99.12
528.429	76.12
528.644	101.12
528.859	79.12
529.074	96.12
529.289	117.12
529.503	141.12
529.718	105.12
529.933	96.12
530.148	98.12
530.363	77.12
530.577	91.12
530.792	87.12
531.007	91.12
531.221	98.12
531.436	82.12
531.651	106.12
531.865	93.12
532.08	86.12
532.295	90.12
532.509	87.12
532.724	94.12
532.938	109.12
533.153	94.12
533.367	88.12
533.582	99.12
533.796	84.12
534.011	85.12
534.225	100.12
534.44	80.12
534.654	97.12
534.868	90.12
535.083	66.12
535.297	73.12
535.511	105.12
535.726	108.12
535.94	93.12
536.154	107.12
536.369	88.12
536.583	77.12
536.797	99.12
537.011	89.12
537.225	85.12
537.44	86.12
537.654	85.12
537.868	88.12
538.082	88.12
538.296	90.12
538.51	97.12
538.724	92.12
538.938	110.12
539.153	94.12
539.367	99.12
539.581	104.12
539.795	95.12
540.009	80.12
540.222	103.12
540.436	82.12
540.65	85.12
540.864	91.12
541.078	88.12
541.292	83.12
541.506	86.12
541.72	85.12
541.934	93.12
542.147	96.12
542.361	80.12
542.575	96.12
542.789	90.12
543.002	89.12
543.216	97.12
543.43	96.12
543.644	108.12
543.857	113.12
544.071	85.12
544.285	89.12
544.498	70.12
544.712	95.12
544.925	88.12
545.139	80.12
545.352	92.12
545.566	82.12
545.779	85.12
545.993	97.12
546.206	98.12
546.42	83.12
546.633	80.12
546.847	92.12
547.06	102.12
547.274	95.12
547.487	102.12
547.7	92.12
547.914	89.12
548.127	83.12
548.34	102.12
548.554	109.12
548.767	90.12
548.98	101.12
549.193	85.12
549.407	74.12
549.62	76.12
549.833	89.12
550.046	77.12
550.259	98.12
550.473	93.12
550.686	88.12
550.899	94.12
551.112	82.12
551.325	95.12
551.538	83.12
551.751	112.12
551.964	91.12
552.177	83.12
552.39	88.12
552.603	87.12
552.816	87.12
553.029	76.12
553.242	87.12
553.455	95.12
553.667	96.12
553.88	99.12
554.093	83.12
554.306	85.12
554.519	99.12
554.732	81.12
554.944	91.12
555.157	83.12
555.37	92.12
555.583	94.12
555.795	90.12
556.008	81.12
556.221	74.12
556.433	90.12
556.646	90.12
556.859	94.12
557.071	91.12
557.284	89.12
557.496	88.12
557.709	88.12
557.921	93.12
558.134	93.12
558.346	100.12
558.559	106.12
558.771	79.12
558.984	97.12
559.196	96.12
559.409	101.12
559.621	109.12
559.833	96.12
560.046	79.12
560.258	86.12
560.47	87.12
560.683	99.12
560.895	81.12
561.107	86.12
561.32	103.12
561.532	110.12
561.744	83.12
561.956	94.12
562.168	91.12
562.381	86.12
562.593	73.12
562.805	82.12
563.017	93.12
563.229	91.12
563.441	88.12
563.653	93.12
563.865	87.12
564.077	95.12
564.289	94.12
564.501	82.12
564.713	85.12
564.925	94.12
565.137	94.12
565.349	98.12
565.561	78.12
565.773	93.12
565.985	89.12
566.197	74.12
566.408	83.12
566.62	87.12
566.832	86.12
567.044	79.12
567.255	95.12
567.467	93.12
567.679	77.12
567.891	94.12
568.102	84.12
568.314	79.12
568.526	85.12
568.737	94.12
568.949	92.12
569.161	85.12
569.372	86.12
569.584	97.12
569.795	106.12
570.007	109.12
570.218	219.12
570.43	126.12
570.641	97.12
570.853	94.12
571.064	91.12
571.276	86.12
571.487	93.12
571.698	102.12
571.91	94.12
572.121	83.12
572.333	88.12
572.544	88.12
572.755	98.12
572.966	83.12
573.178	83.12
573.389	88.12
573.6	99.12
573.811	88.12
574.023	83.12
574.234	105.12
574.445	94.12
574.656	103.12
574.867	100.12
575.078	99.12
575.289	94.12
575.501	82.12
575.712	79.12
575.923	77.12
576.134	93.12
576.345	107.12
576.556	89.12
576.767	80.12
576.978	89.12
577.188	88.12
577.399	91.12
577.61	92.12
577.821	95.12
578.032	109.12
578.243	273.12
578.454	688.12
578.665	193.12
578.875	109.12
579.086	81.12
579.297	98.12
579.508	97.12
579.718	85.12
579.929	90.12
580.14	87.12
580.35	90.12
580.561	75.12
580.772	89.12
580.982	86.12
581.193	91.12
581.403	85.12
581.614	92.12
581.825	88.12
582.035	93.12
582.246	86.12
582.456	78.12
582.667	87.12
582.877	89.12
583.087	91.12
583.298	105.12
583.508	87.12
583.719	101.12
583.929	81.12
584.139	91.12
584.35	90.12
584.56	77.12
584.77	80.12
584.981	81.12
585.191	101.12
585.401	90.12
585.611	93.12
585.821	87.12
586.032	79.12
586.242	88.12
586.452	88.12
586.662	89.12
586.872	88.12
587.082	82.12
587.292	91.12
587.502	81.12
587.713	96.12
587.923	76.12
588.133	82.12
588.343	80.12
588.553	93.12
588.762	94.12
588.972	93.12
589.182	100.12
589.392	85.12
589.602	82.12
589.812	77.12
590.022	87.12
590.232	79.12
590.441	88.12
590.651	81.12
590.861	87.12
591.071	99.12
591.281	91.12
591.49	78.12
591.7	87.12
591.91	94.12
592.119	86.12
592.329	89.12
592.539	80.12
592.748	95.12
592.958	88.12
593.167	73.12
593.377	91.12
593.587	104.12
593.796	89.12
594.006	80.12
594.215	92.12
594.424	83.12
594.634	79.12
594.843	90.12
595.053	95.12
595.262	90.12
595.472	94.12
595.681	76.12
595.89	70.12
596.1	83.12
596.309	85.12
596.518	88.12
596.727	91.12
596.937	99.12
597.146	99.12
597.355	105.12
597.564	91.12
597.774	86.12
597.983	87.12
598.192	93.12
598.401	71.12
598.61	97.12
598.819	88.12
599.028	92.12
599.237	92.12
599.446	90.12
599.655	92.12
599.864	87.12
600.073	67.12
600.282	89.12
600.491	94.12
600.7	98.12
600.909	88.12
601.118	98.12
601.327	103.12
601.536	90.12
601.745	97.12
601.953	91.12
602.162	72.12
602.371	75.12
602.58	91.12
602.789	85.12
602.997	87.12
603.206	96.12
603.415	80.12
603.623	85.12
603.832	67.12
604.041	97.12
604.249	94.12
604.458	93.12
604.666	89.12
604.875	76.12
605.084	77.12
605.292	84.12
605.501	88.12
605.709	89.12
605.918	81.12
606.126	89.12
606.334	87.12
606.543	90.12
606.751	85.12
606.96	80.12
607.168	91.12
607.376	90.12
607.585	92.12
607.793	87.12
608.001	95.12
608.21	83.12
608.418	91.12
608.626	77.12
608.834	93.12
609.043	89.12
609.251	93.12
609.459	78.12
609.667	89.12
609.875	67.12
610.083	98.12
610.291	92.12
610.499	86.12
610.707	87.12
610.916	84.12
611.124	87.12
611.332	89.12
611.54	72.12
611.748	81.12
611.955	80.12
612.163	89.12
612.371	81.12
612.579	88.12
612.787	79.12
612.995	87.12
613.203	80.12
613.411	87.12
613.618	85.12
613.826	74.12
614.034	84.12
614.242	91.12
614.449	95.12
614.657	82.12
614.865	90.12
615.072	81.12
615.28	87.12
615.488	99.12
615.695	85.12
615.903	93.12
616.111	110.12
616.318	111.12
616.526	87.12
616.733	89.12
616.941	81.12
617.148	101.12
617.356	80.12
617.563	92.12
617.771	83.12
617.978	73.12
618.185	81.12
618.393	84.12
618.6	83.12
618.807	82.12
619.015	77.12
619.222	94.12
619.429	72.12
619.637	91.12
619.844	92.12
620.051	84.12
620.258	81.12
620.466	83.12
620.673	99.12
620.88	105.12
621.087	90.12
621.294	91.12
621.501	89.12
621.708	80.12
621.915	77.12
622.122	90.12
622.329	94.12
622.536	81.12
622.743	86.12
622.95	87.12
623.157	93.12
623.364	87.12
623.571	93.12
623.778	85.12
623.985	79.12
624.192	74.12
624.399	80.12
624.606	91.12
624.812	89.12
625.019	71.12
625.226	69.12
625.433	84.12
625.639	98.12
625.846	69.12
626.053	81.12
626.259	87.12
626.466	101.12
626.673	74.12
626.879	79.12
627.086	90.12
627.293	92.12
627.499	89.12
627.706	78.12
627.912	73.12
628.119	81.12
628.325	89.12
628.532	83.12
628.738	89.12
628.945	76.12
629.151	80.12
629.357	79.12
629.564	89.12
629.77	84.12
629.976	86.12
630.183	100.12
630.389	85.12
630.595	82.12
630.802	93.12
631.008	73.12
631.214	76.12
631.42	96.12
631.627	90.12
631.833	80.12
632.039	81.12
632.245	83.12
632.451	74.12
632.657	85.12
632.863	86.12
633.069	84.12
633.275	73.12
633.481	81.12
633.688	92.12
633.893	85.12
634.099	67.12
634.305	77.12
634.511	86.12
634.717	86.12
634.923	89.12
635.129	90.12
635.335	75.12
635.541	75.12
635.747	87.12
635.952	91.12
636.158	78.12
636.364	97.12
636.57	88.12
636.775	89.12
636.981	100.12
637.187	75.12
637.392	72.12
637.598	74.12
637.804	82.12
638.009	83.12
638.215	73.12
638.421	91.12
638.626	81.12
638.832	88.12
639.037	93.12
639.243	93.12
639.448	91.12
639.654	90.12
639.859	76.12
640.065	75.12
640.27	86.12
640.475	105.12
640.681	92.12
640.886	83.12
641.091	75.12
641.297	85.12
641.502	89.12
641.707	89.12
641.913	91.12
642.118	75.12
642.323	89.12
642.528	85.12
642.733	77.12
642.939	78.12
643.144	80.12
643.349	87.12
643.554	85.12
643.759	77.12
643.964	85.12
644.169	82.12
644.374	81.12
644.579	89.12
644.784	96.12
644.989	105.12
645.194	83.12
645.399	76.12
645.604	79.12
645.809	85.12
646.014	75.12
646.219	85.12
646.423	78.12
646.628	79.12
646.833	71.12
647.038	82.12
647.243	93.12
647.447	79.12
647.652	84.12
647.857	94.12
648.062	79.12
648.266	89.12
648.471	92.12
648.676	91.12
648.88	98.12
649.085	86.12
649.289	88.12
649.494	111.12
649.698	126.12
649.903	109.12
650.107	75.12
650.312	79.12
650.516	83.12
650.721	70.12
650.925	85.12
651.13	80.12
651.334	81.12
651.539	98.12
651.743	80.12
651.947	79.12
652.152	92.12
652.356	92.12
652.56	89.12
652.764	81.12
652.969	76.12
653.173	89.12
653.377	82.12
653.581	78.12
653.785	78.12
653.99	81.12
654.194	81.12
654.398	81.12
654.602	82.12
654.806	73.12
655.01	101.12
655.214	91.12
655.418	80.12
655.622	77.12
655.826	92.12
656.03	95.12
656.234	89.12
656.438	100.12
656.642	84.12
656.846	90.12
657.049	90.12
657.253	81.12
657.457	101.12
657.661	81.12
657.865	87.12
658.068	88.12
658.272	88.12
658.476	85.12
658.68	69.12
658.883	73.12
659.087	85.12
659.291	83.12
659.494	89.12
659.698	89.12
659.901	82.12
660.105	70.12
660.309	91.12
660.512	71.12
660.716	88.12
660.919	82.12
661.123	84.12
661.326	80.12
661.53	85.12
661.733	69.12
661.936	85.12
662.14	83.12
662.343	81.12
662.546	67.12
662.75	81.12
662.953	89.12
663.156	89.12
663.36	89.12
663.563	84.12
663.766	74.12
663.969	72.12
664.173	73.12
664.376	76.12
664.579	79.12
664.782	79.12
664.985	79.12
665.188	82.12
665.391	77.12
665.594	84.12
665.797	81.12
666	89.12
666.203	82.12
666.406	87.12
666.609	82.12
666.812	87.12
667.015	91.12
667.218	94.12
667.421	81.12
667.624	66.12
667.827	89.12
668.03	77.12
668.232	83.12
668.435	90.12
668.638	75.12
668.841	77.12
669.043	81.12
669.246	90.12
669.449	81.12
669.651	87.12
669.854	82.12
670.057	74.12
670.259	96.12
670.462	77.12
670.665	93.12
670.867	83.12
671.07	82.12
671.272	92.12
671.475	73.12
671.677	72.12
671.88	82.12
672.082	93.12
672.284	85.12
672.487	78.12
672.689	82.12
672.892	87.12
