Data from Uncirc_1998_H10_HRD10591_00085.txt Node
Date: Wed Jan 03 11:25:41 EST 2024
User: Yrep
Spectrometer: HR+D1059
Trigger mode: 1
Integration Time (sec): 1.000000E-1
Scans to average: 1
Electric dark correction enabled: true
Nonlinearity correction enabled: false
Boxcar width: 0
XAxis mode: Wavelengths
Number of Pixels in Spectrum: 2048
>>>>>Begin Spectral Data<<<<<
223.165	-14.94
223.4	-14.94
223.635	-14.94
223.869	-9.94
224.104	-15.94
224.338	-11.94
224.573	-8.94
224.808	-19.94
225.042	-1.94
225.277	-11.94
225.511	-5.94
225.746	-1.94
225.98	11.06
226.215	10.06
226.449	19.06
226.683	17.06
226.918	19.06
227.152	27.06
227.387	24.06
227.621	23.06
227.856	19.06
228.09	36.06
228.324	29.06
228.559	57.06
228.793	63.06
229.027	52.06
229.262	53.06
229.496	66.06
229.73	69.06
229.964	74.06
230.199	63.06
230.433	67.06
230.667	78.06
230.901	53.06
231.136	71.06
231.37	69.06
231.604	79.06
231.838	82.06
232.072	75.06
232.306	79.06
232.541	67.06
232.775	63.06
233.009	79.06
233.243	96.06
233.477	68.06
233.711	77.06
233.945	75.06
234.179	71.06
234.413	82.06
234.647	73.06
234.881	73.06
235.115	76.06
235.349	59.06
235.583	80.06
235.817	77.06
236.051	82.06
236.285	76.06
236.519	72.06
236.753	53.06
236.987	60.06
237.221	59.06
237.455	78.06
237.689	89.06
237.922	82.06
238.156	64.06
238.39	88.06
238.624	72.06
238.858	87.06
239.091	58.06
239.325	71.06
239.559	58.06
239.793	82.06
240.027	81.06
240.26	81.06
240.494	86.06
240.728	79.06
240.961	73.06
241.195	79.06
241.429	61.06
241.662	73.06
241.896	73.06
242.13	72.06
242.363	84.06
242.597	70.06
242.83	66.06
243.064	67.06
243.298	81.06
243.531	56.06
243.765	67.06
243.998	70.06
244.232	77.06
244.465	77.06
244.699	82.06
244.932	87.06
245.166	69.06
245.399	72.06
245.633	63.06
245.866	74.06
246.099	69.06
246.333	66.06
246.566	69.06
246.8	71.06
247.033	68.06
247.266	79.06
247.5	73.06
247.733	66.06
247.966	60.06
248.2	77.06
248.433	80.06
248.666	67.06
248.899	67.06
249.133	77.06
249.366	91.06
249.599	82.06
249.832	81.06
250.066	81.06
250.299	73.06
250.532	68.06
250.765	67.06
250.998	63.06
251.231	80.06
251.465	56.06
251.698	89.06
251.931	69.06
252.164	70.06
252.397	81.06
252.63	75.06
252.863	77.06
253.096	76.06
253.329	78.06
253.562	71.06
253.795	57.06
254.028	71.06
254.261	62.06
254.494	81.06
254.727	80.06
254.96	87.06
255.193	56.06
255.426	77.06
255.659	80.06
255.892	70.06
256.124	77.06
256.357	76.06
256.59	87.06
256.823	75.06
257.056	79.06
257.289	71.06
257.521	75.06
257.754	84.06
257.987	73.06
258.22	73.06
258.452	78.06
258.685	69.06
258.918	69.06
259.151	65.06
259.383	82.06
259.616	87.06
259.849	72.06
260.081	79.06
260.314	85.06
260.547	75.06
260.779	74.06
261.012	98.06
261.244	82.06
261.477	77.06
261.71	87.06
261.942	108.06
262.175	90.06
262.407	90.06
262.64	73.06
262.872	98.06
263.105	75.06
263.337	81.06
263.57	77.06
263.802	75.06
264.035	78.06
264.267	76.06
264.499	89.06
264.732	71.06
264.964	81.06
265.197	66.06
265.429	80.06
265.661	86.06
265.894	83.06
266.126	75.06
266.358	80.06
266.591	83.06
266.823	74.06
267.055	73.06
267.287	84.06
267.52	61.06
267.752	61.06
267.984	61.06
268.216	84.06
268.448	78.06
268.681	80.06
268.913	85.06
269.145	81.06
269.377	84.06
269.609	81.06
269.841	84.06
270.073	75.06
270.306	79.06
270.538	87.06
270.77	61.06
271.002	80.06
271.234	79.06
271.466	82.06
271.698	79.06
271.93	78.06
272.162	86.06
272.394	77.06
272.626	79.06
272.858	76.06
273.09	80.06
273.322	77.06
273.553	82.06
273.785	80.06
274.017	87.06
274.249	78.06
274.481	98.06
274.713	85.06
274.945	71.06
275.176	73.06
275.408	87.06
275.64	89.06
275.872	91.06
276.104	81.06
276.335	81.06
276.567	88.06
276.799	84.06
277.031	93.06
277.262	82.06
277.494	77.06
277.726	91.06
277.957	75.06
278.189	80.06
278.421	79.06
278.652	70.06
278.884	86.06
279.115	71.06
279.347	84.06
279.579	87.06
279.81	85.06
280.042	66.06
280.273	61.06
280.505	66.06
280.736	75.06
280.968	83.06
281.199	79.06
281.431	68.06
281.662	87.06
281.894	92.06
282.125	86.06
282.356	103.06
282.588	124.06
282.819	89.06
283.051	68.06
283.282	71.06
283.513	76.06
283.745	92.06
283.976	93.06
284.207	67.06
284.439	70.06
284.67	82.06
284.901	90.06
285.132	77.06
285.364	88.06
285.595	93.06
285.826	76.06
286.057	76.06
286.288	71.06
286.52	88.06
286.751	74.06
286.982	75.06
287.213	79.06
287.444	76.06
287.675	84.06
287.906	85.06
288.138	79.06
288.369	84.06
288.6	78.06
288.831	88.06
289.062	89.06
289.293	67.06
289.524	82.06
289.755	77.06
289.986	81.06
290.217	91.06
290.448	95.06
290.679	89.06
290.91	83.06
291.141	77.06
291.371	84.06
291.602	83.06
291.833	83.06
292.064	85.06
292.295	75.06
292.526	80.06
292.757	76.06
292.987	92.06
293.218	74.06
293.449	75.06
293.68	78.06
293.91	71.06
294.141	88.06
294.372	78.06
294.603	76.06
294.833	73.06
295.064	92.06
295.295	64.06
295.525	92.06
295.756	95.06
295.987	114.06
296.217	106.06
296.448	117.06
296.679	86.06
296.909	74.06
297.14	72.06
297.37	76.06
297.601	64.06
297.831	68.06
298.062	90.06
298.292	75.06
298.523	84.06
298.753	88.06
298.984	78.06
299.214	83.06
299.445	100.06
299.675	81.06
299.905	89.06
300.136	77.06
300.366	89.06
300.597	96.06
300.827	89.06
301.057	96.06
301.288	85.06
301.518	92.06
301.748	84.06
301.979	93.06
302.209	82.06
302.439	85.06
302.669	93.06
302.9	83.06
303.13	88.06
303.36	85.06
303.59	92.06
303.82	96.06
304.051	76.06
304.281	74.06
304.511	83.06
304.741	84.06
304.971	80.06
305.201	88.06
305.431	87.06
305.661	79.06
305.891	79.06
306.121	90.06
306.352	97.06
306.582	88.06
306.812	87.06
307.042	89.06
307.272	101.06
307.502	84.06
307.731	88.06
307.961	89.06
308.191	87.06
308.421	79.06
308.651	77.06
308.881	87.06
309.111	87.06
309.341	80.06
309.571	90.06
309.8	83.06
310.03	85.06
310.26	73.06
310.49	81.06
310.72	91.06
310.949	84.06
311.179	100.06
311.409	79.06
311.639	81.06
311.868	99.06
312.098	87.06
312.328	80.06
312.557	85.06
312.787	105.06
313.017	103.06
313.246	89.06
313.476	80.06
313.706	82.06
313.935	75.06
314.165	83.06
314.394	74.06
314.624	80.06
314.853	88.06
315.083	72.06
315.312	90.06
315.542	83.06
315.771	82.06
316.001	95.06
316.23	90.06
316.46	78.06
316.689	70.06
316.919	72.06
317.148	90.06
317.377	97.06
317.607	77.06
317.836	76.06
318.065	82.06
318.295	91.06
318.524	77.06
318.753	90.06
318.983	72.06
319.212	85.06
319.441	92.06
319.67	93.06
319.9	86.06
320.129	73.06
320.358	98.06
320.587	80.06
320.816	97.06
321.046	91.06
321.275	87.06
321.504	91.06
321.733	91.06
321.962	85.06
322.191	96.06
322.42	96.06
322.649	100.06
322.878	88.06
323.108	100.06
323.337	114.06
323.566	137.06
323.795	129.06
324.024	180.06
324.253	315.06
324.482	689.06
324.71	1368.06
324.939	1812.06
325.168	665.06
325.397	215.06
325.626	143.06
325.855	118.06
326.084	114.06
326.313	116.06
326.542	130.06
326.77	199.06
326.999	407.06
327.228	807.06
327.457	1452.06
327.686	1133.06
327.914	308.06
328.143	177.06
328.372	135.06
328.6	107.06
328.829	92.06
329.058	108.06
329.287	119.06
329.515	96.06
329.744	94.06
329.972	98.06
330.201	107.06
330.43	88.06
330.658	107.06
330.887	135.06
331.115	87.06
331.344	74.06
331.572	81.06
331.801	92.06
332.03	67.06
332.258	81.06
332.486	84.06
332.715	93.06
332.943	80.06
333.172	92.06
333.4	103.06
333.629	102.06
333.857	92.06
334.085	83.06
334.314	73.06
334.542	97.06
334.771	85.06
334.999	90.06
335.227	78.06
335.455	84.06
335.684	93.06
335.912	93.06
336.14	86.06
336.369	101.06
336.597	87.06
336.825	96.06
337.053	85.06
337.281	82.06
337.51	92.06
337.738	94.06
337.966	91.06
338.194	81.06
338.422	79.06
338.65	99.06
338.878	78.06
339.106	84.06
339.334	80.06
339.562	80.06
339.79	85.06
340.018	88.06
340.246	72.06
340.474	82.06
340.702	91.06
340.93	83.06
341.158	96.06
341.386	83.06
341.614	87.06
341.842	83.06
342.07	80.06
342.298	79.06
342.526	82.06
342.754	78.06
342.981	87.06
343.209	80.06
343.437	103.06
343.665	91.06
343.893	80.06
344.12	84.06
344.348	69.06
344.576	90.06
344.804	79.06
345.031	93.06
345.259	73.06
345.487	73.06
345.714	80.06
345.942	77.06
346.17	74.06
346.397	70.06
346.625	73.06
346.853	71.06
347.08	70.06
347.308	96.06
347.535	84.06
347.763	88.06
347.99	93.06
348.218	88.06
348.445	89.06
348.673	84.06
348.9	98.06
349.128	81.06
349.355	74.06
349.583	86.06
349.81	92.06
350.037	83.06
350.265	96.06
350.492	83.06
350.72	85.06
350.947	89.06
351.174	92.06
351.402	93.06
351.629	93.06
351.856	95.06
352.083	79.06
352.311	93.06
352.538	91.06
352.765	112.06
352.992	89.06
353.22	86.06
353.447	96.06
353.674	100.06
353.901	90.06
354.128	84.06
354.355	97.06
354.583	90.06
354.81	98.06
355.037	97.06
355.264	81.06
355.491	97.06
355.718	103.06
355.945	89.06
356.172	74.06
356.399	87.06
356.626	79.06
356.853	81.06
357.08	85.06
357.307	84.06
357.534	86.06
357.761	84.06
357.988	84.06
358.215	92.06
358.441	87.06
358.668	94.06
358.895	79.06
359.122	84.06
359.349	78.06
359.576	80.06
359.802	100.06
360.029	91.06
360.256	93.06
360.483	93.06
360.709	81.06
360.936	90.06
361.163	90.06
361.39	87.06
361.616	80.06
361.843	83.06
362.07	65.06
362.296	80.06
362.523	87.06
362.749	83.06
362.976	72.06
363.203	83.06
363.429	80.06
363.656	81.06
363.882	93.06
364.109	85.06
364.335	85.06
364.562	79.06
364.788	90.06
365.015	92.06
365.241	93.06
365.468	101.06
365.694	89.06
365.92	80.06
366.147	97.06
366.373	80.06
366.599	84.06
366.826	68.06
367.052	84.06
367.278	77.06
367.505	95.06
367.731	89.06
367.957	78.06
368.184	87.06
368.41	88.06
368.636	103.06
368.862	96.06
369.089	87.06
369.315	94.06
369.541	81.06
369.767	79.06
369.993	84.06
370.219	102.06
370.445	82.06
370.672	78.06
370.898	79.06
371.124	67.06
371.35	85.06
371.576	90.06
371.802	87.06
372.028	81.06
372.254	91.06
372.48	81.06
372.706	82.06
372.932	76.06
373.158	78.06
373.384	90.06
373.61	93.06
373.835	79.06
374.061	84.06
374.287	93.06
374.513	84.06
374.739	80.06
374.965	79.06
375.191	65.06
375.416	85.06
375.642	77.06
375.868	88.06
376.094	76.06
376.319	77.06
376.545	71.06
376.771	95.06
376.997	75.06
377.222	77.06
377.448	73.06
377.674	84.06
377.899	93.06
378.125	68.06
378.35	95.06
378.576	88.06
378.802	83.06
379.027	93.06
379.253	75.06
379.478	75.06
379.704	71.06
379.929	83.06
380.155	84.06
380.38	80.06
380.606	79.06
380.831	88.06
381.057	84.06
381.282	83.06
381.507	100.06
381.733	99.06
381.958	91.06
382.184	82.06
382.409	95.06
382.634	84.06
382.86	97.06
383.085	93.06
383.31	92.06
383.535	78.06
383.761	98.06
383.986	87.06
384.211	97.06
384.436	84.06
384.662	100.06
384.887	85.06
385.112	94.06
385.337	92.06
385.562	83.06
385.787	93.06
386.013	92.06
386.238	101.06
386.463	79.06
386.688	87.06
386.913	86.06
387.138	89.06
387.363	85.06
387.588	101.06
387.813	88.06
388.038	72.06
388.263	93.06
388.488	86.06
388.713	96.06
388.938	91.06
389.163	90.06
389.387	77.06
389.612	86.06
389.837	77.06
390.062	92.06
390.287	85.06
390.512	83.06
390.736	81.06
390.961	78.06
391.186	91.06
391.411	83.06
391.636	93.06
391.86	81.06
392.085	83.06
392.31	73.06
392.534	88.06
392.759	78.06
392.984	79.06
393.208	85.06
393.433	79.06
393.658	77.06
393.882	73.06
394.107	83.06
394.331	80.06
394.556	89.06
394.78	97.06
395.005	91.06
395.229	74.06
395.454	74.06
395.678	75.06
395.903	75.06
396.127	85.06
396.352	88.06
396.576	89.06
396.801	80.06
397.025	68.06
397.249	76.06
397.474	81.06
397.698	90.06
397.922	77.06
398.147	81.06
398.371	85.06
398.595	69.06
398.82	61.06
399.044	71.06
399.268	75.06
399.492	85.06
399.717	94.06
399.941	86.06
400.165	94.06
400.389	80.06
400.613	93.06
400.837	99.06
401.062	76.06
401.286	72.06
401.51	80.06
401.734	92.06
401.958	76.06
402.182	87.06
402.406	127.06
402.63	98.06
402.854	79.06
403.078	73.06
403.302	82.06
403.526	73.06
403.75	81.06
403.974	81.06
404.198	88.06
404.422	77.06
404.645	81.06
404.869	82.06
405.093	88.06
405.317	75.06
405.541	86.06
405.765	86.06
405.988	102.06
406.212	155.06
406.436	180.06
406.66	129.06
406.883	95.06
407.107	82.06
407.331	91.06
407.555	80.06
407.778	101.06
408.002	91.06
408.226	99.06
408.449	81.06
408.673	85.06
408.896	92.06
409.12	88.06
409.344	85.06
409.567	82.06
409.791	88.06
410.014	86.06
410.238	89.06
410.461	83.06
410.685	89.06
410.908	94.06
411.132	84.06
411.355	87.06
411.578	85.06
411.802	85.06
412.025	87.06
412.249	85.06
412.472	82.06
412.695	74.06
412.919	73.06
413.142	80.06
413.365	89.06
413.589	76.06
413.812	81.06
414.035	90.06
414.258	89.06
414.482	90.06
414.705	83.06
414.928	72.06
415.151	69.06
415.374	78.06
415.597	76.06
415.821	71.06
416.044	80.06
416.267	82.06
416.49	76.06
416.713	77.06
416.936	84.06
417.159	73.06
417.382	73.06
417.605	100.06
417.828	81.06
418.051	73.06
418.274	78.06
418.497	76.06
418.72	71.06
418.943	78.06
419.166	70.06
419.389	88.06
419.611	65.06
419.834	72.06
420.057	71.06
420.28	98.06
420.503	77.06
420.726	83.06
420.948	82.06
421.171	89.06
421.394	86.06
421.617	78.06
421.839	88.06
422.062	77.06
422.285	89.06
422.507	83.06
422.73	75.06
422.953	94.06
423.175	88.06
423.398	85.06
423.621	81.06
423.843	76.06
424.066	76.06
424.288	86.06
424.511	76.06
424.733	79.06
424.956	88.06
425.178	90.06
425.401	102.06
425.623	96.06
425.846	80.06
426.068	80.06
426.291	80.06
426.513	97.06
426.735	92.06
426.958	85.06
427.18	97.06
427.402	97.06
427.625	140.06
427.847	109.06
428.069	94.06
428.292	80.06
428.514	71.06
428.736	80.06
428.958	82.06
429.181	87.06
429.403	77.06
429.625	88.06
429.847	83.06
430.069	87.06
430.292	92.06
430.514	76.06
430.736	58.06
430.958	89.06
431.18	84.06
431.402	82.06
431.624	82.06
431.846	85.06
432.068	84.06
432.29	81.06
432.512	77.06
432.734	77.06
432.956	77.06
433.178	80.06
433.4	90.06
433.622	88.06
433.844	73.06
434.066	76.06
434.287	100.06
434.509	77.06
434.731	79.06
434.953	73.06
435.175	90.06
435.397	85.06
435.618	87.06
435.84	101.06
436.062	113.06
436.284	94.06
436.505	82.06
436.727	90.06
436.949	80.06
437.17	69.06
437.392	72.06
437.614	89.06
437.835	91.06
438.057	107.06
438.278	93.06
438.5	96.06
438.721	97.06
438.943	84.06
439.165	85.06
439.386	82.06
439.608	88.06
439.829	95.06
440.05	113.06
440.272	121.06
440.493	80.06
440.715	78.06
440.936	71.06
441.158	78.06
441.379	87.06
441.6	80.06
441.822	86.06
442.043	86.06
442.264	98.06
442.486	107.06
442.707	89.06
442.928	88.06
443.149	110.06
443.371	112.06
443.592	91.06
443.813	108.06
444.034	102.06
444.255	100.06
444.476	87.06
444.698	79.06
444.919	81.06
445.14	125.06
445.361	118.06
445.582	91.06
445.803	111.06
446.024	110.06
446.245	114.06
446.466	93.06
446.687	85.06
446.908	72.06
447.129	83.06
447.35	79.06
447.571	79.06
447.792	69.06
448.013	88.06
448.234	98.06
448.455	102.06
448.675	121.06
448.896	91.06
449.117	85.06
449.338	105.06
449.559	105.06
449.779	125.06
450	88.06
450.221	99.06
450.442	87.06
450.662	94.06
450.883	100.06
451.104	108.06
451.324	88.06
451.545	73.06
451.766	84.06
451.986	88.06
452.207	69.06
452.428	91.06
452.648	96.06
452.869	88.06
453.089	90.06
453.31	120.06
453.53	91.06
453.751	89.06
453.971	99.06
454.192	103.06
454.412	76.06
454.633	91.06
454.853	87.06
455.073	96.06
455.294	72.06
455.514	89.06
455.734	75.06
455.955	81.06
456.175	89.06
456.395	82.06
456.616	85.06
456.836	84.06
457.056	75.06
457.276	63.06
457.497	71.06
457.717	76.06
457.937	79.06
458.157	79.06
458.377	81.06
458.598	100.06
458.818	151.06
459.038	125.06
459.258	99.06
459.478	84.06
459.698	84.06
459.918	81.06
460.138	81.06
460.358	75.06
460.578	82.06
460.798	71.06
461.018	92.06
461.238	71.06
461.458	89.06
461.678	80.06
461.898	76.06
462.118	83.06
462.338	76.06
462.558	84.06
462.777	76.06
462.997	76.06
463.217	85.06
463.437	85.06
463.657	80.06
463.876	96.06
464.096	92.06
464.316	82.06
464.536	92.06
464.755	92.06
464.975	99.06
465.195	147.06
465.414	113.06
465.634	85.06
465.854	64.06
466.073	70.06
466.293	80.06
466.512	79.06
466.732	88.06
466.951	82.06
467.171	68.06
467.391	89.06
467.61	93.06
467.829	80.06
468.049	95.06
468.268	101.06
468.488	81.06
468.707	77.06
468.927	81.06
469.146	70.06
469.365	83.06
469.585	80.06
469.804	83.06
470.023	101.06
470.243	88.06
470.462	89.06
470.681	98.06
470.901	71.06
471.12	86.06
471.339	74.06
471.558	80.06
471.777	89.06
471.997	88.06
472.216	76.06
472.435	97.06
472.654	79.06
472.873	80.06
473.092	64.06
473.311	73.06
473.53	73.06
473.749	95.06
473.968	76.06
474.187	82.06
474.406	82.06
474.625	88.06
474.844	69.06
475.063	69.06
475.282	77.06
475.501	84.06
475.72	84.06
475.939	80.06
476.158	83.06
476.377	91.06
476.596	91.06
476.814	89.06
477.033	83.06
477.252	79.06
477.471	72.06
477.69	83.06
477.908	88.06
478.127	79.06
478.346	73.06
478.564	79.06
478.783	78.06
479.002	76.06
479.22	90.06
479.439	92.06
479.658	85.06
479.876	83.06
480.095	92.06
480.313	84.06
480.532	74.06
480.751	80.06
480.969	89.06
481.188	99.06
481.406	106.06
481.624	96.06
481.843	98.06
482.061	59.06
482.28	76.06
482.498	70.06
482.717	75.06
482.935	98.06
483.153	84.06
483.372	95.06
483.59	94.06
483.808	93.06
484.027	88.06
484.245	77.06
484.463	78.06
484.681	98.06
484.9	82.06
485.118	98.06
485.336	82.06
485.554	81.06
485.772	92.06
485.99	94.06
486.209	96.06
486.427	92.06
486.645	91.06
486.863	100.06
487.081	84.06
487.299	88.06
487.517	98.06
487.735	89.06
487.953	79.06
488.171	81.06
488.389	90.06
488.607	89.06
488.825	88.06
489.043	80.06
489.261	87.06
489.479	85.06
489.696	87.06
489.914	84.06
490.132	90.06
490.35	81.06
490.568	77.06
490.786	91.06
491.003	82.06
491.221	80.06
491.439	87.06
491.657	92.06
491.874	81.06
492.092	71.06
492.31	70.06
492.527	83.06
492.745	92.06
492.963	86.06
493.18	75.06
493.398	103.06
493.615	88.06
493.833	88.06
494.05	93.06
494.268	98.06
494.485	92.06
494.703	70.06
494.92	85.06
495.138	83.06
495.355	82.06
495.573	85.06
495.79	67.06
496.008	83.06
496.225	91.06
496.442	79.06
496.66	97.06
496.877	84.06
497.094	86.06
497.312	83.06
497.529	76.06
497.746	83.06
497.963	75.06
498.181	81.06
498.398	93.06
498.615	100.06
498.832	84.06
499.049	91.06
499.267	84.06
499.484	84.06
499.701	96.06
499.918	74.06
500.135	97.06
500.352	100.06
500.569	91.06
500.786	105.06
501.003	82.06
501.22	87.06
501.437	91.06
501.654	91.06
501.871	102.06
502.088	89.06
502.305	81.06
502.522	75.06
502.739	89.06
502.956	75.06
503.172	78.06
503.389	97.06
503.606	88.06
503.823	91.06
504.04	92.06
504.256	85.06
504.473	89.06
504.69	72.06
504.907	88.06
505.123	84.06
505.34	93.06
505.557	89.06
505.773	88.06
505.99	86.06
506.207	85.06
506.423	74.06
506.64	87.06
506.856	82.06
507.073	85.06
507.289	84.06
507.506	90.06
507.722	95.06
507.939	104.06
508.155	89.06
508.372	79.06
508.588	89.06
508.805	73.06
509.021	75.06
509.238	96.06
509.454	97.06
509.67	85.06
509.887	89.06
510.103	122.06
510.319	213.06
510.536	658.06
510.752	1980.06
510.968	537.06
511.184	137.06
511.401	96.06
511.617	90.06
511.833	89.06
512.049	76.06
512.265	80.06
512.481	86.06
512.698	84.06
512.914	68.06
513.13	77.06
513.346	92.06
513.562	79.06
513.778	97.06
513.994	100.06
514.21	85.06
514.426	110.06
514.642	106.06
514.858	114.06
515.074	129.06
515.29	371.06
515.506	1169.06
515.721	441.06
515.937	129.06
516.153	99.06
516.369	89.06
516.585	82.06
516.801	81.06
517.016	82.06
517.232	90.06
517.448	83.06
517.664	90.06
517.879	95.06
518.095	88.06
518.311	86.06
518.527	75.06
518.742	65.06
518.958	78.06
519.173	80.06
519.389	90.06
519.605	75.06
519.82	88.06
520.036	96.06
520.251	113.06
520.467	97.06
520.682	96.06
520.898	92.06
521.113	111.06
521.329	108.06
521.544	165.06
521.76	455.06
521.975	1942.06
522.19	1141.06
522.406	269.06
522.621	111.06
522.836	100.06
523.052	82.06
523.267	82.06
523.482	68.06
523.698	84.06
523.913	96.06
524.128	88.06
524.343	76.06
524.559	93.06
524.774	89.06
524.989	102.06
525.204	92.06
525.419	103.06
525.634	89.06
525.849	91.06
526.064	71.06
526.28	88.06
526.495	82.06
526.71	79.06
526.925	99.06
527.14	77.06
527.355	73.06
527.57	92.06
527.785	79.06
527.999	79.06
528.214	103.06
528.429	100.06
528.644	90.06
528.859	82.06
529.074	92.06
529.289	116.06
529.503	124.06
529.718	86.06
529.933	85.06
530.148	102.06
530.363	84.06
530.577	88.06
530.792	76.06
531.007	85.06
531.221	86.06
531.436	88.06
531.651	86.06
531.865	71.06
532.08	92.06
532.295	87.06
532.509	85.06
532.724	86.06
532.938	95.06
533.153	93.06
533.367	77.06
533.582	83.06
533.796	87.06
534.011	87.06
534.225	79.06
534.44	81.06
534.654	89.06
534.868	70.06
535.083	91.06
535.297	74.06
535.511	94.06
535.726	92.06
535.94	100.06
536.154	101.06
536.369	86.06
536.583	80.06
536.797	79.06
537.011	74.06
537.225	87.06
537.44	64.06
537.654	72.06
537.868	79.06
538.082	75.06
538.296	84.06
538.51	88.06
538.724	84.06
538.938	84.06
539.153	76.06
539.367	99.06
539.581	93.06
539.795	74.06
540.009	83.06
540.222	80.06
540.436	83.06
540.65	83.06
540.864	85.06
541.078	83.06
541.292	95.06
541.506	88.06
541.72	90.06
541.934	83.06
542.147	81.06
542.361	67.06
542.575	86.06
542.789	79.06
543.002	103.06
543.216	96.06
543.43	98.06
543.644	90.06
543.857	83.06
544.071	97.06
544.285	78.06
544.498	94.06
544.712	97.06
544.925	74.06
545.139	97.06
545.352	90.06
545.566	85.06
545.779	80.06
545.993	97.06
546.206	80.06
546.42	79.06
546.633	78.06
546.847	85.06
547.06	90.06
547.274	91.06
547.487	92.06
547.7	85.06
547.914	84.06
548.127	78.06
548.34	76.06
548.554	74.06
548.767	84.06
548.98	90.06
549.193	79.06
549.407	84.06
549.62	77.06
549.833	74.06
550.046	83.06
550.259	69.06
550.473	64.06
550.686	78.06
550.899	65.06
551.112	88.06
551.325	72.06
551.538	76.06
551.751	85.06
551.964	86.06
552.177	62.06
552.39	80.06
552.603	71.06
552.816	89.06
553.029	87.06
553.242	68.06
553.455	80.06
553.667	97.06
553.88	89.06
554.093	85.06
554.306	77.06
554.519	89.06
554.732	84.06
554.944	84.06
555.157	113.06
555.37	85.06
555.583	91.06
555.795	91.06
556.008	79.06
556.221	78.06
556.433	92.06
556.646	86.06
556.859	96.06
557.071	95.06
557.284	79.06
557.496	75.06
557.709	84.06
557.921	93.06
558.134	85.06
558.346	74.06
558.559	83.06
558.771	76.06
558.984	75.06
559.196	81.06
559.409	90.06
559.621	95.06
559.833	79.06
560.046	84.06
560.258	86.06
560.47	96.06
560.683	75.06
560.895	89.06
561.107	82.06
561.32	80.06
561.532	87.06
561.744	87.06
561.956	76.06
562.168	91.06
562.381	87.06
562.593	66.06
562.805	72.06
563.017	68.06
563.229	75.06
563.441	81.06
563.653	83.06
563.865	81.06
564.077	83.06
564.289	81.06
564.501	87.06
564.713	75.06
564.925	82.06
565.137	82.06
565.349	92.06
565.561	91.06
565.773	87.06
565.985	88.06
566.197	95.06
566.408	93.06
566.62	69.06
566.832	74.06
567.044	82.06
567.255	89.06
567.467	88.06
567.679	83.06
567.891	84.06
568.102	86.06
568.314	81.06
568.526	102.06
568.737	76.06
568.949	77.06
569.161	84.06
569.372	80.06
569.584	83.06
569.795	85.06
570.007	125.06
570.218	221.06
570.43	127.06
570.641	82.06
570.853	79.06
571.064	75.06
571.276	86.06
571.487	56.06
571.698	76.06
571.91	91.06
572.121	81.06
572.333	68.06
572.544	78.06
572.755	94.06
572.966	64.06
573.178	82.06
573.389	84.06
573.6	84.06
573.811	88.06
574.023	88.06
574.234	81.06
574.445	92.06
574.656	80.06
574.867	89.06
575.078	83.06
575.289	76.06
575.501	87.06
575.712	77.06
575.923	81.06
576.134	87.06
576.345	77.06
576.556	95.06
576.767	86.06
576.978	84.06
577.188	96.06
577.399	73.06
577.61	88.06
577.821	83.06
578.032	99.06
578.243	229.06
578.454	632.06
578.665	205.06
578.875	95.06
579.086	80.06
579.297	78.06
579.508	86.06
579.718	93.06
579.929	92.06
580.14	75.06
580.35	89.06
580.561	86.06
580.772	93.06
580.982	85.06
581.193	71.06
581.403	72.06
581.614	90.06
581.825	69.06
582.035	81.06
582.246	77.06
582.456	71.06
582.667	85.06
582.877	77.06
583.087	70.06
583.298	76.06
583.508	91.06
583.719	71.06
583.929	79.06
584.139	78.06
584.35	73.06
584.56	84.06
584.77	77.06
584.981	96.06
585.191	79.06
585.401	63.06
585.611	88.06
585.821	82.06
586.032	75.06
586.242	80.06
586.452	84.06
586.662	95.06
586.872	80.06
587.082	72.06
587.292	92.06
587.502	87.06
587.713	71.06
587.923	75.06
588.133	80.06
588.343	65.06
588.553	71.06
588.762	79.06
588.972	77.06
589.182	69.06
589.392	89.06
589.602	81.06
589.812	90.06
590.022	79.06
590.232	75.06
590.441	75.06
590.651	87.06
590.861	73.06
591.071	84.06
591.281	83.06
591.49	79.06
591.7	69.06
591.91	74.06
592.119	79.06
592.329	94.06
592.539	92.06
592.748	80.06
592.958	72.06
593.167	77.06
593.377	76.06
593.587	87.06
593.796	77.06
594.006	72.06
594.215	89.06
594.424	92.06
594.634	65.06
594.843	79.06
595.053	79.06
595.262	85.06
595.472	81.06
595.681	75.06
595.89	78.06
596.1	89.06
596.309	90.06
596.518	76.06
596.727	84.06
596.937	83.06
597.146	80.06
597.355	79.06
597.564	86.06
597.774	70.06
597.983	82.06
598.192	83.06
598.401	75.06
598.61	77.06
598.819	86.06
599.028	84.06
599.237	90.06
599.446	76.06
599.655	88.06
599.864	75.06
600.073	81.06
600.282	83.06
600.491	86.06
600.7	83.06
600.909	72.06
601.118	87.06
601.327	78.06
601.536	83.06
601.745	77.06
601.953	86.06
602.162	86.06
602.371	82.06
602.58	87.06
602.789	87.06
602.997	80.06
603.206	69.06
603.415	71.06
603.623	76.06
603.832	81.06
604.041	84.06
604.249	87.06
604.458	68.06
604.666	84.06
604.875	67.06
605.084	89.06
605.292	77.06
605.501	76.06
605.709	83.06
605.918	72.06
606.126	68.06
606.334	70.06
606.543	81.06
606.751	91.06
606.96	89.06
607.168	91.06
607.376	65.06
607.585	78.06
607.793	80.06
608.001	88.06
608.21	74.06
608.418	88.06
608.626	73.06
608.834	72.06
609.043	88.06
609.251	84.06
609.459	81.06
609.667	83.06
609.875	80.06
610.083	69.06
610.291	81.06
610.499	69.06
610.707	74.06
610.916	87.06
611.124	70.06
611.332	78.06
611.54	85.06
611.748	71.06
611.955	84.06
612.163	81.06
612.371	88.06
612.579	74.06
612.787	83.06
612.995	89.06
613.203	76.06
613.411	70.06
613.618	81.06
613.826	69.06
614.034	76.06
614.242	85.06
614.449	91.06
614.657	82.06
614.865	62.06
615.072	79.06
615.28	79.06
615.488	87.06
615.695	81.06
615.903	92.06
616.111	89.06
616.318	91.06
616.526	84.06
616.733	86.06
616.941	75.06
617.148	87.06
617.356	77.06
617.563	79.06
617.771	77.06
617.978	60.06
618.185	76.06
618.393	76.06
618.6	79.06
618.807	65.06
619.015	86.06
619.222	67.06
619.429	93.06
619.637	85.06
619.844	87.06
620.051	72.06
620.258	77.06
620.466	98.06
620.673	74.06
620.88	82.06
621.087	89.06
621.294	85.06
621.501	87.06
621.708	82.06
621.915	75.06
622.122	84.06
622.329	68.06
622.536	94.06
622.743	73.06
622.95	80.06
623.157	88.06
623.364	84.06
623.571	77.06
623.778	67.06
623.985	77.06
624.192	77.06
624.399	89.06
624.606	97.06
624.812	85.06
625.019	73.06
625.226	75.06
625.433	86.06
625.639	82.06
625.846	84.06
626.053	76.06
626.259	83.06
626.466	80.06
626.673	87.06
626.879	73.06
627.086	80.06
627.293	75.06
627.499	81.06
627.706	80.06
627.912	73.06
628.119	90.06
628.325	75.06
628.532	81.06
628.738	85.06
628.945	88.06
629.151	66.06
629.357	69.06
629.564	67.06
629.77	64.06
629.976	66.06
630.183	68.06
630.389	74.06
630.595	90.06
630.802	76.06
631.008	73.06
631.214	78.06
631.42	81.06
631.627	79.06
631.833	91.06
632.039	71.06
632.245	80.06
632.451	93.06
632.657	73.06
632.863	65.06
633.069	83.06
633.275	83.06
633.481	84.06
633.688	90.06
633.893	75.06
634.099	83.06
634.305	75.06
634.511	58.06
634.717	74.06
634.923	87.06
635.129	67.06
635.335	59.06
635.541	67.06
635.747	73.06
635.952	84.06
636.158	70.06
636.364	79.06
636.57	63.06
636.775	72.06
636.981	103.06
637.187	81.06
637.392	75.06
637.598	90.06
637.804	75.06
638.009	91.06
638.215	73.06
638.421	75.06
638.626	72.06
638.832	81.06
639.037	76.06
639.243	69.06
639.448	85.06
639.654	67.06
639.859	73.06
640.065	75.06
640.27	78.06
640.475	99.06
640.681	89.06
640.886	92.06
641.091	84.06
641.297	80.06
641.502	65.06
641.707	85.06
641.913	77.06
642.118	66.06
642.323	75.06
642.528	92.06
642.733	71.06
642.939	79.06
643.144	64.06
643.349	78.06
643.554	75.06
643.759	82.06
643.964	89.06
644.169	85.06
644.374	75.06
644.579	81.06
644.784	86.06
644.989	88.06
645.194	71.06
645.399	75.06
645.604	80.06
645.809	90.06
646.014	81.06
646.219	76.06
646.423	67.06
646.628	89.06
646.833	77.06
647.038	77.06
647.243	89.06
647.447	79.06
647.652	77.06
647.857	70.06
648.062	76.06
648.266	84.06
648.471	76.06
648.676	91.06
648.88	87.06
649.085	79.06
649.289	64.06
649.494	91.06
649.698	122.06
649.903	83.06
650.107	71.06
650.312	82.06
650.516	69.06
650.721	88.06
650.925	79.06
651.13	68.06
651.334	82.06
651.539	74.06
651.743	83.06
651.947	86.06
652.152	67.06
652.356	76.06
652.56	63.06
652.764	68.06
652.969	72.06
653.173	73.06
653.377	77.06
653.581	74.06
653.785	71.06
653.99	67.06
654.194	60.06
654.398	69.06
654.602	67.06
654.806	82.06
655.01	90.06
655.214	84.06
655.418	81.06
655.622	73.06
655.826	76.06
656.03	79.06
656.234	85.06
656.438	80.06
656.642	97.06
656.846	72.06
657.049	88.06
657.253	76.06
657.457	82.06
657.661	74.06
657.865	86.06
658.068	78.06
658.272	81.06
658.476	80.06
658.68	67.06
658.883	63.06
659.087	69.06
659.291	83.06
659.494	84.06
659.698	82.06
659.901	72.06
660.105	80.06
660.309	67.06
660.512	82.06
660.716	73.06
660.919	83.06
661.123	77.06
661.326	66.06
661.53	76.06
661.733	80.06
661.936	67.06
662.14	71.06
662.343	64.06
662.546	77.06
662.75	77.06
662.953	85.06
663.156	71.06
663.36	86.06
663.563	69.06
663.766	46.06
663.969	73.06
664.173	79.06
664.376	79.06
664.579	63.06
664.782	58.06
664.985	60.06
665.188	80.06
665.391	77.06
665.594	79.06
665.797	88.06
666	79.06
666.203	65.06
666.406	75.06
666.609	59.06
666.812	85.06
667.015	89.06
667.218	65.06
667.421	69.06
667.624	75.06
667.827	81.06
668.03	83.06
668.232	78.06
668.435	80.06
668.638	61.06
668.841	77.06
669.043	76.06
669.246	85.06
669.449	73.06
669.651	79.06
669.854	80.06
670.057	81.06
670.259	61.06
670.462	76.06
670.665	85.06
670.867	79.06
671.07	87.06
671.272	85.06
671.475	56.06
671.677	79.06
671.88	70.06
672.082	79.06
672.284	65.06
672.487	72.06
672.689	53.06
672.892	71.06
