Data from Background_3_HRD10591_00015.txt Node
Date: Wed Nov 05 14:49:27 EST 2025
User: Yrep
Spectrometer: HR+D1059
Trigger mode: 1
Integration Time (sec): 1.000000E-1
Scans to average: 1
Electric dark correction enabled: true
Nonlinearity correction enabled: false
Boxcar width: 0
XAxis mode: Wavelengths
Number of Pixels in Spectrum: 2048
>>>>>Begin Spectral Data<<<<<
223.165	-20.44
223.4	-20.44
223.635	-20.44
223.869	-24.44
224.104	-18.44
224.338	-18.44
224.573	-10.44
224.808	-6.44
225.042	0.56
225.277	-4.44
225.511	-1.44
225.746	-4.44
225.98	4.56
226.215	16.56
226.449	11.56
226.683	8.56
226.918	33.56
227.152	33.56
227.387	24.56
227.621	48.56
227.856	38.56
228.09	45.56
228.324	43.56
228.559	54.56
228.793	57.56
229.027	45.56
229.262	65.56
229.496	53.56
229.73	67.56
229.964	75.56
230.199	62.56
230.433	59.56
230.667	72.56
230.901	92.56
231.136	86.56
231.37	85.56
231.604	68.56
231.838	85.56
232.072	63.56
232.306	85.56
232.541	60.56
232.775	82.56
233.009	79.56
233.243	72.56
233.477	76.56
233.711	86.56
233.945	76.56
234.179	87.56
234.413	83.56
234.647	77.56
234.881	79.56
235.115	71.56
235.349	77.56
235.583	83.56
235.817	63.56
236.051	83.56
236.285	78.56
236.519	85.56
236.753	87.56
236.987	81.56
237.221	69.56
237.455	80.56
237.689	77.56
237.922	86.56
238.156	74.56
238.39	75.56
238.624	75.56
238.858	81.56
239.091	79.56
239.325	76.56
239.559	75.56
239.793	61.56
240.027	90.56
240.26	67.56
240.494	66.56
240.728	81.56
240.961	69.56
241.195	61.56
241.429	82.56
241.662	72.56
241.896	81.56
242.13	76.56
242.363	83.56
242.597	79.56
242.83	77.56
243.064	76.56
243.298	87.56
243.531	83.56
243.765	65.56
243.998	65.56
244.232	82.56
244.465	73.56
244.699	83.56
244.932	64.56
245.166	82.56
245.399	76.56
245.633	99.56
245.866	77.56
246.099	77.56
246.333	82.56
246.566	87.56
246.8	86.56
247.033	67.56
247.266	72.56
247.5	73.56
247.733	70.56
247.966	69.56
248.2	81.56
248.433	58.56
248.666	77.56
248.899	72.56
249.133	62.56
249.366	76.56
249.599	73.56
249.832	91.56
250.066	91.56
250.299	67.56
250.532	89.56
250.765	69.56
250.998	75.56
251.231	81.56
251.465	80.56
251.698	68.56
251.931	79.56
252.164	70.56
252.397	84.56
252.63	85.56
252.863	83.56
253.096	76.56
253.329	76.56
253.562	78.56
253.795	78.56
254.028	92.56
254.261	87.56
254.494	81.56
254.727	75.56
254.96	82.56
255.193	78.56
255.426	89.56
255.659	74.56
255.892	88.56
256.124	76.56
256.357	88.56
256.59	87.56
256.823	97.56
257.056	72.56
257.289	65.56
257.521	89.56
257.754	67.56
257.987	80.56
258.22	84.56
258.452	82.56
258.685	75.56
258.918	68.56
259.151	85.56
259.383	75.56
259.616	73.56
259.849	81.56
260.081	93.56
260.314	74.56
260.547	89.56
260.779	85.56
261.012	82.56
261.244	77.56
261.477	70.56
261.71	53.56
261.942	73.56
262.175	89.56
262.407	82.56
262.64	78.56
262.872	82.56
263.105	66.56
263.337	89.56
263.57	93.56
263.802	85.56
264.035	80.56
264.267	81.56
264.499	75.56
264.732	84.56
264.964	77.56
265.197	85.56
265.429	98.56
265.661	77.56
265.894	81.56
266.126	73.56
266.358	84.56
266.591	81.56
266.823	77.56
267.055	79.56
267.287	85.56
267.52	81.56
267.752	92.56
267.984	79.56
268.216	76.56
268.448	90.56
268.681	95.56
268.913	81.56
269.145	78.56
269.377	76.56
269.609	74.56
269.841	89.56
270.073	77.56
270.306	79.56
270.538	85.56
270.77	77.56
271.002	74.56
271.234	83.56
271.466	72.56
271.698	99.56
271.93	89.56
272.162	89.56
272.394	84.56
272.626	86.56
272.858	84.56
273.09	80.56
273.322	89.56
273.553	82.56
273.785	83.56
274.017	79.56
274.249	79.56
274.481	73.56
274.713	71.56
274.945	82.56
275.176	72.56
275.408	65.56
275.64	84.56
275.872	75.56
276.104	85.56
276.335	75.56
276.567	89.56
276.799	81.56
277.031	95.56
277.262	72.56
277.494	100.56
277.726	85.56
277.957	78.56
278.189	91.56
278.421	76.56
278.652	61.56
278.884	81.56
279.115	95.56
279.347	91.56
279.579	93.56
279.81	71.56
280.042	84.56
280.273	88.56
280.505	85.56
280.736	89.56
280.968	85.56
281.199	73.56
281.431	80.56
281.662	84.56
281.894	95.56
282.125	93.56
282.356	79.56
282.588	85.56
282.819	75.56
283.051	70.56
283.282	78.56
283.513	85.56
283.745	78.56
283.976	78.56
284.207	81.56
284.439	90.56
284.67	93.56
284.901	86.56
285.132	98.56
285.364	77.56
285.595	85.56
285.826	83.56
286.057	73.56
286.288	79.56
286.52	75.56
286.751	76.56
286.982	82.56
287.213	79.56
287.444	89.56
287.675	83.56
287.906	77.56
288.138	99.56
288.369	84.56
288.6	83.56
288.831	91.56
289.062	80.56
289.293	93.56
289.524	92.56
289.755	79.56
289.986	87.56
290.217	89.56
290.448	85.56
290.679	81.56
290.91	84.56
291.141	83.56
291.371	82.56
291.602	96.56
291.833	91.56
292.064	86.56
292.295	77.56
292.526	78.56
292.757	86.56
292.987	73.56
293.218	81.56
293.449	82.56
293.68	82.56
293.91	75.56
294.141	84.56
294.372	75.56
294.603	77.56
294.833	83.56
295.064	83.56
295.295	68.56
295.525	85.56
295.756	108.56
295.987	89.56
296.217	86.56
296.448	84.56
296.679	81.56
296.909	68.56
297.14	75.56
297.37	82.56
297.601	84.56
297.831	93.56
298.062	83.56
298.292	87.56
298.523	85.56
298.753	93.56
298.984	75.56
299.214	89.56
299.445	88.56
299.675	80.56
299.905	89.56
300.136	84.56
300.366	74.56
300.597	70.56
300.827	82.56
301.057	87.56
301.288	77.56
301.518	79.56
301.748	91.56
301.979	88.56
302.209	77.56
302.439	99.56
302.669	90.56
302.9	91.56
303.13	94.56
303.36	85.56
303.59	87.56
303.82	74.56
304.051	89.56
304.281	87.56
304.511	101.56
304.741	88.56
304.971	73.56
305.201	93.56
305.431	76.56
305.661	86.56
305.891	91.56
306.121	74.56
306.352	77.56
306.582	81.56
306.812	75.56
307.042	91.56
307.272	82.56
307.502	78.56
307.731	90.56
307.961	87.56
308.191	81.56
308.421	87.56
308.651	82.56
308.881	81.56
309.111	92.56
309.341	77.56
309.571	102.56
309.8	83.56
310.03	83.56
310.26	69.56
310.49	89.56
310.72	94.56
310.949	93.56
311.179	90.56
311.409	84.56
311.639	84.56
311.868	85.56
312.098	89.56
312.328	85.56
312.557	89.56
312.787	89.56
313.017	90.56
313.246	87.56
313.476	77.56
313.706	76.56
313.935	69.56
314.165	80.56
314.394	85.56
314.624	87.56
314.853	82.56
315.083	81.56
315.312	88.56
315.542	83.56
315.771	80.56
316.001	88.56
316.23	88.56
316.46	71.56
316.689	86.56
316.919	78.56
317.148	96.56
317.377	86.56
317.607	83.56
317.836	95.56
318.065	77.56
318.295	84.56
318.524	83.56
318.753	74.56
318.983	72.56
319.212	84.56
319.441	88.56
319.67	84.56
319.9	80.56
320.129	79.56
320.358	72.56
320.587	71.56
320.816	91.56
321.046	94.56
321.275	84.56
321.504	76.56
321.733	84.56
321.962	86.56
322.191	84.56
322.42	81.56
322.649	75.56
322.878	70.56
323.108	81.56
323.337	89.56
323.566	90.56
323.795	90.56
324.024	94.56
324.253	98.56
324.482	77.56
324.71	81.56
324.939	69.56
325.168	89.56
325.397	83.56
325.626	98.56
325.855	70.56
326.084	90.56
326.313	86.56
326.542	89.56
326.77	79.56
326.999	70.56
327.228	99.56
327.457	82.56
327.686	85.56
327.914	81.56
328.143	80.56
328.372	96.56
328.6	86.56
328.829	74.56
329.058	74.56
329.287	89.56
329.515	87.56
329.744	97.56
329.972	89.56
330.201	98.56
330.43	92.56
330.658	79.56
330.887	77.56
331.115	96.56
331.344	85.56
331.572	93.56
331.801	86.56
332.03	89.56
332.258	69.56
332.486	88.56
332.715	89.56
332.943	85.56
333.172	88.56
333.4	86.56
333.629	83.56
333.857	86.56
334.085	86.56
334.314	86.56
334.542	94.56
334.771	78.56
334.999	77.56
335.227	76.56
335.455	80.56
335.684	95.56
335.912	90.56
336.14	89.56
336.369	85.56
336.597	76.56
336.825	71.56
337.053	81.56
337.281	84.56
337.51	88.56
337.738	89.56
337.966	82.56
338.194	78.56
338.422	82.56
338.65	80.56
338.878	100.56
339.106	77.56
339.334	95.56
339.562	93.56
339.79	88.56
340.018	94.56
340.246	78.56
340.474	78.56
340.702	87.56
340.93	66.56
341.158	90.56
341.386	93.56
341.614	91.56
341.842	83.56
342.07	85.56
342.298	94.56
342.526	83.56
342.754	89.56
342.981	71.56
343.209	78.56
343.437	91.56
343.665	91.56
343.893	89.56
344.12	87.56
344.348	73.56
344.576	82.56
344.804	85.56
345.031	94.56
345.259	94.56
345.487	87.56
345.714	69.56
345.942	85.56
346.17	81.56
346.397	69.56
346.625	89.56
346.853	81.56
347.08	86.56
347.308	89.56
347.535	81.56
347.763	79.56
347.99	92.56
348.218	91.56
348.445	74.56
348.673	85.56
348.9	68.56
349.128	80.56
349.355	87.56
349.583	85.56
349.81	83.56
350.037	84.56
350.265	80.56
350.492	74.56
350.72	91.56
350.947	83.56
351.174	81.56
351.402	60.56
351.629	89.56
351.856	88.56
352.083	93.56
352.311	86.56
352.538	94.56
352.765	73.56
352.992	79.56
353.22	78.56
353.447	80.56
353.674	104.56
353.901	91.56
354.128	70.56
354.355	86.56
354.583	89.56
354.81	85.56
355.037	77.56
355.264	92.56
355.491	80.56
355.718	89.56
355.945	77.56
356.172	82.56
356.399	90.56
356.626	93.56
356.853	68.56
357.08	77.56
357.307	93.56
357.534	76.56
357.761	67.56
357.988	85.56
358.215	68.56
358.441	82.56
358.668	79.56
358.895	77.56
359.122	77.56
359.349	89.56
359.576	89.56
359.802	83.56
360.029	81.56
360.256	83.56
360.483	77.56
360.709	83.56
360.936	68.56
361.163	93.56
361.39	90.56
361.616	87.56
361.843	91.56
362.07	85.56
362.296	80.56
362.523	79.56
362.749	85.56
362.976	77.56
363.203	83.56
363.429	86.56
363.656	89.56
363.882	75.56
364.109	94.56
364.335	84.56
364.562	77.56
364.788	74.56
365.015	68.56
365.241	83.56
365.468	99.56
365.694	83.56
365.92	97.56
366.147	84.56
366.373	77.56
366.599	73.56
366.826	88.56
367.052	83.56
367.278	81.56
367.505	79.56
367.731	82.56
367.957	80.56
368.184	85.56
368.41	90.56
368.636	90.56
368.862	74.56
369.089	76.56
369.315	79.56
369.541	83.56
369.767	92.56
369.993	83.56
370.219	69.56
370.445	79.56
370.672	86.56
370.898	85.56
371.124	84.56
371.35	85.56
371.576	66.56
371.802	82.56
372.028	79.56
372.254	83.56
372.48	94.56
372.706	83.56
372.932	80.56
373.158	83.56
373.384	91.56
373.61	72.56
373.835	73.56
374.061	81.56
374.287	90.56
374.513	90.56
374.739	85.56
374.965	85.56
375.191	78.56
375.416	83.56
375.642	80.56
375.868	87.56
376.094	93.56
376.319	82.56
376.545	83.56
376.771	84.56
376.997	86.56
377.222	76.56
377.448	72.56
377.674	74.56
377.899	82.56
378.125	82.56
378.35	90.56
378.576	72.56
378.802	89.56
379.027	78.56
379.253	89.56
379.478	82.56
379.704	101.56
379.929	82.56
380.155	87.56
380.38	98.56
380.606	80.56
380.831	83.56
381.057	82.56
381.282	71.56
381.507	81.56
381.733	74.56
381.958	90.56
382.184	101.56
382.409	81.56
382.634	77.56
382.86	79.56
383.085	83.56
383.31	77.56
383.535	86.56
383.761	80.56
383.986	73.56
384.211	89.56
384.436	80.56
384.662	83.56
384.887	92.56
385.112	83.56
385.337	85.56
385.562	61.56
385.787	83.56
386.013	86.56
386.238	69.56
386.463	84.56
386.688	92.56
386.913	102.56
387.138	86.56
387.363	85.56
387.588	84.56
387.813	89.56
388.038	84.56
388.263	81.56
388.488	92.56
388.713	75.56
388.938	77.56
389.163	67.56
389.387	85.56
389.612	82.56
389.837	75.56
390.062	76.56
390.287	87.56
390.512	77.56
390.736	70.56
390.961	86.56
391.186	89.56
391.411	80.56
391.636	78.56
391.86	91.56
392.085	78.56
392.31	90.56
392.534	79.56
392.759	86.56
392.984	86.56
393.208	79.56
393.433	83.56
393.658	81.56
393.882	74.56
394.107	73.56
394.331	76.56
394.556	72.56
394.78	78.56
395.005	74.56
395.229	76.56
395.454	92.56
395.678	74.56
395.903	74.56
396.127	87.56
396.352	95.56
396.576	91.56
396.801	87.56
397.025	77.56
397.249	86.56
397.474	72.56
397.698	70.56
397.922	66.56
398.147	74.56
398.371	79.56
398.595	81.56
398.82	82.56
399.044	85.56
399.268	77.56
399.492	83.56
399.717	71.56
399.941	84.56
400.165	87.56
400.389	91.56
400.613	82.56
400.837	97.56
401.062	79.56
401.286	85.56
401.51	73.56
401.734	64.56
401.958	72.56
402.182	68.56
402.406	91.56
402.63	78.56
402.854	87.56
403.078	93.56
403.302	90.56
403.526	78.56
403.75	78.56
403.974	72.56
404.198	68.56
404.422	91.56
404.645	89.56
404.869	80.56
405.093	80.56
405.317	90.56
405.541	81.56
405.765	79.56
405.988	90.56
406.212	71.56
406.436	85.56
406.66	83.56
406.883	77.56
407.107	77.56
407.331	67.56
407.555	76.56
407.778	88.56
408.002	85.56
408.226	85.56
408.449	82.56
408.673	85.56
408.896	90.56
409.12	77.56
409.344	81.56
409.567	81.56
409.791	87.56
410.014	86.56
410.238	95.56
410.461	80.56
410.685	63.56
410.908	80.56
411.132	82.56
411.355	73.56
411.578	97.56
411.802	79.56
412.025	72.56
412.249	86.56
412.472	82.56
412.695	81.56
412.919	76.56
413.142	76.56
413.365	76.56
413.589	78.56
413.812	92.56
414.035	83.56
414.258	74.56
414.482	75.56
414.705	88.56
414.928	86.56
415.151	84.56
415.374	79.56
415.597	69.56
415.821	59.56
416.044	89.56
416.267	83.56
416.49	87.56
416.713	93.56
416.936	71.56
417.159	91.56
417.382	94.56
417.605	84.56
417.828	88.56
418.051	83.56
418.274	81.56
418.497	86.56
418.72	81.56
418.943	71.56
419.166	79.56
419.389	83.56
419.611	89.56
419.834	79.56
420.057	87.56
420.28	86.56
420.503	79.56
420.726	84.56
420.948	77.56
421.171	81.56
421.394	61.56
421.617	83.56
421.839	87.56
422.062	68.56
422.285	90.56
422.507	89.56
422.73	77.56
422.953	74.56
423.175	80.56
423.398	73.56
423.621	86.56
423.843	81.56
424.066	89.56
424.288	78.56
424.511	84.56
424.733	81.56
424.956	89.56
425.178	72.56
425.401	77.56
425.623	70.56
425.846	83.56
426.068	70.56
426.291	74.56
426.513	68.56
426.735	76.56
426.958	78.56
427.18	77.56
427.402	79.56
427.625	74.56
427.847	79.56
428.069	79.56
428.292	75.56
428.514	90.56
428.736	83.56
428.958	74.56
429.181	76.56
429.403	75.56
429.625	70.56
429.847	68.56
430.069	85.56
430.292	80.56
430.514	78.56
430.736	86.56
430.958	77.56
431.18	78.56
431.402	85.56
431.624	73.56
431.846	82.56
432.068	87.56
432.29	91.56
432.512	100.56
432.734	86.56
432.956	79.56
433.178	90.56
433.4	67.56
433.622	63.56
433.844	76.56
434.066	85.56
434.287	88.56
434.509	81.56
434.731	86.56
434.953	80.56
435.175	84.56
435.397	76.56
435.618	70.56
435.84	82.56
436.062	73.56
436.284	80.56
436.505	78.56
436.727	75.56
436.949	78.56
437.17	80.56
437.392	81.56
437.614	78.56
437.835	75.56
438.057	74.56
438.278	74.56
438.5	80.56
438.721	65.56
438.943	67.56
439.165	76.56
439.386	89.56
439.608	68.56
439.829	72.56
440.05	91.56
440.272	81.56
440.493	89.56
440.715	90.56
440.936	93.56
441.158	82.56
441.379	75.56
441.6	85.56
441.822	69.56
442.043	79.56
442.264	98.56
442.486	81.56
442.707	91.56
442.928	78.56
443.149	83.56
443.371	77.56
443.592	73.56
443.813	75.56
444.034	61.56
444.255	94.56
444.476	76.56
444.698	84.56
444.919	89.56
445.14	138.56
445.361	101.56
445.582	83.56
445.803	91.56
446.024	79.56
446.245	68.56
446.466	65.56
446.687	86.56
446.908	79.56
447.129	76.56
447.35	83.56
447.571	70.56
447.792	89.56
448.013	83.56
448.234	86.56
448.455	78.56
448.675	80.56
448.896	77.56
449.117	78.56
449.338	85.56
449.559	63.56
449.779	76.56
450	80.56
450.221	80.56
450.442	68.56
450.662	82.56
450.883	75.56
451.104	82.56
451.324	69.56
451.545	79.56
451.766	82.56
451.986	68.56
452.207	67.56
452.428	74.56
452.648	77.56
452.869	77.56
453.089	80.56
453.31	83.56
453.53	78.56
453.751	82.56
453.971	80.56
454.192	84.56
454.412	78.56
454.633	82.56
454.853	71.56
455.073	77.56
455.294	86.56
455.514	84.56
455.734	71.56
455.955	83.56
456.175	75.56
456.395	59.56
456.616	82.56
456.836	73.56
457.056	84.56
457.276	84.56
457.497	80.56
457.717	85.56
457.937	79.56
458.157	73.56
458.377	83.56
458.598	71.56
458.818	69.56
459.038	74.56
459.258	81.56
459.478	83.56
459.698	77.56
459.918	78.56
460.138	75.56
460.358	82.56
460.578	94.56
460.798	88.56
461.018	90.56
461.238	78.56
461.458	83.56
461.678	73.56
461.898	70.56
462.118	81.56
462.338	75.56
462.558	71.56
462.777	82.56
462.997	84.56
463.217	70.56
463.437	89.56
463.657	89.56
463.876	82.56
464.096	77.56
464.316	68.56
464.536	94.56
464.755	86.56
464.975	76.56
465.195	71.56
465.414	94.56
465.634	85.56
465.854	66.56
466.073	71.56
466.293	75.56
466.512	77.56
466.732	78.56
466.951	85.56
467.171	81.56
467.391	69.56
467.61	63.56
467.829	79.56
468.049	78.56
468.268	71.56
468.488	91.56
468.707	88.56
468.927	80.56
469.146	83.56
469.365	75.56
469.585	68.56
469.804	67.56
470.023	94.56
470.243	84.56
470.462	76.56
470.681	74.56
470.901	80.56
471.12	79.56
471.339	92.56
471.558	78.56
471.777	82.56
471.997	72.56
472.216	82.56
472.435	83.56
472.654	87.56
472.873	97.56
473.092	74.56
473.311	69.56
473.53	71.56
473.749	90.56
473.968	91.56
474.187	73.56
474.406	83.56
474.625	99.56
474.844	94.56
475.063	84.56
475.282	82.56
475.501	69.56
475.72	83.56
475.939	82.56
476.158	75.56
476.377	86.56
476.596	77.56
476.814	92.56
477.033	91.56
477.252	81.56
477.471	77.56
477.69	86.56
477.908	85.56
478.127	86.56
478.346	77.56
478.564	81.56
478.783	82.56
479.002	81.56
479.22	91.56
479.439	69.56
479.658	77.56
479.876	86.56
480.095	73.56
480.313	101.56
480.532	70.56
480.751	76.56
480.969	70.56
481.188	61.56
481.406	58.56
481.624	82.56
481.843	86.56
482.061	83.56
482.28	93.56
482.498	81.56
482.717	79.56
482.935	96.56
483.153	81.56
483.372	74.56
483.59	86.56
483.808	80.56
484.027	79.56
484.245	76.56
484.463	74.56
484.681	83.56
484.9	81.56
485.118	78.56
485.336	74.56
485.554	87.56
485.772	76.56
485.99	63.56
486.209	72.56
486.427	84.56
486.645	91.56
486.863	87.56
487.081	84.56
487.299	91.56
487.517	89.56
487.735	68.56
487.953	78.56
488.171	91.56
488.389	75.56
488.607	84.56
488.825	78.56
489.043	66.56
489.261	80.56
489.479	65.56
489.696	76.56
489.914	94.56
490.132	75.56
490.35	71.56
490.568	85.56
490.786	86.56
491.003	73.56
491.221	78.56
491.439	80.56
491.657	94.56
491.874	85.56
492.092	97.56
492.31	94.56
492.527	94.56
492.745	86.56
492.963	80.56
493.18	79.56
493.398	80.56
493.615	83.56
493.833	81.56
494.05	85.56
494.268	87.56
494.485	79.56
494.703	78.56
494.92	78.56
495.138	87.56
495.355	71.56
495.573	82.56
495.79	75.56
496.008	76.56
496.225	89.56
496.442	83.56
496.66	84.56
496.877	83.56
497.094	87.56
497.312	78.56
497.529	75.56
497.746	60.56
497.963	75.56
498.181	75.56
498.398	82.56
498.615	80.56
498.832	69.56
499.049	82.56
499.267	77.56
499.484	64.56
499.701	84.56
499.918	86.56
500.135	79.56
500.352	73.56
500.569	77.56
500.786	88.56
501.003	69.56
501.22	75.56
501.437	82.56
501.654	83.56
501.871	70.56
502.088	75.56
502.305	69.56
502.522	65.56
502.739	79.56
502.956	80.56
503.172	81.56
503.389	66.56
503.606	82.56
503.823	77.56
504.04	82.56
504.256	83.56
504.473	72.56
504.69	79.56
504.907	102.56
505.123	86.56
505.34	71.56
505.557	83.56
505.773	90.56
505.99	77.56
506.207	88.56
506.423	83.56
506.64	83.56
506.856	90.56
507.073	79.56
507.289	93.56
507.506	85.56
507.722	84.56
507.939	71.56
508.155	75.56
508.372	71.56
508.588	79.56
508.805	88.56
509.021	79.56
509.238	86.56
509.454	77.56
509.67	65.56
509.887	71.56
510.103	84.56
510.319	105.56
510.536	80.56
510.752	83.56
510.968	77.56
511.184	84.56
511.401	85.56
511.617	89.56
511.833	79.56
512.049	87.56
512.265	89.56
512.481	73.56
512.698	67.56
512.914	78.56
513.13	101.56
513.346	67.56
513.562	92.56
513.778	69.56
513.994	87.56
514.21	82.56
514.426	81.56
514.642	69.56
514.858	91.56
515.074	75.56
515.29	75.56
515.506	71.56
515.721	75.56
515.937	89.56
516.153	72.56
516.369	81.56
516.585	83.56
516.801	83.56
517.016	84.56
517.232	83.56
517.448	78.56
517.664	89.56
517.879	83.56
518.095	87.56
518.311	79.56
518.527	101.56
518.742	75.56
518.958	85.56
519.173	84.56
519.389	78.56
519.605	86.56
519.82	94.56
520.036	70.56
520.251	74.56
520.467	87.56
520.682	72.56
520.898	81.56
521.113	75.56
521.329	81.56
521.544	81.56
521.76	77.56
521.975	75.56
522.19	70.56
522.406	78.56
522.621	73.56
522.836	87.56
523.052	76.56
523.267	98.56
523.482	82.56
523.698	77.56
523.913	80.56
524.128	91.56
524.343	78.56
524.559	82.56
524.774	65.56
524.989	91.56
525.204	89.56
525.419	82.56
525.634	86.56
525.849	78.56
526.064	78.56
526.28	97.56
526.495	87.56
526.71	82.56
526.925	72.56
527.14	76.56
527.355	76.56
527.57	95.56
527.785	67.56
527.999	67.56
528.214	74.56
528.429	78.56
528.644	65.56
528.859	92.56
529.074	78.56
529.289	87.56
529.503	91.56
529.718	75.56
529.933	77.56
530.148	79.56
530.363	89.56
530.577	82.56
530.792	80.56
531.007	65.56
531.221	82.56
531.436	80.56
531.651	86.56
531.865	86.56
532.08	80.56
532.295	95.56
532.509	78.56
532.724	76.56
532.938	80.56
533.153	80.56
533.367	75.56
533.582	83.56
533.796	72.56
534.011	76.56
534.225	75.56
534.44	92.56
534.654	77.56
534.868	80.56
535.083	85.56
535.297	92.56
535.511	100.56
535.726	93.56
535.94	87.56
536.154	90.56
536.369	89.56
536.583	73.56
536.797	84.56
537.011	70.56
537.225	89.56
537.44	85.56
537.654	85.56
537.868	80.56
538.082	99.56
538.296	90.56
538.51	89.56
538.724	97.56
538.938	89.56
539.153	87.56
539.367	77.56
539.581	81.56
539.795	80.56
540.009	79.56
540.222	91.56
540.436	85.56
540.65	79.56
540.864	72.56
541.078	70.56
541.292	82.56
541.506	83.56
541.72	89.56
541.934	85.56
542.147	77.56
542.361	95.56
542.575	98.56
542.789	78.56
543.002	82.56
543.216	79.56
543.43	83.56
543.644	89.56
543.857	84.56
544.071	86.56
544.285	102.56
544.498	79.56
544.712	81.56
544.925	94.56
545.139	88.56
545.352	78.56
545.566	85.56
545.779	84.56
545.993	75.56
546.206	98.56
546.42	79.56
546.633	84.56
546.847	93.56
547.06	75.56
547.274	70.56
547.487	82.56
547.7	86.56
547.914	85.56
548.127	87.56
548.34	82.56
548.554	78.56
548.767	80.56
548.98	84.56
549.193	77.56
549.407	88.56
549.62	89.56
549.833	59.56
550.046	86.56
550.259	87.56
550.473	78.56
550.686	95.56
550.899	86.56
551.112	81.56
551.325	81.56
551.538	74.56
551.751	75.56
551.964	86.56
552.177	80.56
552.39	81.56
552.603	88.56
552.816	87.56
553.029	71.56
553.242	83.56
553.455	84.56
553.667	85.56
553.88	83.56
554.093	76.56
554.306	92.56
554.519	76.56
554.732	86.56
554.944	77.56
555.157	76.56
555.37	83.56
555.583	77.56
555.795	85.56
556.008	71.56
556.221	79.56
556.433	79.56
556.646	80.56
556.859	90.56
557.071	88.56
557.284	78.56
557.496	83.56
557.709	89.56
557.921	90.56
558.134	93.56
558.346	89.56
558.559	74.56
558.771	91.56
558.984	84.56
559.196	76.56
559.409	70.56
559.621	84.56
559.833	85.56
560.046	83.56
560.258	66.56
560.47	84.56
560.683	82.56
560.895	75.56
561.107	72.56
561.32	83.56
561.532	85.56
561.744	94.56
561.956	94.56
562.168	101.56
562.381	92.56
562.593	83.56
562.805	82.56
563.017	91.56
563.229	84.56
563.441	86.56
563.653	81.56
563.865	81.56
564.077	87.56
564.289	82.56
564.501	75.56
564.713	75.56
564.925	64.56
565.137	92.56
565.349	89.56
565.561	100.56
565.773	91.56
565.985	89.56
566.197	84.56
566.408	82.56
566.62	91.56
566.832	89.56
567.044	95.56
567.255	94.56
567.467	76.56
567.679	98.56
567.891	100.56
568.102	94.56
568.314	84.56
568.526	89.56
568.737	68.56
568.949	93.56
569.161	82.56
569.372	77.56
569.584	88.56
569.795	91.56
570.007	85.56
570.218	85.56
570.43	92.56
570.641	75.56
570.853	79.56
571.064	84.56
571.276	78.56
571.487	77.56
571.698	82.56
571.91	91.56
572.121	79.56
572.333	78.56
572.544	82.56
572.755	82.56
572.966	83.56
573.178	85.56
573.389	97.56
573.6	85.56
573.811	93.56
574.023	71.56
574.234	82.56
574.445	71.56
574.656	86.56
574.867	83.56
575.078	87.56
575.289	84.56
575.501	87.56
575.712	98.56
575.923	96.56
576.134	95.56
576.345	69.56
576.556	90.56
576.767	76.56
576.978	96.56
577.188	91.56
577.399	81.56
577.61	81.56
577.821	84.56
578.032	87.56
578.243	79.56
578.454	74.56
578.665	110.56
578.875	73.56
579.086	75.56
579.297	87.56
579.508	80.56
579.718	79.56
579.929	90.56
580.14	88.56
580.35	98.56
580.561	84.56
580.772	73.56
580.982	104.56
581.193	78.56
581.403	79.56
581.614	68.56
581.825	76.56
582.035	72.56
582.246	88.56
582.456	77.56
582.667	84.56
582.877	92.56
583.087	92.56
583.298	92.56
583.508	68.56
583.719	94.56
583.929	71.56
584.139	91.56
584.35	87.56
584.56	92.56
584.77	81.56
584.981	73.56
585.191	79.56
585.401	78.56
585.611	77.56
585.821	92.56
586.032	84.56
586.242	81.56
586.452	91.56
586.662	92.56
586.872	84.56
587.082	86.56
587.292	87.56
587.502	90.56
587.713	67.56
587.923	90.56
588.133	68.56
588.343	90.56
588.553	87.56
588.762	84.56
588.972	89.56
589.182	76.56
589.392	83.56
589.602	97.56
589.812	74.56
590.022	88.56
590.232	65.56
590.441	82.56
590.651	97.56
590.861	82.56
591.071	87.56
591.281	77.56
591.49	69.56
591.7	80.56
591.91	88.56
592.119	76.56
592.329	88.56
592.539	83.56
592.748	84.56
592.958	71.56
593.167	82.56
593.377	89.56
593.587	86.56
593.796	85.56
594.006	83.56
594.215	74.56
594.424	86.56
594.634	77.56
594.843	89.56
595.053	81.56
595.262	57.56
595.472	81.56
595.681	84.56
595.89	95.56
596.1	94.56
596.309	74.56
596.518	90.56
596.727	91.56
596.937	92.56
597.146	91.56
597.355	79.56
597.564	101.56
597.774	78.56
597.983	84.56
598.192	96.56
598.401	95.56
598.61	89.56
598.819	109.56
599.028	76.56
599.237	87.56
599.446	89.56
599.655	91.56
599.864	71.56
600.073	89.56
600.282	85.56
600.491	78.56
600.7	86.56
600.909	90.56
601.118	86.56
601.327	77.56
601.536	81.56
601.745	97.56
601.953	85.56
602.162	86.56
602.371	80.56
602.58	89.56
602.789	87.56
602.997	90.56
603.206	76.56
603.415	88.56
603.623	69.56
603.832	81.56
604.041	86.56
604.249	97.56
604.458	83.56
604.666	82.56
604.875	87.56
605.084	74.56
605.292	87.56
605.501	80.56
605.709	81.56
605.918	89.56
606.126	70.56
606.334	84.56
606.543	77.56
606.751	89.56
606.96	80.56
607.168	87.56
607.376	73.56
607.585	94.56
607.793	84.56
608.001	89.56
608.21	85.56
608.418	84.56
608.626	82.56
608.834	72.56
609.043	73.56
609.251	93.56
609.459	91.56
609.667	85.56
609.875	90.56
610.083	83.56
610.291	87.56
610.499	81.56
610.707	82.56
610.916	89.56
611.124	83.56
611.332	86.56
611.54	71.56
611.748	77.56
611.955	79.56
612.163	80.56
612.371	69.56
612.579	91.56
612.787	80.56
612.995	77.56
613.203	89.56
613.411	85.56
613.618	93.56
613.826	71.56
614.034	70.56
614.242	83.56
614.449	80.56
614.657	76.56
614.865	92.56
615.072	81.56
615.28	77.56
615.488	81.56
615.695	86.56
615.903	87.56
616.111	70.56
616.318	98.56
616.526	95.56
616.733	91.56
616.941	89.56
617.148	63.56
617.356	81.56
617.563	94.56
617.771	86.56
617.978	89.56
618.185	81.56
618.393	76.56
618.6	91.56
618.807	81.56
619.015	74.56
619.222	79.56
619.429	93.56
619.637	72.56
619.844	72.56
620.051	81.56
620.258	75.56
620.466	85.56
620.673	78.56
620.88	86.56
621.087	92.56
621.294	93.56
621.501	74.56
621.708	81.56
621.915	98.56
622.122	82.56
622.329	79.56
622.536	95.56
622.743	81.56
622.95	97.56
623.157	84.56
623.364	101.56
623.571	81.56
623.778	94.56
623.985	77.56
624.192	76.56
624.399	88.56
624.606	85.56
624.812	78.56
625.019	90.56
625.226	87.56
625.433	79.56
625.639	83.56
625.846	80.56
626.053	85.56
626.259	83.56
626.466	74.56
626.673	97.56
626.879	78.56
627.086	93.56
627.293	82.56
627.499	77.56
627.706	84.56
627.912	83.56
628.119	68.56
628.325	91.56
628.532	92.56
628.738	87.56
628.945	70.56
629.151	80.56
629.357	84.56
629.564	77.56
629.77	91.56
629.976	84.56
630.183	71.56
630.389	71.56
630.595	92.56
630.802	82.56
631.008	94.56
631.214	80.56
631.42	93.56
631.627	84.56
631.833	87.56
632.039	89.56
632.245	83.56
632.451	85.56
632.657	74.56
632.863	77.56
633.069	78.56
633.275	82.56
633.481	102.56
633.688	88.56
633.893	85.56
634.099	91.56
634.305	90.56
634.511	79.56
634.717	81.56
634.923	98.56
635.129	94.56
635.335	75.56
635.541	75.56
635.747	106.56
635.952	82.56
636.158	80.56
636.364	80.56
636.57	83.56
636.775	86.56
636.981	71.56
637.187	90.56
637.392	89.56
637.598	74.56
637.804	101.56
638.009	77.56
638.215	86.56
638.421	82.56
638.626	92.56
638.832	94.56
639.037	79.56
639.243	70.56
639.448	103.56
639.654	101.56
639.859	89.56
640.065	85.56
640.27	99.56
640.475	76.56
640.681	77.56
640.886	81.56
641.091	73.56
641.297	82.56
641.502	91.56
641.707	81.56
641.913	83.56
642.118	91.56
642.323	78.56
642.528	78.56
642.733	91.56
642.939	85.56
643.144	83.56
643.349	77.56
643.554	83.56
643.759	77.56
643.964	79.56
644.169	109.56
644.374	98.56
644.579	84.56
644.784	81.56
644.989	87.56
645.194	112.56
645.399	79.56
645.604	83.56
645.809	76.56
646.014	96.56
646.219	87.56
646.423	82.56
646.628	93.56
646.833	88.56
647.038	84.56
647.243	82.56
647.447	73.56
647.652	78.56
647.857	90.56
648.062	94.56
648.266	86.56
648.471	82.56
648.676	84.56
648.88	79.56
649.085	87.56
649.289	85.56
649.494	93.56
649.698	89.56
649.903	81.56
650.107	89.56
650.312	82.56
650.516	84.56
650.721	74.56
650.925	82.56
651.13	74.56
651.334	93.56
651.539	74.56
651.743	74.56
651.947	95.56
652.152	86.56
652.356	79.56
652.56	76.56
652.764	87.56
652.969	80.56
653.173	86.56
653.377	65.56
653.581	83.56
653.785	90.56
653.99	84.56
654.194	77.56
654.398	71.56
654.602	74.56
654.806	76.56
655.01	84.56
655.214	93.56
655.418	75.56
655.622	91.56
655.826	101.56
656.03	81.56
656.234	85.56
656.438	91.56
656.642	77.56
656.846	85.56
657.049	81.56
657.253	67.56
657.457	94.56
657.661	88.56
657.865	81.56
658.068	87.56
658.272	81.56
658.476	88.56
658.68	64.56
658.883	73.56
659.087	89.56
659.291	70.56
659.494	75.56
659.698	86.56
659.901	102.56
660.105	93.56
660.309	72.56
660.512	81.56
660.716	71.56
660.919	85.56
661.123	102.56
661.326	71.56
661.53	78.56
661.733	85.56
661.936	85.56
662.14	82.56
662.343	91.56
662.546	78.56
662.75	72.56
662.953	96.56
663.156	90.56
663.36	85.56
663.563	83.56
663.766	80.56
663.969	87.56
664.173	84.56
664.376	69.56
664.579	84.56
664.782	78.56
664.985	79.56
665.188	82.56
665.391	96.56
665.594	75.56
665.797	83.56
666	71.56
666.203	70.56
666.406	81.56
666.609	84.56
666.812	84.56
667.015	81.56
667.218	82.56
667.421	90.56
667.624	85.56
667.827	85.56
668.03	91.56
668.232	77.56
668.435	79.56
668.638	79.56
668.841	83.56
669.043	78.56
669.246	87.56
669.449	70.56
669.651	84.56
669.854	97.56
670.057	68.56
670.259	76.56
670.462	88.56
670.665	74.56
670.867	68.56
671.07	82.56
671.272	77.56
671.475	86.56
671.677	91.56
671.88	91.56
672.082	88.56
672.284	95.56
672.487	85.56
672.689	87.56
672.892	84.56
