Data from Uncirc_1991_H10_HRD10591_00003.txt Node
Date: Wed Jan 03 11:50:38 EST 2024
User: Yrep
Spectrometer: HR+D1059
Trigger mode: 1
Integration Time (sec): 1.000000E-1
Scans to average: 1
Electric dark correction enabled: true
Nonlinearity correction enabled: false
Boxcar width: 0
XAxis mode: Wavelengths
Number of Pixels in Spectrum: 2048
>>>>>Begin Spectral Data<<<<<
223.165	-18.06
223.4	-18.06
223.635	-18.06
223.869	-15.06
224.104	-20.06
224.338	-22.06
224.573	-25.06
224.808	-20.06
225.042	3.94
225.277	-10.06
225.511	-2.06
225.746	-2.06
225.98	14.94
226.215	14.94
226.449	8.94
226.683	21.94
226.918	27.94
227.152	41.94
227.387	35.94
227.621	38.94
227.856	42.94
228.09	48.94
228.324	49.94
228.559	61.94
228.793	61.94
229.027	50.94
229.262	64.94
229.496	70.94
229.73	80.94
229.964	69.94
230.199	85.94
230.433	77.94
230.667	66.94
230.901	84.94
231.136	69.94
231.37	90.94
231.604	82.94
231.838	73.94
232.072	74.94
232.306	71.94
232.541	85.94
232.775	72.94
233.009	78.94
233.243	89.94
233.477	83.94
233.711	83.94
233.945	88.94
234.179	79.94
234.413	77.94
234.647	75.94
234.881	77.94
235.115	77.94
235.349	70.94
235.583	81.94
235.817	94.94
236.051	89.94
236.285	82.94
236.519	83.94
236.753	77.94
236.987	77.94
237.221	90.94
237.455	65.94
237.689	72.94
237.922	83.94
238.156	94.94
238.39	66.94
238.624	66.94
238.858	80.94
239.091	81.94
239.325	80.94
239.559	58.94
239.793	60.94
240.027	66.94
240.26	64.94
240.494	77.94
240.728	63.94
240.961	82.94
241.195	77.94
241.429	71.94
241.662	93.94
241.896	80.94
242.13	94.94
242.363	79.94
242.597	74.94
242.83	77.94
243.064	74.94
243.298	64.94
243.531	88.94
243.765	82.94
243.998	86.94
244.232	90.94
244.465	90.94
244.699	73.94
244.932	86.94
245.166	81.94
245.399	77.94
245.633	73.94
245.866	95.94
246.099	89.94
246.333	79.94
246.566	80.94
246.8	78.94
247.033	73.94
247.266	69.94
247.5	75.94
247.733	74.94
247.966	94.94
248.2	66.94
248.433	72.94
248.666	70.94
248.899	92.94
249.133	76.94
249.366	75.94
249.599	82.94
249.832	83.94
250.066	99.94
250.299	77.94
250.532	85.94
250.765	87.94
250.998	72.94
251.231	66.94
251.465	73.94
251.698	86.94
251.931	78.94
252.164	72.94
252.397	65.94
252.63	82.94
252.863	81.94
253.096	81.94
253.329	78.94
253.562	80.94
253.795	75.94
254.028	77.94
254.261	75.94
254.494	72.94
254.727	93.94
254.96	84.94
255.193	82.94
255.426	81.94
255.659	66.94
255.892	78.94
256.124	96.94
256.357	82.94
256.59	79.94
256.823	68.94
257.056	81.94
257.289	80.94
257.521	101.94
257.754	92.94
257.987	78.94
258.22	82.94
258.452	73.94
258.685	91.94
258.918	93.94
259.151	78.94
259.383	79.94
259.616	82.94
259.849	81.94
260.081	100.94
260.314	93.94
260.547	84.94
260.779	82.94
261.012	93.94
261.244	84.94
261.477	86.94
261.71	86.94
261.942	100.94
262.175	108.94
262.407	84.94
262.64	85.94
262.872	78.94
263.105	78.94
263.337	76.94
263.57	84.94
263.802	92.94
264.035	78.94
264.267	77.94
264.499	78.94
264.732	83.94
264.964	93.94
265.197	89.94
265.429	81.94
265.661	90.94
265.894	92.94
266.126	95.94
266.358	88.94
266.591	84.94
266.823	93.94
267.055	76.94
267.287	58.94
267.52	84.94
267.752	93.94
267.984	85.94
268.216	90.94
268.448	90.94
268.681	93.94
268.913	95.94
269.145	80.94
269.377	92.94
269.609	80.94
269.841	84.94
270.073	73.94
270.306	80.94
270.538	90.94
270.77	79.94
271.002	72.94
271.234	76.94
271.466	78.94
271.698	83.94
271.93	83.94
272.162	81.94
272.394	84.94
272.626	89.94
272.858	79.94
273.09	75.94
273.322	78.94
273.553	87.94
273.785	77.94
274.017	78.94
274.249	83.94
274.481	72.94
274.713	76.94
274.945	78.94
275.176	91.94
275.408	94.94
275.64	82.94
275.872	79.94
276.104	86.94
276.335	92.94
276.567	97.94
276.799	107.94
277.031	88.94
277.262	84.94
277.494	76.94
277.726	88.94
277.957	93.94
278.189	76.94
278.421	86.94
278.652	96.94
278.884	94.94
279.115	87.94
279.347	78.94
279.579	77.94
279.81	83.94
280.042	93.94
280.273	94.94
280.505	84.94
280.736	98.94
280.968	80.94
281.199	80.94
281.431	97.94
281.662	81.94
281.894	92.94
282.125	86.94
282.356	104.94
282.588	127.94
282.819	109.94
283.051	100.94
283.282	93.94
283.513	88.94
283.745	88.94
283.976	91.94
284.207	82.94
284.439	96.94
284.67	88.94
284.901	86.94
285.132	93.94
285.364	80.94
285.595	82.94
285.826	93.94
286.057	86.94
286.288	96.94
286.52	88.94
286.751	88.94
286.982	99.94
287.213	102.94
287.444	94.94
287.675	82.94
287.906	81.94
288.138	82.94
288.369	94.94
288.6	98.94
288.831	70.94
289.062	102.94
289.293	81.94
289.524	69.94
289.755	97.94
289.986	91.94
290.217	80.94
290.448	89.94
290.679	82.94
290.91	83.94
291.141	77.94
291.371	90.94
291.602	92.94
291.833	86.94
292.064	90.94
292.295	93.94
292.526	72.94
292.757	105.94
292.987	88.94
293.218	85.94
293.449	77.94
293.68	81.94
293.91	90.94
294.141	92.94
294.372	88.94
294.603	100.94
294.833	83.94
295.064	100.94
295.295	91.94
295.525	91.94
295.756	87.94
295.987	120.94
296.217	140.94
296.448	114.94
296.679	85.94
296.909	90.94
297.14	87.94
297.37	102.94
297.601	85.94
297.831	90.94
298.062	85.94
298.292	85.94
298.523	89.94
298.753	85.94
298.984	101.94
299.214	91.94
299.445	95.94
299.675	88.94
299.905	93.94
300.136	98.94
300.366	93.94
300.597	95.94
300.827	92.94
301.057	91.94
301.288	89.94
301.518	89.94
301.748	99.94
301.979	108.94
302.209	78.94
302.439	83.94
302.669	89.94
302.9	92.94
303.13	81.94
303.36	96.94
303.59	117.94
303.82	100.94
304.051	88.94
304.281	93.94
304.511	92.94
304.741	83.94
304.971	80.94
305.201	78.94
305.431	79.94
305.661	92.94
305.891	83.94
306.121	99.94
306.352	99.94
306.582	100.94
306.812	91.94
307.042	89.94
307.272	85.94
307.502	91.94
307.731	86.94
307.961	95.94
308.191	93.94
308.421	80.94
308.651	80.94
308.881	86.94
309.111	100.94
309.341	97.94
309.571	101.94
309.8	88.94
310.03	98.94
310.26	97.94
310.49	84.94
310.72	100.94
310.949	100.94
311.179	101.94
311.409	95.94
311.639	98.94
311.868	85.94
312.098	105.94
312.328	91.94
312.557	93.94
312.787	103.94
313.017	90.94
313.246	97.94
313.476	82.94
313.706	88.94
313.935	91.94
314.165	91.94
314.394	94.94
314.624	94.94
314.853	101.94
315.083	90.94
315.312	96.94
315.542	84.94
315.771	99.94
316.001	90.94
316.23	76.94
316.46	91.94
316.689	87.94
316.919	101.94
317.148	88.94
317.377	93.94
317.607	102.94
317.836	80.94
318.065	92.94
318.295	97.94
318.524	84.94
318.753	83.94
318.983	91.94
319.212	101.94
319.441	116.94
319.67	96.94
319.9	82.94
320.129	67.94
320.358	97.94
320.587	91.94
320.816	88.94
321.046	111.94
321.275	86.94
321.504	87.94
321.733	108.94
321.962	105.94
322.191	105.94
322.42	108.94
322.649	97.94
322.878	101.94
323.108	112.94
323.337	127.94
323.566	140.94
323.795	160.94
324.024	201.94
324.253	392.94
324.482	852.94
324.71	1792.94
324.939	2430.94
325.168	866.94
325.397	236.94
325.626	146.94
325.855	119.94
326.084	121.94
326.313	122.94
326.542	131.94
326.77	221.94
326.999	491.94
327.228	978.94
327.457	1852.94
327.686	1464.94
327.914	372.94
328.143	200.94
328.372	146.94
328.6	108.94
328.829	101.94
329.058	124.94
329.287	134.94
329.515	123.94
329.744	106.94
329.972	107.94
330.201	100.94
330.43	94.94
330.658	123.94
330.887	143.94
331.115	137.94
331.344	99.94
331.572	94.94
331.801	88.94
332.03	99.94
332.258	95.94
332.486	99.94
332.715	80.94
332.943	94.94
333.172	83.94
333.4	89.94
333.629	98.94
333.857	99.94
334.085	84.94
334.314	100.94
334.542	103.94
334.771	99.94
334.999	96.94
335.227	99.94
335.455	84.94
335.684	96.94
335.912	76.94
336.14	97.94
336.369	89.94
336.597	95.94
336.825	99.94
337.053	92.94
337.281	92.94
337.51	83.94
337.738	104.94
337.966	93.94
338.194	86.94
338.422	98.94
338.65	102.94
338.878	96.94
339.106	92.94
339.334	99.94
339.562	90.94
339.79	99.94
340.018	87.94
340.246	67.94
340.474	103.94
340.702	105.94
340.93	89.94
341.158	100.94
341.386	83.94
341.614	111.94
341.842	99.94
342.07	95.94
342.298	90.94
342.526	96.94
342.754	90.94
342.981	90.94
343.209	91.94
343.437	100.94
343.665	92.94
343.893	92.94
344.12	89.94
344.348	82.94
344.576	89.94
344.804	88.94
345.031	90.94
345.259	95.94
345.487	88.94
345.714	92.94
345.942	84.94
346.17	86.94
346.397	92.94
346.625	88.94
346.853	86.94
347.08	107.94
347.308	101.94
347.535	106.94
347.763	102.94
347.99	84.94
348.218	93.94
348.445	84.94
348.673	100.94
348.9	101.94
349.128	95.94
349.355	82.94
349.583	91.94
349.81	89.94
350.037	77.94
350.265	82.94
350.492	92.94
350.72	89.94
350.947	93.94
351.174	116.94
351.402	107.94
351.629	107.94
351.856	100.94
352.083	99.94
352.311	92.94
352.538	105.94
352.765	101.94
352.992	100.94
353.22	100.94
353.447	104.94
353.674	112.94
353.901	100.94
354.128	87.94
354.355	80.94
354.583	92.94
354.81	86.94
355.037	94.94
355.264	95.94
355.491	102.94
355.718	69.94
355.945	94.94
356.172	88.94
356.399	84.94
356.626	90.94
356.853	85.94
357.08	97.94
357.307	95.94
357.534	95.94
357.761	100.94
357.988	91.94
358.215	111.94
358.441	82.94
358.668	96.94
358.895	99.94
359.122	82.94
359.349	94.94
359.576	99.94
359.802	90.94
360.029	99.94
360.256	112.94
360.483	88.94
360.709	83.94
360.936	103.94
361.163	111.94
361.39	96.94
361.616	91.94
361.843	94.94
362.07	94.94
362.296	101.94
362.523	92.94
362.749	86.94
362.976	85.94
363.203	82.94
363.429	97.94
363.656	78.94
363.882	102.94
364.109	89.94
364.335	90.94
364.562	102.94
364.788	82.94
365.015	89.94
365.241	102.94
365.468	111.94
365.694	102.94
365.92	99.94
366.147	89.94
366.373	73.94
366.599	96.94
366.826	98.94
367.052	84.94
367.278	82.94
367.505	84.94
367.731	88.94
367.957	99.94
368.184	82.94
368.41	96.94
368.636	97.94
368.862	132.94
369.089	106.94
369.315	98.94
369.541	94.94
369.767	88.94
369.993	89.94
370.219	75.94
370.445	78.94
370.672	95.94
370.898	90.94
371.124	86.94
371.35	95.94
371.576	92.94
371.802	102.94
372.028	90.94
372.254	84.94
372.48	79.94
372.706	80.94
372.932	85.94
373.158	87.94
373.384	98.94
373.61	99.94
373.835	100.94
374.061	77.94
374.287	89.94
374.513	85.94
374.739	80.94
374.965	89.94
375.191	96.94
375.416	88.94
375.642	94.94
375.868	97.94
376.094	91.94
376.319	98.94
376.545	80.94
376.771	81.94
376.997	86.94
377.222	100.94
377.448	79.94
377.674	90.94
377.899	91.94
378.125	82.94
378.35	81.94
378.576	86.94
378.802	72.94
379.027	92.94
379.253	85.94
379.478	84.94
379.704	89.94
379.929	99.94
380.155	88.94
380.38	87.94
380.606	89.94
380.831	99.94
381.057	99.94
381.282	100.94
381.507	81.94
381.733	97.94
381.958	104.94
382.184	101.94
382.409	93.94
382.634	96.94
382.86	94.94
383.085	101.94
383.31	96.94
383.535	87.94
383.761	84.94
383.986	83.94
384.211	99.94
384.436	85.94
384.662	89.94
384.887	109.94
385.112	105.94
385.337	103.94
385.562	92.94
385.787	106.94
386.013	98.94
386.238	107.94
386.463	109.94
386.688	112.94
386.913	108.94
387.138	110.94
387.363	95.94
387.588	88.94
387.813	89.94
388.038	108.94
388.263	96.94
388.488	104.94
388.713	100.94
388.938	98.94
389.163	92.94
389.387	86.94
389.612	102.94
389.837	88.94
390.062	90.94
390.287	81.94
390.512	82.94
390.736	93.94
390.961	79.94
391.186	87.94
391.411	88.94
391.636	87.94
391.86	100.94
392.085	91.94
392.31	81.94
392.534	77.94
392.759	89.94
392.984	96.94
393.208	82.94
393.433	95.94
393.658	93.94
393.882	71.94
394.107	78.94
394.331	85.94
394.556	90.94
394.78	108.94
395.005	101.94
395.229	93.94
395.454	84.94
395.678	92.94
395.903	88.94
396.127	81.94
396.352	96.94
396.576	80.94
396.801	78.94
397.025	86.94
397.249	85.94
397.474	91.94
397.698	87.94
397.922	97.94
398.147	101.94
398.371	98.94
398.595	91.94
398.82	88.94
399.044	94.94
399.268	81.94
399.492	88.94
399.717	105.94
399.941	95.94
400.165	108.94
400.389	102.94
400.613	85.94
400.837	85.94
401.062	94.94
401.286	92.94
401.51	84.94
401.734	81.94
401.958	83.94
402.182	121.94
402.406	143.94
402.63	104.94
402.854	105.94
403.078	91.94
403.302	76.94
403.526	97.94
403.75	86.94
403.974	71.94
404.198	69.94
404.422	96.94
404.645	84.94
404.869	93.94
405.093	109.94
405.317	102.94
405.541	106.94
405.765	84.94
405.988	111.94
406.212	162.94
406.436	210.94
406.66	122.94
406.883	91.94
407.107	99.94
407.331	89.94
407.555	99.94
407.778	107.94
408.002	91.94
408.226	89.94
408.449	92.94
408.673	84.94
408.896	92.94
409.12	78.94
409.344	86.94
409.567	59.94
409.791	90.94
410.014	82.94
410.238	98.94
410.461	93.94
410.685	107.94
410.908	93.94
411.132	118.94
411.355	101.94
411.578	106.94
411.802	93.94
412.025	90.94
412.249	99.94
412.472	76.94
412.695	88.94
412.919	81.94
413.142	75.94
413.365	88.94
413.589	86.94
413.812	81.94
414.035	82.94
414.258	83.94
414.482	91.94
414.705	98.94
414.928	92.94
415.151	80.94
415.374	98.94
415.597	85.94
415.821	89.94
416.044	103.94
416.267	95.94
416.49	78.94
416.713	88.94
416.936	90.94
417.159	84.94
417.382	81.94
417.605	93.94
417.828	87.94
418.051	103.94
418.274	82.94
418.497	85.94
418.72	101.94
418.943	91.94
419.166	84.94
419.389	92.94
419.611	87.94
419.834	83.94
420.057	92.94
420.28	88.94
420.503	79.94
420.726	84.94
420.948	99.94
421.171	82.94
421.394	86.94
421.617	83.94
421.839	79.94
422.062	111.94
422.285	94.94
422.507	98.94
422.73	101.94
422.953	80.94
423.175	81.94
423.398	89.94
423.621	88.94
423.843	88.94
424.066	102.94
424.288	83.94
424.511	89.94
424.733	101.94
424.956	101.94
425.178	101.94
425.401	98.94
425.623	91.94
425.846	70.94
426.068	90.94
426.291	89.94
426.513	91.94
426.735	100.94
426.958	114.94
427.18	101.94
427.402	138.94
427.625	152.94
427.847	133.94
428.069	97.94
428.292	93.94
428.514	81.94
428.736	82.94
428.958	80.94
429.181	76.94
429.403	89.94
429.625	102.94
429.847	95.94
430.069	93.94
430.292	100.94
430.514	99.94
430.736	73.94
430.958	92.94
431.18	77.94
431.402	85.94
431.624	78.94
431.846	86.94
432.068	92.94
432.29	97.94
432.512	85.94
432.734	77.94
432.956	89.94
433.178	89.94
433.4	97.94
433.622	86.94
433.844	84.94
434.066	95.94
434.287	97.94
434.509	103.94
434.731	83.94
434.953	95.94
435.175	86.94
435.397	102.94
435.618	96.94
435.84	100.94
436.062	115.94
436.284	126.94
436.505	102.94
436.727	101.94
436.949	97.94
437.17	88.94
437.392	86.94
437.614	78.94
437.835	99.94
438.057	117.94
438.278	121.94
438.5	117.94
438.721	126.94
438.943	88.94
439.165	102.94
439.386	86.94
439.608	82.94
439.829	98.94
440.05	128.94
440.272	153.94
440.493	92.94
440.715	93.94
440.936	90.94
441.158	92.94
441.379	92.94
441.6	103.94
441.822	105.94
442.043	90.94
442.264	119.94
442.486	108.94
442.707	94.94
442.928	97.94
443.149	112.94
443.371	125.94
443.592	110.94
443.813	120.94
444.034	117.94
444.255	95.94
444.476	95.94
444.698	85.94
444.919	74.94
445.14	123.94
445.361	119.94
445.582	114.94
445.803	145.94
446.024	148.94
446.245	139.94
446.466	116.94
446.687	83.94
446.908	90.94
447.129	88.94
447.35	74.94
447.571	91.94
447.792	92.94
448.013	83.94
448.234	105.94
448.455	101.94
448.675	98.94
448.896	114.94
449.117	100.94
449.338	105.94
449.559	136.94
449.779	152.94
450	99.94
450.221	92.94
450.442	78.94
450.662	92.94
450.883	95.94
451.104	104.94
451.324	98.94
451.545	95.94
451.766	81.94
451.986	90.94
452.207	102.94
452.428	84.94
452.648	100.94
452.869	95.94
453.089	110.94
453.31	122.94
453.53	97.94
453.751	91.94
453.971	84.94
454.192	97.94
454.412	82.94
454.633	91.94
454.853	78.94
455.073	82.94
455.294	97.94
455.514	96.94
455.734	84.94
455.955	101.94
456.175	89.94
456.395	89.94
456.616	69.94
456.836	80.94
457.056	86.94
457.276	92.94
457.497	84.94
457.717	75.94
457.937	86.94
458.157	88.94
458.377	78.94
458.598	104.94
458.818	143.94
459.038	160.94
459.258	106.94
459.478	82.94
459.698	89.94
459.918	89.94
460.138	77.94
460.358	79.94
460.578	92.94
460.798	91.94
461.018	93.94
461.238	103.94
461.458	101.94
461.678	94.94
461.898	88.94
462.118	77.94
462.338	74.94
462.558	86.94
462.777	84.94
462.997	90.94
463.217	98.94
463.437	93.94
463.657	81.94
463.876	86.94
464.096	82.94
464.316	97.94
464.536	88.94
464.755	100.94
464.975	98.94
465.195	149.94
465.414	143.94
465.634	90.94
465.854	93.94
466.073	78.94
466.293	99.94
466.512	67.94
466.732	79.94
466.951	77.94
467.171	106.94
467.391	93.94
467.61	106.94
467.829	101.94
468.049	78.94
468.268	69.94
468.488	88.94
468.707	88.94
468.927	76.94
469.146	88.94
469.365	92.94
469.585	90.94
469.804	98.94
470.023	93.94
470.243	90.94
470.462	103.94
470.681	107.94
470.901	90.94
471.12	91.94
471.339	82.94
471.558	88.94
471.777	69.94
471.997	90.94
472.216	88.94
472.435	83.94
472.654	92.94
472.873	87.94
473.092	90.94
473.311	85.94
473.53	80.94
473.749	72.94
473.968	88.94
474.187	98.94
474.406	93.94
474.625	89.94
474.844	75.94
475.063	88.94
475.282	88.94
475.501	95.94
475.72	83.94
475.939	82.94
476.158	93.94
476.377	94.94
476.596	92.94
476.814	89.94
477.033	105.94
477.252	99.94
477.471	94.94
477.69	91.94
477.908	99.94
478.127	94.94
478.346	86.94
478.564	73.94
478.783	94.94
479.002	85.94
479.22	90.94
479.439	84.94
479.658	106.94
479.876	101.94
480.095	86.94
480.313	93.94
480.532	85.94
480.751	77.94
480.969	92.94
481.188	98.94
481.406	94.94
481.624	101.94
481.843	108.94
482.061	92.94
482.28	84.94
482.498	92.94
482.717	96.94
482.935	91.94
483.153	86.94
483.372	80.94
483.59	86.94
483.808	89.94
484.027	93.94
484.245	101.94
484.463	91.94
484.681	97.94
484.9	91.94
485.118	83.94
485.336	102.94
485.554	88.94
485.772	100.94
485.99	120.94
486.209	104.94
486.427	106.94
486.645	98.94
486.863	92.94
487.081	97.94
487.299	82.94
487.517	84.94
487.735	85.94
487.953	89.94
488.171	102.94
488.389	101.94
488.607	110.94
488.825	95.94
489.043	89.94
489.261	81.94
489.479	88.94
489.696	82.94
489.914	94.94
490.132	79.94
490.35	78.94
490.568	67.94
490.786	84.94
491.003	97.94
491.221	101.94
491.439	83.94
491.657	88.94
491.874	91.94
492.092	82.94
492.31	78.94
492.527	96.94
492.745	83.94
492.963	86.94
493.18	93.94
493.398	98.94
493.615	112.94
493.833	101.94
494.05	94.94
494.268	89.94
494.485	96.94
494.703	83.94
494.92	96.94
495.138	95.94
495.355	92.94
495.573	102.94
495.79	100.94
496.008	96.94
496.225	84.94
496.442	76.94
496.66	90.94
496.877	90.94
497.094	94.94
497.312	100.94
497.529	88.94
497.746	84.94
497.963	89.94
498.181	95.94
498.398	91.94
498.615	108.94
498.832	107.94
499.049	100.94
499.267	83.94
499.484	93.94
499.701	93.94
499.918	100.94
500.135	98.94
500.352	81.94
500.569	96.94
500.786	86.94
501.003	92.94
501.22	98.94
501.437	81.94
501.654	93.94
501.871	105.94
502.088	92.94
502.305	99.94
502.522	93.94
502.739	82.94
502.956	92.94
503.172	100.94
503.389	91.94
503.606	99.94
503.823	92.94
504.04	93.94
504.256	91.94
504.473	90.94
504.69	74.94
504.907	93.94
505.123	87.94
505.34	89.94
505.557	104.94
505.773	86.94
505.99	89.94
506.207	96.94
506.423	92.94
506.64	99.94
506.856	102.94
507.073	83.94
507.289	99.94
507.506	102.94
507.722	109.94
507.939	106.94
508.155	104.94
508.372	86.94
508.588	88.94
508.805	99.94
509.021	92.94
509.238	91.94
509.454	90.94
509.67	101.94
509.887	109.94
510.103	131.94
510.319	188.94
510.536	689.94
510.752	2078.94
510.968	559.94
511.184	147.94
511.401	113.94
511.617	106.94
511.833	100.94
512.049	93.94
512.265	91.94
512.481	86.94
512.698	93.94
512.914	84.94
513.13	96.94
513.346	89.94
513.562	101.94
513.778	95.94
513.994	78.94
514.21	108.94
514.426	114.94
514.642	118.94
514.858	111.94
515.074	166.94
515.29	422.94
515.506	1369.94
515.721	518.94
515.937	142.94
516.153	87.94
516.369	101.94
516.585	96.94
516.801	89.94
517.016	89.94
517.232	85.94
517.448	106.94
517.664	73.94
517.879	104.94
518.095	89.94
518.311	97.94
518.527	102.94
518.742	80.94
518.958	92.94
519.173	90.94
519.389	93.94
519.605	90.94
519.82	91.94
520.036	112.94
520.251	111.94
520.467	119.94
520.682	98.94
520.898	112.94
521.113	100.94
521.329	128.94
521.544	189.94
521.76	530.94
521.975	2242.94
522.19	1347.94
522.406	275.94
522.621	130.94
522.836	110.94
523.052	98.94
523.267	102.94
523.482	102.94
523.698	100.94
523.913	114.94
524.128	104.94
524.343	99.94
524.559	91.94
524.774	102.94
524.989	96.94
525.204	92.94
525.419	82.94
525.634	89.94
525.849	100.94
526.064	90.94
526.28	98.94
526.495	96.94
526.71	87.94
526.925	69.94
527.14	68.94
527.355	93.94
527.57	81.94
527.785	90.94
527.999	108.94
528.214	92.94
528.429	97.94
528.644	95.94
528.859	96.94
529.074	96.94
529.289	118.94
529.503	184.94
529.718	103.94
529.933	102.94
530.148	91.94
530.363	92.94
530.577	83.94
530.792	87.94
531.007	88.94
531.221	88.94
531.436	99.94
531.651	95.94
531.865	95.94
532.08	100.94
532.295	99.94
532.509	90.94
532.724	92.94
532.938	87.94
533.153	92.94
533.367	104.94
533.582	93.94
533.796	90.94
534.011	100.94
534.225	91.94
534.44	94.94
534.654	87.94
534.868	97.94
535.083	103.94
535.297	95.94
535.511	85.94
535.726	109.94
535.94	93.94
536.154	96.94
536.369	94.94
536.583	94.94
536.797	93.94
537.011	97.94
537.225	84.94
537.44	88.94
537.654	95.94
537.868	100.94
538.082	80.94
538.296	74.94
538.51	91.94
538.724	97.94
538.938	91.94
539.153	101.94
539.367	110.94
539.581	102.94
539.795	88.94
540.009	106.94
540.222	97.94
540.436	95.94
540.65	100.94
540.864	94.94
541.078	88.94
541.292	86.94
541.506	84.94
541.72	98.94
541.934	91.94
542.147	95.94
542.361	99.94
542.575	100.94
542.789	102.94
543.002	83.94
543.216	104.94
543.43	95.94
543.644	85.94
543.857	80.94
544.071	88.94
544.285	103.94
544.498	93.94
544.712	82.94
544.925	88.94
545.139	96.94
545.352	82.94
545.566	96.94
545.779	93.94
545.993	93.94
546.206	88.94
546.42	97.94
546.633	90.94
546.847	89.94
547.06	86.94
547.274	92.94
547.487	92.94
547.7	73.94
547.914	78.94
548.127	106.94
548.34	92.94
548.554	94.94
548.767	86.94
548.98	76.94
549.193	81.94
549.407	80.94
549.62	65.94
549.833	84.94
550.046	90.94
550.259	84.94
550.473	97.94
550.686	80.94
550.899	95.94
551.112	91.94
551.325	93.94
551.538	76.94
551.751	89.94
551.964	88.94
552.177	94.94
552.39	88.94
552.603	74.94
552.816	88.94
553.029	73.94
553.242	84.94
553.455	84.94
553.667	102.94
553.88	109.94
554.093	102.94
554.306	96.94
554.519	87.94
554.732	88.94
554.944	101.94
555.157	99.94
555.37	85.94
555.583	81.94
555.795	94.94
556.008	93.94
556.221	84.94
556.433	99.94
556.646	88.94
556.859	101.94
557.071	93.94
557.284	78.94
557.496	84.94
557.709	103.94
557.921	97.94
558.134	96.94
558.346	86.94
558.559	85.94
558.771	89.94
558.984	88.94
559.196	83.94
559.409	85.94
559.621	105.94
559.833	97.94
560.046	97.94
560.258	93.94
560.47	98.94
560.683	76.94
560.895	96.94
561.107	79.94
561.32	94.94
561.532	91.94
561.744	92.94
561.956	85.94
562.168	80.94
562.381	93.94
562.593	99.94
562.805	97.94
563.017	79.94
563.229	84.94
563.441	89.94
563.653	84.94
563.865	93.94
564.077	91.94
564.289	81.94
564.501	77.94
564.713	82.94
564.925	100.94
565.137	99.94
565.349	95.94
565.561	81.94
565.773	84.94
565.985	88.94
566.197	77.94
566.408	87.94
566.62	89.94
566.832	89.94
567.044	87.94
567.255	90.94
567.467	85.94
567.679	85.94
567.891	99.94
568.102	84.94
568.314	86.94
568.526	106.94
568.737	82.94
568.949	97.94
569.161	100.94
569.372	89.94
569.584	82.94
569.795	95.94
570.007	117.94
570.218	224.94
570.43	136.94
570.641	86.94
570.853	79.94
571.064	102.94
571.276	84.94
571.487	85.94
571.698	88.94
571.91	83.94
572.121	83.94
572.333	89.94
572.544	80.94
572.755	94.94
572.966	102.94
573.178	96.94
573.389	83.94
573.6	77.94
573.811	98.94
574.023	101.94
574.234	96.94
574.445	96.94
574.656	94.94
574.867	99.94
575.078	91.94
575.289	85.94
575.501	93.94
575.712	82.94
575.923	94.94
576.134	90.94
576.345	92.94
576.556	99.94
576.767	87.94
576.978	88.94
577.188	85.94
577.399	101.94
577.61	97.94
577.821	90.94
578.032	112.94
578.243	268.94
578.454	716.94
578.665	203.94
578.875	89.94
579.086	84.94
579.297	90.94
579.508	99.94
579.718	95.94
579.929	83.94
580.14	78.94
580.35	89.94
580.561	91.94
580.772	88.94
580.982	72.94
581.193	70.94
581.403	84.94
581.614	83.94
581.825	83.94
582.035	97.94
582.246	101.94
582.456	93.94
582.667	84.94
582.877	82.94
583.087	78.94
583.298	111.94
583.508	100.94
583.719	97.94
583.929	69.94
584.139	79.94
584.35	92.94
584.56	87.94
584.77	80.94
584.981	76.94
585.191	95.94
585.401	71.94
585.611	77.94
585.821	86.94
586.032	95.94
586.242	82.94
586.452	90.94
586.662	108.94
586.872	94.94
587.082	104.94
587.292	90.94
587.502	81.94
587.713	86.94
587.923	108.94
588.133	80.94
588.343	101.94
588.553	88.94
588.762	90.94
588.972	97.94
589.182	98.94
589.392	93.94
589.602	96.94
589.812	89.94
590.022	88.94
590.232	83.94
590.441	83.94
590.651	70.94
590.861	84.94
591.071	97.94
591.281	82.94
591.49	82.94
591.7	90.94
591.91	84.94
592.119	96.94
592.329	93.94
592.539	88.94
592.748	89.94
592.958	82.94
593.167	76.94
593.377	93.94
593.587	101.94
593.796	108.94
594.006	86.94
594.215	83.94
594.424	83.94
594.634	91.94
594.843	94.94
595.053	84.94
595.262	67.94
595.472	97.94
595.681	96.94
595.89	83.94
596.1	93.94
596.309	93.94
596.518	85.94
596.727	82.94
596.937	80.94
597.146	79.94
597.355	73.94
597.564	85.94
597.774	81.94
597.983	86.94
598.192	76.94
598.401	88.94
598.61	90.94
598.819	91.94
599.028	79.94
599.237	79.94
599.446	84.94
599.655	82.94
599.864	78.94
600.073	102.94
600.282	85.94
600.491	72.94
600.7	93.94
600.909	93.94
601.118	82.94
601.327	88.94
601.536	97.94
601.745	91.94
601.953	86.94
602.162	85.94
602.371	83.94
602.58	91.94
602.789	79.94
602.997	94.94
603.206	88.94
603.415	73.94
603.623	95.94
603.832	86.94
604.041	86.94
604.249	82.94
604.458	84.94
604.666	88.94
604.875	80.94
605.084	88.94
605.292	87.94
605.501	85.94
605.709	102.94
605.918	86.94
606.126	92.94
606.334	97.94
606.543	90.94
606.751	76.94
606.96	74.94
607.168	84.94
607.376	85.94
607.585	91.94
607.793	73.94
608.001	80.94
608.21	93.94
608.418	92.94
608.626	91.94
608.834	88.94
609.043	97.94
609.251	81.94
609.459	92.94
609.667	84.94
609.875	80.94
610.083	89.94
610.291	80.94
610.499	85.94
610.707	96.94
610.916	75.94
611.124	88.94
611.332	92.94
611.54	76.94
611.748	94.94
611.955	100.94
612.163	88.94
612.371	82.94
612.579	87.94
612.787	67.94
612.995	90.94
613.203	80.94
613.411	94.94
613.618	92.94
613.826	78.94
614.034	83.94
614.242	75.94
614.449	81.94
614.657	86.94
614.865	83.94
615.072	86.94
615.28	101.94
615.488	91.94
615.695	81.94
615.903	82.94
616.111	100.94
616.318	105.94
616.526	103.94
616.733	90.94
616.941	92.94
617.148	88.94
617.356	98.94
617.563	89.94
617.771	93.94
617.978	82.94
618.185	87.94
618.393	91.94
618.6	94.94
618.807	83.94
619.015	84.94
619.222	88.94
619.429	72.94
619.637	81.94
619.844	78.94
620.051	86.94
620.258	78.94
620.466	84.94
620.673	82.94
620.88	97.94
621.087	86.94
621.294	85.94
621.501	83.94
621.708	82.94
621.915	86.94
622.122	95.94
622.329	87.94
622.536	92.94
622.743	83.94
622.95	93.94
623.157	77.94
623.364	96.94
623.571	83.94
623.778	72.94
623.985	80.94
624.192	83.94
624.399	85.94
624.606	94.94
624.812	90.94
625.019	80.94
625.226	82.94
625.433	79.94
625.639	76.94
625.846	84.94
626.053	74.94
626.259	86.94
626.466	72.94
626.673	94.94
626.879	70.94
627.086	92.94
627.293	79.94
627.499	80.94
627.706	76.94
627.912	84.94
628.119	79.94
628.325	88.94
628.532	89.94
628.738	74.94
628.945	90.94
629.151	86.94
629.357	96.94
629.564	86.94
629.77	75.94
629.976	85.94
630.183	85.94
630.389	88.94
630.595	84.94
630.802	78.94
631.008	79.94
631.214	82.94
631.42	93.94
631.627	101.94
631.833	79.94
632.039	80.94
632.245	83.94
632.451	86.94
632.657	89.94
632.863	85.94
633.069	82.94
633.275	73.94
633.481	84.94
633.688	81.94
633.893	82.94
634.099	88.94
634.305	76.94
634.511	94.94
634.717	95.94
634.923	85.94
635.129	96.94
635.335	77.94
635.541	87.94
635.747	69.94
635.952	96.94
636.158	74.94
636.364	73.94
636.57	85.94
636.775	93.94
636.981	93.94
637.187	83.94
637.392	99.94
637.598	84.94
637.804	82.94
638.009	92.94
638.215	93.94
638.421	76.94
638.626	72.94
638.832	81.94
639.037	99.94
639.243	84.94
639.448	88.94
639.654	80.94
639.859	88.94
640.065	74.94
640.27	90.94
640.475	93.94
640.681	70.94
640.886	74.94
641.091	88.94
641.297	97.94
641.502	80.94
641.707	82.94
641.913	84.94
642.118	81.94
642.323	90.94
642.528	96.94
642.733	85.94
642.939	74.94
643.144	88.94
643.349	93.94
643.554	81.94
643.759	95.94
643.964	88.94
644.169	76.94
644.374	83.94
644.579	84.94
644.784	93.94
644.989	90.94
645.194	77.94
645.399	81.94
645.604	85.94
645.809	85.94
646.014	78.94
646.219	75.94
646.423	92.94
646.628	64.94
646.833	75.94
647.038	82.94
647.243	84.94
647.447	86.94
647.652	73.94
647.857	88.94
648.062	77.94
648.266	101.94
648.471	93.94
648.676	81.94
648.88	88.94
649.085	105.94
649.289	75.94
649.494	104.94
649.698	124.94
649.903	92.94
650.107	87.94
650.312	106.94
650.516	70.94
650.721	79.94
650.925	70.94
651.13	83.94
651.334	87.94
651.539	88.94
651.743	80.94
651.947	92.94
652.152	88.94
652.356	78.94
652.56	75.94
652.764	77.94
652.969	84.94
653.173	75.94
653.377	74.94
653.581	80.94
653.785	83.94
653.99	69.94
654.194	77.94
654.398	83.94
654.602	76.94
654.806	88.94
655.01	80.94
655.214	98.94
655.418	82.94
655.622	80.94
655.826	86.94
656.03	91.94
656.234	96.94
656.438	103.94
656.642	90.94
656.846	80.94
657.049	80.94
657.253	90.94
657.457	80.94
657.661	90.94
657.865	77.94
658.068	55.94
658.272	70.94
658.476	81.94
658.68	75.94
658.883	76.94
659.087	82.94
659.291	89.94
659.494	80.94
659.698	69.94
659.901	79.94
660.105	85.94
660.309	75.94
660.512	87.94
660.716	92.94
660.919	84.94
661.123	72.94
661.326	92.94
661.53	69.94
661.733	75.94
661.936	83.94
662.14	64.94
662.343	72.94
662.546	62.94
662.75	91.94
662.953	77.94
663.156	85.94
663.36	86.94
663.563	68.94
663.766	82.94
663.969	90.94
664.173	71.94
664.376	85.94
664.579	75.94
664.782	73.94
664.985	75.94
665.188	84.94
665.391	71.94
665.594	83.94
665.797	71.94
666	81.94
666.203	74.94
666.406	76.94
666.609	85.94
666.812	81.94
667.015	81.94
667.218	82.94
667.421	89.94
667.624	84.94
667.827	74.94
668.03	97.94
668.232	74.94
668.435	83.94
668.638	89.94
668.841	80.94
669.043	84.94
669.246	83.94
669.449	83.94
669.651	81.94
669.854	89.94
670.057	71.94
670.259	82.94
670.462	73.94
670.665	88.94
670.867	74.94
671.07	79.94
671.272	82.94
671.475	82.94
671.677	79.94
671.88	74.94
672.082	70.94
672.284	87.94
672.487	78.94
672.689	80.94
672.892	77.94
