Data from Uncirc_1991_H10_HRD10591_00006.txt Node
Date: Wed Jan 03 11:50:39 EST 2024
User: Yrep
Spectrometer: HR+D1059
Trigger mode: 1
Integration Time (sec): 1.000000E-1
Scans to average: 1
Electric dark correction enabled: true
Nonlinearity correction enabled: false
Boxcar width: 0
XAxis mode: Wavelengths
Number of Pixels in Spectrum: 2048
>>>>>Begin Spectral Data<<<<<
223.165	-27
223.4	-27
223.635	-27
223.869	-21
224.104	-19
224.338	-23
224.573	3
224.808	-17
225.042	-2
225.277	-2
225.511	-5
225.746	4
225.98	11
226.215	19
226.449	16
226.683	10
226.918	26
227.152	27
227.387	38
227.621	46
227.856	38
228.09	40
228.324	52
228.559	56
228.793	70
229.027	68
229.262	65
229.496	89
229.73	98
229.964	76
230.199	80
230.433	71
230.667	64
230.901	89
231.136	83
231.37	83
231.604	96
231.838	95
232.072	83
232.306	90
232.541	85
232.775	94
233.009	91
233.243	78
233.477	92
233.711	94
233.945	91
234.179	98
234.413	74
234.647	67
234.881	75
235.115	73
235.349	77
235.583	96
235.817	75
236.051	75
236.285	85
236.519	87
236.753	79
236.987	80
237.221	102
237.455	95
237.689	93
237.922	83
238.156	89
238.39	95
238.624	100
238.858	83
239.091	99
239.325	88
239.559	89
239.793	90
240.027	89
240.26	74
240.494	85
240.728	86
240.961	72
241.195	85
241.429	85
241.662	84
241.896	85
242.13	67
242.363	72
242.597	95
242.83	93
243.064	91
243.298	85
243.531	76
243.765	92
243.998	92
244.232	87
244.465	84
244.699	90
244.932	92
245.166	82
245.399	84
245.633	80
245.866	77
246.099	84
246.333	76
246.566	84
246.8	73
247.033	85
247.266	83
247.5	80
247.733	81
247.966	89
248.2	87
248.433	91
248.666	95
248.899	88
249.133	83
249.366	77
249.599	101
249.832	75
250.066	77
250.299	95
250.532	85
250.765	89
250.998	86
251.231	84
251.465	76
251.698	100
251.931	93
252.164	92
252.397	88
252.63	84
252.863	70
253.096	84
253.329	96
253.562	92
253.795	87
254.028	87
254.261	80
254.494	84
254.727	96
254.96	94
255.193	83
255.426	87
255.659	64
255.892	93
256.124	79
256.357	85
256.59	84
256.823	82
257.056	82
257.289	86
257.521	85
257.754	101
257.987	90
258.22	93
258.452	83
258.685	80
258.918	106
259.151	95
259.383	81
259.616	85
259.849	88
260.081	88
260.314	86
260.547	81
260.779	79
261.012	88
261.244	83
261.477	99
261.71	87
261.942	117
262.175	115
262.407	100
262.64	91
262.872	81
263.105	93
263.337	82
263.57	81
263.802	97
264.035	87
264.267	87
264.499	95
264.732	90
264.964	89
265.197	80
265.429	86
265.661	82
265.894	84
266.126	86
266.358	96
266.591	93
266.823	104
267.055	82
267.287	98
267.52	99
267.752	87
267.984	83
268.216	106
268.448	101
268.681	83
268.913	91
269.145	91
269.377	98
269.609	83
269.841	97
270.073	86
270.306	89
270.538	93
270.77	97
271.002	95
271.234	98
271.466	87
271.698	97
271.93	94
272.162	100
272.394	91
272.626	87
272.858	94
273.09	91
273.322	83
273.553	90
273.785	88
274.017	91
274.249	89
274.481	94
274.713	88
274.945	95
275.176	85
275.408	85
275.64	77
275.872	84
276.104	105
276.335	87
276.567	96
276.799	101
277.031	110
277.262	95
277.494	98
277.726	96
277.957	89
278.189	98
278.421	84
278.652	87
278.884	82
279.115	92
279.347	104
279.579	89
279.81	98
280.042	95
280.273	89
280.505	87
280.736	89
280.968	79
281.199	89
281.431	96
281.662	80
281.894	80
282.125	106
282.356	119
282.588	124
282.819	104
283.051	91
283.282	100
283.513	95
283.745	99
283.976	88
284.207	103
284.439	91
284.67	91
284.901	84
285.132	87
285.364	96
285.595	80
285.826	99
286.057	99
286.288	89
286.52	86
286.751	88
286.982	100
287.213	93
287.444	84
287.675	87
287.906	101
288.138	115
288.369	100
288.6	98
288.831	83
289.062	92
289.293	79
289.524	68
289.755	95
289.986	97
290.217	97
290.448	102
290.679	87
290.91	101
291.141	87
291.371	87
291.602	104
291.833	100
292.064	80
292.295	89
292.526	92
292.757	102
292.987	99
293.218	101
293.449	96
293.68	95
293.91	89
294.141	90
294.372	89
294.603	116
294.833	105
295.064	91
295.295	94
295.525	108
295.756	113
295.987	120
296.217	148
296.448	117
296.679	103
296.909	118
297.14	109
297.37	95
297.601	103
297.831	95
298.062	97
298.292	89
298.523	108
298.753	105
298.984	91
299.214	91
299.445	104
299.675	100
299.905	89
300.136	102
300.366	90
300.597	88
300.827	86
301.057	105
301.288	90
301.518	91
301.748	91
301.979	109
302.209	99
302.439	95
302.669	96
302.9	103
303.13	109
303.36	106
303.59	96
303.82	100
304.051	90
304.281	98
304.511	80
304.741	75
304.971	79
305.201	96
305.431	96
305.661	103
305.891	92
306.121	104
306.352	109
306.582	108
306.812	108
307.042	101
307.272	105
307.502	103
307.731	99
307.961	80
308.191	95
308.421	93
308.651	104
308.881	109
309.111	89
309.341	95
309.571	103
309.8	95
310.03	89
310.26	99
310.49	106
310.72	97
310.949	106
311.179	112
311.409	91
311.639	109
311.868	120
312.098	99
312.328	98
312.557	104
312.787	106
313.017	116
313.246	113
313.476	107
313.706	108
313.935	105
314.165	112
314.394	110
314.624	107
314.853	101
315.083	106
315.312	101
315.542	87
315.771	101
316.001	103
316.23	106
316.46	96
316.689	104
316.919	101
317.148	87
317.377	117
317.607	97
317.836	92
318.065	91
318.295	85
318.524	106
318.753	113
318.983	104
319.212	107
319.441	106
319.67	111
319.9	111
320.129	96
320.358	104
320.587	99
320.816	114
321.046	101
321.275	92
321.504	92
321.733	96
321.962	100
322.191	99
322.42	101
322.649	116
322.878	120
323.108	120
323.337	130
323.566	140
323.795	141
324.024	192
324.253	395
324.482	812
324.71	1718
324.939	2287
325.168	823
325.397	234
325.626	156
325.855	125
326.084	119
326.313	138
326.542	145
326.77	231
326.999	474
327.228	952
327.457	1761
327.686	1411
327.914	371
328.143	174
328.372	141
328.6	129
328.829	116
329.058	135
329.287	116
329.515	104
329.744	96
329.972	107
330.201	106
330.43	108
330.658	128
330.887	144
331.115	115
331.344	115
331.572	104
331.801	124
332.03	103
332.258	103
332.486	103
332.715	95
332.943	87
333.172	100
333.4	101
333.629	98
333.857	107
334.085	87
334.314	97
334.542	111
334.771	108
334.999	102
335.227	109
335.455	103
335.684	101
335.912	102
336.14	94
336.369	114
336.597	108
336.825	95
337.053	99
337.281	87
337.51	94
337.738	87
337.966	96
338.194	99
338.422	95
338.65	90
338.878	107
339.106	106
339.334	97
339.562	91
339.79	83
340.018	92
340.246	97
340.474	95
340.702	99
340.93	105
341.158	98
341.386	108
341.614	99
341.842	100
342.07	100
342.298	106
342.526	99
342.754	91
342.981	95
343.209	105
343.437	106
343.665	106
343.893	92
344.12	94
344.348	108
344.576	104
344.804	111
345.031	105
345.259	103
345.487	108
345.714	108
345.942	81
346.17	104
346.397	119
346.625	96
346.853	90
347.08	100
347.308	101
347.535	109
347.763	113
347.99	91
348.218	103
348.445	98
348.673	99
348.9	101
349.128	93
349.355	106
349.583	106
349.81	90
350.037	92
350.265	109
350.492	95
350.72	108
350.947	89
351.174	104
351.402	108
351.629	112
351.856	93
352.083	102
352.311	108
352.538	128
352.765	115
352.992	106
353.22	107
353.447	109
353.674	98
353.901	96
354.128	108
354.355	107
354.583	105
354.81	105
355.037	97
355.264	102
355.491	104
355.718	97
355.945	108
356.172	104
356.399	86
356.626	96
356.853	97
357.08	109
357.307	107
357.534	103
357.761	81
357.988	118
358.215	112
358.441	100
358.668	106
358.895	96
359.122	95
359.349	97
359.576	100
359.802	93
360.029	103
360.256	107
360.483	79
360.709	94
360.936	99
361.163	112
361.39	84
361.616	91
361.843	86
362.07	106
362.296	103
362.523	103
362.749	115
362.976	91
363.203	95
363.429	100
363.656	84
363.882	96
364.109	89
364.335	100
364.562	98
364.788	108
365.015	107
365.241	98
365.468	105
365.694	88
365.92	80
366.147	91
366.373	86
366.599	89
366.826	88
367.052	96
367.278	97
367.505	90
367.731	95
367.957	98
368.184	96
368.41	107
368.636	103
368.862	117
369.089	113
369.315	99
369.541	91
369.767	104
369.993	98
370.219	100
370.445	109
370.672	109
370.898	99
371.124	89
371.35	102
371.576	99
371.802	99
372.028	95
372.254	102
372.48	90
372.706	89
372.932	98
373.158	79
373.384	96
373.61	95
373.835	122
374.061	107
374.287	96
374.513	93
374.739	95
374.965	102
375.191	104
375.416	102
375.642	80
375.868	100
376.094	95
376.319	92
376.545	108
376.771	85
376.997	89
377.222	92
377.448	93
377.674	89
377.899	94
378.125	88
378.35	111
378.576	111
378.802	94
379.027	112
379.253	87
379.478	104
379.704	89
379.929	106
380.155	94
380.38	98
380.606	109
380.831	108
381.057	109
381.282	97
381.507	97
381.733	89
381.958	97
382.184	88
382.409	91
382.634	104
382.86	117
383.085	95
383.31	95
383.535	109
383.761	106
383.986	104
384.211	87
384.436	97
384.662	111
384.887	105
385.112	106
385.337	98
385.562	109
385.787	106
386.013	116
386.238	117
386.463	105
386.688	125
386.913	105
387.138	101
387.363	104
387.588	108
387.813	112
388.038	115
388.263	112
388.488	122
388.713	100
388.938	92
389.163	105
389.387	84
389.612	108
389.837	108
390.062	107
390.287	121
390.512	100
390.736	87
390.961	91
391.186	99
391.411	87
391.636	84
391.86	82
392.085	91
392.31	93
392.534	101
392.759	88
392.984	92
393.208	105
393.433	102
393.658	90
393.882	89
394.107	100
394.331	98
394.556	101
394.78	92
395.005	96
395.229	81
395.454	87
395.678	97
395.903	96
396.127	97
396.352	103
396.576	98
396.801	100
397.025	106
397.249	93
397.474	96
397.698	101
397.922	82
398.147	91
398.371	81
398.595	98
398.82	100
399.044	90
399.268	100
399.492	87
399.717	96
399.941	93
400.165	107
400.389	104
400.613	84
400.837	112
401.062	93
401.286	94
401.51	98
401.734	80
401.958	104
402.182	114
402.406	143
402.63	108
402.854	103
403.078	97
403.302	82
403.526	110
403.75	96
403.974	101
404.198	95
404.422	76
404.645	84
404.869	85
405.093	84
405.317	103
405.541	100
405.765	103
405.988	120
406.212	175
406.436	205
406.66	137
406.883	96
407.107	102
407.331	100
407.555	102
407.778	105
408.002	97
408.226	81
408.449	93
408.673	101
408.896	94
409.12	86
409.344	88
409.567	101
409.791	97
410.014	83
410.238	97
410.461	105
410.685	102
410.908	117
411.132	106
411.355	116
411.578	97
411.802	106
412.025	96
412.249	101
412.472	93
412.695	95
412.919	84
413.142	97
413.365	97
413.589	96
413.812	74
414.035	92
414.258	110
414.482	100
414.705	91
414.928	91
415.151	91
415.374	115
415.597	83
415.821	98
416.044	99
416.267	98
416.49	83
416.713	85
416.936	88
417.159	93
417.382	106
417.605	95
417.828	91
418.051	84
418.274	95
418.497	109
418.72	86
418.943	96
419.166	103
419.389	98
419.611	95
419.834	104
420.057	88
420.28	97
420.503	88
420.726	100
420.948	90
421.171	76
421.394	99
421.617	104
421.839	93
422.062	91
422.285	112
422.507	106
422.73	108
422.953	104
423.175	95
423.398	85
423.621	93
423.843	89
424.066	82
424.288	99
424.511	79
424.733	98
424.956	112
425.178	97
425.401	102
425.623	111
425.846	103
426.068	99
426.291	98
426.513	99
426.735	91
426.958	99
427.18	113
427.402	140
427.625	163
427.847	130
428.069	97
428.292	91
428.514	81
428.736	91
428.958	76
429.181	99
429.403	100
429.625	95
429.847	102
430.069	95
430.292	98
430.514	94
430.736	88
430.958	88
431.18	76
431.402	81
431.624	97
431.846	94
432.068	96
432.29	72
432.512	90
432.734	71
432.956	88
433.178	111
433.4	103
433.622	98
433.844	101
434.066	91
434.287	97
434.509	92
434.731	109
434.953	83
435.175	96
435.397	96
435.618	97
435.84	119
436.062	121
436.284	120
436.505	98
436.727	115
436.949	104
437.17	88
437.392	93
437.614	81
437.835	119
438.057	110
438.278	116
438.5	116
438.721	122
438.943	113
439.165	98
439.386	88
439.608	102
439.829	101
440.05	124
440.272	129
440.493	112
440.715	99
440.936	90
441.158	114
441.379	85
441.6	113
441.822	98
442.043	107
442.264	109
442.486	116
442.707	101
442.928	107
443.149	132
443.371	140
443.592	114
443.813	120
444.034	109
444.255	103
444.476	85
444.698	83
444.919	97
445.14	133
445.361	112
445.582	113
445.803	133
446.024	145
446.245	145
446.466	111
446.687	104
446.908	102
447.129	84
447.35	87
447.571	82
447.792	97
448.013	99
448.234	102
448.455	96
448.675	127
448.896	132
449.117	115
449.338	104
449.559	122
449.779	149
450	93
450.221	107
450.442	99
450.662	86
450.883	97
451.104	106
451.324	89
451.545	92
451.766	95
451.986	96
452.207	98
452.428	97
452.648	106
452.869	110
453.089	114
453.31	115
453.53	96
453.751	89
453.971	111
454.192	113
454.412	106
454.633	102
454.853	84
455.073	97
455.294	92
455.514	89
455.734	88
455.955	100
456.175	77
456.395	101
456.616	91
456.836	97
457.056	89
457.276	101
457.497	99
457.717	96
457.937	96
458.157	97
458.377	96
458.598	96
458.818	142
459.038	129
459.258	100
459.478	98
459.698	75
459.918	95
460.138	84
460.358	97
460.578	85
460.798	100
461.018	93
461.238	98
461.458	99
461.678	86
461.898	98
462.118	83
462.338	87
462.558	88
462.777	87
462.997	89
463.217	94
463.437	93
463.657	91
463.876	91
464.096	90
464.316	109
464.536	88
464.755	109
464.975	107
465.195	146
465.414	143
465.634	92
465.854	98
466.073	104
466.293	107
466.512	98
466.732	96
466.951	76
467.171	99
467.391	97
467.61	101
467.829	112
468.049	84
468.268	80
468.488	95
468.707	101
468.927	86
469.146	91
469.365	92
469.585	85
469.804	92
470.023	92
470.243	95
470.462	103
470.681	112
470.901	97
471.12	95
471.339	83
471.558	85
471.777	88
471.997	92
472.216	102
472.435	95
472.654	96
472.873	96
473.092	86
473.311	85
473.53	99
473.749	97
473.968	99
474.187	108
474.406	101
474.625	95
474.844	87
475.063	89
475.282	81
475.501	84
475.72	96
475.939	101
476.158	112
476.377	91
476.596	90
476.814	82
477.033	84
477.252	77
477.471	92
477.69	83
477.908	96
478.127	97
478.346	96
478.564	109
478.783	97
479.002	94
479.22	103
479.439	119
479.658	107
479.876	92
480.095	112
480.313	107
480.532	97
480.751	94
480.969	82
481.188	104
481.406	91
481.624	102
481.843	99
482.061	97
482.28	86
482.498	92
482.717	90
482.935	104
483.153	118
483.372	90
483.59	87
483.808	94
484.027	103
484.245	97
484.463	97
484.681	100
484.9	106
485.118	90
485.336	88
485.554	111
485.772	99
485.99	109
486.209	116
486.427	103
486.645	105
486.863	120
487.081	101
487.299	106
487.517	98
487.735	98
487.953	92
488.171	100
488.389	84
488.607	100
488.825	96
489.043	89
489.261	105
489.479	110
489.696	93
489.914	97
490.132	93
490.35	88
490.568	82
490.786	96
491.003	90
491.221	83
491.439	92
491.657	97
491.874	96
492.092	93
492.31	103
492.527	99
492.745	88
492.963	98
493.18	104
493.398	99
493.615	90
493.833	97
494.05	97
494.268	84
494.485	103
494.703	94
494.92	106
495.138	102
495.355	95
495.573	96
495.79	93
496.008	95
496.225	89
496.442	97
496.66	103
496.877	85
497.094	93
497.312	110
497.529	100
497.746	95
497.963	91
498.181	88
498.398	99
498.615	103
498.832	111
499.049	94
499.267	111
499.484	82
499.701	98
499.918	97
500.135	93
500.352	101
500.569	96
500.786	95
501.003	103
501.22	107
501.437	90
501.654	98
501.871	114
502.088	87
502.305	81
502.522	90
502.739	98
502.956	85
503.172	105
503.389	106
503.606	109
503.823	119
504.04	95
504.256	96
504.473	89
504.69	103
504.907	90
505.123	76
505.34	96
505.557	104
505.773	97
505.99	96
506.207	100
506.423	102
506.64	95
506.856	95
507.073	103
507.289	96
507.506	102
507.722	123
507.939	112
508.155	93
508.372	96
508.588	105
508.805	96
509.021	100
509.238	115
509.454	101
509.67	107
509.887	106
510.103	131
510.319	203
510.536	643
510.752	1863
510.968	519
511.184	143
511.401	102
511.617	99
511.833	102
512.049	101
512.265	96
512.481	95
512.698	87
512.914	96
513.13	101
513.346	100
513.562	105
513.778	117
513.994	95
514.21	103
514.426	114
514.642	113
514.858	134
515.074	174
515.29	378
515.506	1140
515.721	430
515.937	125
516.153	108
516.369	100
516.585	99
516.801	88
517.016	98
517.232	108
517.448	97
517.664	87
517.879	103
518.095	96
518.311	101
518.527	97
518.742	96
518.958	84
519.173	94
519.389	92
519.605	103
519.82	102
520.036	101
520.251	111
520.467	110
520.682	94
520.898	105
521.113	121
521.329	140
521.544	192
521.76	472
521.975	1931
522.19	1155
522.406	260
522.621	126
522.836	128
523.052	97
523.267	113
523.482	98
523.698	122
523.913	118
524.128	114
524.343	95
524.559	87
524.774	90
524.989	112
525.204	94
525.419	104
525.634	95
525.849	115
526.064	99
526.28	90
526.495	85
526.71	101
526.925	82
527.14	89
527.355	106
527.57	96
527.785	89
527.999	85
528.214	105
528.429	91
528.644	92
528.859	102
529.074	101
529.289	137
529.503	172
529.718	99
529.933	102
530.148	98
530.363	101
530.577	100
530.792	96
531.007	106
531.221	100
531.436	109
531.651	99
531.865	98
532.08	105
532.295	88
532.509	113
532.724	79
532.938	102
533.153	103
533.367	115
533.582	95
533.796	103
534.011	95
534.225	98
534.44	83
534.654	93
534.868	87
535.083	70
535.297	103
535.511	117
535.726	99
535.94	92
536.154	106
536.369	98
536.583	99
536.797	104
537.011	89
537.225	101
537.44	93
537.654	102
537.868	81
538.082	89
538.296	87
538.51	108
538.724	101
538.938	102
539.153	94
539.367	102
539.581	111
539.795	103
540.009	100
540.222	97
540.436	95
540.65	90
540.864	118
541.078	110
541.292	108
541.506	90
541.72	111
541.934	85
542.147	81
542.361	95
542.575	100
542.789	89
543.002	104
543.216	98
543.43	90
543.644	97
543.857	86
544.071	103
544.285	103
544.498	104
544.712	93
544.925	98
545.139	95
545.352	90
545.566	99
545.779	100
545.993	84
546.206	75
546.42	84
546.633	89
546.847	88
547.06	114
547.274	100
547.487	95
547.7	114
547.914	99
548.127	88
548.34	83
548.554	98
548.767	104
548.98	100
549.193	101
549.407	96
549.62	101
549.833	95
550.046	101
550.259	99
550.473	79
550.686	98
550.899	108
551.112	100
551.325	102
551.538	94
551.751	98
551.964	94
552.177	109
552.39	102
552.603	103
552.816	81
553.029	102
553.242	105
553.455	115
553.667	101
553.88	109
554.093	100
554.306	92
554.519	89
554.732	101
554.944	106
555.157	83
555.37	92
555.583	92
555.795	94
556.008	117
556.221	103
556.433	105
556.646	88
556.859	98
557.071	82
557.284	100
557.496	96
557.709	88
557.921	98
558.134	98
558.346	92
558.559	98
558.771	96
558.984	100
559.196	93
559.409	87
559.621	89
559.833	89
560.046	99
560.258	85
560.47	94
560.683	101
560.895	98
561.107	90
561.32	109
561.532	93
561.744	90
561.956	87
562.168	90
562.381	96
562.593	93
562.805	81
563.017	90
563.229	98
563.441	84
563.653	93
563.865	92
564.077	81
564.289	86
564.501	94
564.713	85
564.925	90
565.137	101
565.349	111
565.561	104
565.773	106
565.985	97
566.197	95
566.408	83
566.62	92
566.832	73
567.044	96
567.255	103
567.467	95
567.679	93
567.891	89
568.102	105
568.314	101
568.526	95
568.737	97
568.949	91
569.161	103
569.372	87
569.584	104
569.795	96
570.007	129
570.218	216
570.43	140
570.641	109
570.853	84
571.064	84
571.276	94
571.487	96
571.698	96
571.91	85
572.121	105
572.333	98
572.544	88
572.755	103
572.966	95
573.178	89
573.389	101
573.6	99
573.811	92
574.023	99
574.234	107
574.445	101
574.656	101
574.867	89
575.078	97
575.289	91
575.501	90
575.712	113
575.923	111
576.134	87
576.345	98
576.556	88
576.767	110
576.978	104
577.188	101
577.399	99
577.61	91
577.821	94
578.032	117
578.243	250
578.454	627
578.665	201
578.875	91
579.086	98
579.297	102
579.508	104
579.718	88
579.929	105
580.14	90
580.35	82
580.561	96
580.772	92
580.982	91
581.193	91
581.403	92
581.614	100
581.825	90
582.035	92
582.246	97
582.456	115
582.667	89
582.877	86
583.087	103
583.298	109
583.508	84
583.719	87
583.929	83
584.139	92
584.35	94
584.56	92
584.77	97
584.981	100
585.191	99
585.401	94
585.611	93
585.821	100
586.032	105
586.242	93
586.452	91
586.662	82
586.872	94
587.082	87
587.292	92
587.502	87
587.713	100
587.923	104
588.133	100
588.343	91
588.553	92
588.762	90
588.972	98
589.182	92
589.392	97
589.602	103
589.812	81
590.022	108
590.232	97
590.441	95
590.651	104
590.861	101
591.071	97
591.281	84
591.49	78
591.7	81
591.91	78
592.119	89
592.329	91
592.539	104
592.748	100
592.958	94
593.167	101
593.377	96
593.587	100
593.796	100
594.006	92
594.215	81
594.424	91
594.634	95
594.843	98
595.053	85
595.262	92
595.472	86
595.681	99
595.89	104
596.1	103
596.309	95
596.518	86
596.727	83
596.937	89
597.146	87
597.355	72
597.564	98
597.774	99
597.983	101
598.192	95
598.401	100
598.61	90
598.819	95
599.028	106
599.237	83
599.446	78
599.655	91
599.864	95
600.073	90
600.282	90
600.491	102
600.7	84
600.909	89
601.118	101
601.327	93
601.536	101
601.745	108
601.953	105
602.162	105
602.371	82
602.58	100
602.789	93
602.997	100
603.206	94
603.415	85
603.623	91
603.832	88
604.041	90
604.249	75
604.458	91
604.666	99
604.875	86
605.084	95
605.292	83
605.501	84
605.709	100
605.918	87
606.126	79
606.334	97
606.543	99
606.751	100
606.96	104
607.168	109
607.376	117
607.585	97
607.793	102
608.001	98
608.21	86
608.418	98
608.626	95
608.834	93
609.043	85
609.251	80
609.459	92
609.667	91
609.875	96
610.083	95
610.291	98
610.499	103
610.707	79
610.916	95
611.124	101
611.332	99
611.54	87
611.748	101
611.955	89
612.163	82
612.371	91
612.579	97
612.787	82
612.995	77
613.203	88
613.411	95
613.618	92
613.826	93
614.034	97
614.242	93
614.449	100
614.657	87
614.865	101
615.072	102
615.28	89
615.488	99
615.695	100
615.903	102
616.111	100
616.318	106
616.526	98
616.733	114
616.941	99
617.148	90
617.356	87
617.563	103
617.771	92
617.978	91
618.185	99
618.393	88
618.6	95
618.807	89
619.015	108
619.222	91
619.429	89
619.637	91
619.844	89
620.051	99
620.258	86
620.466	85
620.673	92
620.88	85
621.087	90
621.294	85
621.501	85
621.708	81
621.915	86
622.122	87
622.329	77
622.536	99
622.743	75
622.95	89
623.157	99
623.364	102
623.571	96
623.778	97
623.985	88
624.192	89
624.399	83
624.606	86
624.812	87
625.019	93
625.226	85
625.433	91
625.639	74
625.846	84
626.053	89
626.259	104
626.466	103
626.673	95
626.879	100
627.086	83
627.293	104
627.499	82
627.706	90
627.912	90
628.119	92
628.325	99
628.532	97
628.738	82
628.945	88
629.151	80
629.357	92
629.564	93
629.77	95
629.976	99
630.183	89
630.389	99
630.595	91
630.802	95
631.008	83
631.214	76
631.42	91
631.627	100
631.833	93
632.039	80
632.245	71
632.451	96
632.657	91
632.863	97
633.069	95
633.275	97
633.481	80
633.688	93
633.893	87
634.099	74
634.305	85
634.511	87
634.717	86
634.923	74
635.129	75
635.335	103
635.541	75
635.747	100
635.952	90
636.158	100
636.364	86
636.57	99
636.775	90
636.981	94
637.187	81
637.392	103
637.598	95
637.804	113
638.009	97
638.215	95
638.421	94
638.626	103
638.832	92
639.037	99
639.243	85
639.448	82
639.654	83
639.859	98
640.065	98
640.27	118
640.475	96
640.681	96
640.886	98
641.091	100
641.297	95
641.502	92
641.707	107
641.913	92
642.118	91
642.323	88
642.528	96
642.733	104
642.939	91
643.144	99
643.349	90
643.554	96
643.759	90
643.964	97
644.169	102
644.374	87
644.579	98
644.784	105
644.989	83
645.194	74
645.399	90
645.604	96
645.809	97
646.014	103
646.219	91
646.423	98
646.628	83
646.833	84
647.038	79
647.243	101
647.447	82
647.652	95
647.857	76
648.062	99
648.266	91
648.471	109
648.676	81
648.88	105
649.085	103
649.289	85
649.494	109
649.698	135
649.903	115
650.107	89
650.312	104
650.516	89
650.721	101
650.925	100
651.13	85
651.334	100
651.539	97
651.743	97
651.947	93
652.152	87
652.356	88
652.56	88
652.764	88
652.969	98
653.173	75
653.377	96
653.581	77
653.785	90
653.99	90
654.194	80
654.398	97
654.602	92
654.806	107
655.01	128
655.214	115
655.418	98
655.622	97
655.826	81
656.03	107
656.234	106
656.438	101
656.642	101
656.846	92
657.049	88
657.253	83
657.457	96
657.661	88
657.865	90
658.068	97
658.272	89
658.476	95
658.68	99
658.883	88
659.087	78
659.291	95
659.494	90
659.698	88
659.901	80
660.105	83
660.309	86
660.512	83
660.716	93
660.919	91
661.123	84
661.326	96
661.53	79
661.733	93
661.936	91
662.14	88
662.343	96
662.546	74
662.75	73
662.953	93
663.156	95
663.36	83
663.563	83
663.766	77
663.969	87
664.173	99
664.376	89
664.579	99
664.782	89
664.985	95
665.188	79
665.391	83
665.594	85
665.797	81
666	87
666.203	88
666.406	83
666.609	79
666.812	79
667.015	92
667.218	95
667.421	81
667.624	87
667.827	92
668.03	80
668.232	98
668.435	84
668.638	85
668.841	95
669.043	82
669.246	93
669.449	96
669.651	84
669.854	87
670.057	86
670.259	89
670.462	82
670.665	83
670.867	96
671.07	91
671.272	81
671.475	98
671.677	97
671.88	82
672.082	92
672.284	107
672.487	102
672.689	89
672.892	88
