Data from Uncirc_1991_H10_HRD10591_00042.txt Node
Date: Wed Jan 03 11:50:46 EST 2024
User: Yrep
Spectrometer: HR+D1059
Trigger mode: 1
Integration Time (sec): 1.000000E-1
Scans to average: 1
Electric dark correction enabled: true
Nonlinearity correction enabled: false
Boxcar width: 0
XAxis mode: Wavelengths
Number of Pixels in Spectrum: 2048
>>>>>Begin Spectral Data<<<<<
223.165	-16.69
223.4	-16.69
223.635	-16.69
223.869	-24.69
224.104	-29.69
224.338	-10.69
224.573	-6.69
224.808	-18.69
225.042	-7.69
225.277	3.31
225.511	-5.69
225.746	5.31
225.98	-7.69
226.215	20.31
226.449	19.31
226.683	25.31
226.918	33.31
227.152	21.31
227.387	25.31
227.621	48.31
227.856	37.31
228.09	53.31
228.324	51.31
228.559	59.31
228.793	51.31
229.027	58.31
229.262	66.31
229.496	77.31
229.73	81.31
229.964	93.31
230.199	71.31
230.433	82.31
230.667	75.31
230.901	82.31
231.136	85.31
231.37	84.31
231.604	61.31
231.838	80.31
232.072	82.31
232.306	78.31
232.541	88.31
232.775	76.31
233.009	91.31
233.243	72.31
233.477	78.31
233.711	75.31
233.945	75.31
234.179	92.31
234.413	76.31
234.647	78.31
234.881	87.31
235.115	76.31
235.349	88.31
235.583	78.31
235.817	72.31
236.051	78.31
236.285	78.31
236.519	68.31
236.753	76.31
236.987	87.31
237.221	80.31
237.455	91.31
237.689	81.31
237.922	83.31
238.156	81.31
238.39	68.31
238.624	72.31
238.858	71.31
239.091	77.31
239.325	60.31
239.559	71.31
239.793	78.31
240.027	75.31
240.26	74.31
240.494	89.31
240.728	69.31
240.961	72.31
241.195	79.31
241.429	82.31
241.662	66.31
241.896	81.31
242.13	71.31
242.363	71.31
242.597	79.31
242.83	88.31
243.064	56.31
243.298	76.31
243.531	80.31
243.765	68.31
243.998	82.31
244.232	86.31
244.465	83.31
244.699	87.31
244.932	63.31
245.166	75.31
245.399	80.31
245.633	73.31
245.866	67.31
246.099	81.31
246.333	63.31
246.566	82.31
246.8	67.31
247.033	78.31
247.266	96.31
247.5	81.31
247.733	68.31
247.966	68.31
248.2	79.31
248.433	75.31
248.666	72.31
248.899	75.31
249.133	99.31
249.366	94.31
249.599	98.31
249.832	88.31
250.066	77.31
250.299	73.31
250.532	85.31
250.765	68.31
250.998	86.31
251.231	85.31
251.465	83.31
251.698	80.31
251.931	73.31
252.164	72.31
252.397	71.31
252.63	82.31
252.863	94.31
253.096	71.31
253.329	85.31
253.562	87.31
253.795	87.31
254.028	68.31
254.261	79.31
254.494	95.31
254.727	92.31
254.96	78.31
255.193	81.31
255.426	73.31
255.659	89.31
255.892	80.31
256.124	69.31
256.357	83.31
256.59	85.31
256.823	82.31
257.056	65.31
257.289	67.31
257.521	85.31
257.754	75.31
257.987	85.31
258.22	71.31
258.452	73.31
258.685	80.31
258.918	79.31
259.151	80.31
259.383	77.31
259.616	74.31
259.849	84.31
260.081	79.31
260.314	74.31
260.547	84.31
260.779	87.31
261.012	89.31
261.244	87.31
261.477	93.31
261.71	92.31
261.942	115.31
262.175	119.31
262.407	84.31
262.64	86.31
262.872	98.31
263.105	87.31
263.337	90.31
263.57	81.31
263.802	82.31
264.035	89.31
264.267	81.31
264.499	89.31
264.732	68.31
264.964	73.31
265.197	64.31
265.429	79.31
265.661	67.31
265.894	110.31
266.126	86.31
266.358	83.31
266.591	87.31
266.823	81.31
267.055	79.31
267.287	85.31
267.52	89.31
267.752	78.31
267.984	101.31
268.216	95.31
268.448	80.31
268.681	76.31
268.913	79.31
269.145	79.31
269.377	74.31
269.609	76.31
269.841	91.31
270.073	97.31
270.306	88.31
270.538	77.31
270.77	85.31
271.002	82.31
271.234	80.31
271.466	82.31
271.698	81.31
271.93	86.31
272.162	95.31
272.394	88.31
272.626	87.31
272.858	89.31
273.09	81.31
273.322	94.31
273.553	85.31
273.785	97.31
274.017	83.31
274.249	70.31
274.481	94.31
274.713	84.31
274.945	83.31
275.176	76.31
275.408	80.31
275.64	77.31
275.872	82.31
276.104	82.31
276.335	94.31
276.567	100.31
276.799	97.31
277.031	109.31
277.262	95.31
277.494	95.31
277.726	96.31
277.957	80.31
278.189	88.31
278.421	90.31
278.652	91.31
278.884	90.31
279.115	83.31
279.347	75.31
279.579	96.31
279.81	89.31
280.042	97.31
280.273	87.31
280.505	98.31
280.736	83.31
280.968	85.31
281.199	73.31
281.431	80.31
281.662	84.31
281.894	96.31
282.125	99.31
282.356	116.31
282.588	131.31
282.819	116.31
283.051	86.31
283.282	85.31
283.513	87.31
283.745	80.31
283.976	83.31
284.207	68.31
284.439	78.31
284.67	88.31
284.901	94.31
285.132	84.31
285.364	79.31
285.595	87.31
285.826	84.31
286.057	92.31
286.288	95.31
286.52	93.31
286.751	91.31
286.982	84.31
287.213	83.31
287.444	95.31
287.675	83.31
287.906	84.31
288.138	83.31
288.369	95.31
288.6	94.31
288.831	80.31
289.062	77.31
289.293	84.31
289.524	88.31
289.755	99.31
289.986	83.31
290.217	92.31
290.448	95.31
290.679	77.31
290.91	92.31
291.141	99.31
291.371	69.31
291.602	105.31
291.833	97.31
292.064	82.31
292.295	71.31
292.526	83.31
292.757	90.31
292.987	81.31
293.218	83.31
293.449	86.31
293.68	99.31
293.91	96.31
294.141	91.31
294.372	85.31
294.603	88.31
294.833	72.31
295.064	82.31
295.295	93.31
295.525	91.31
295.756	86.31
295.987	108.31
296.217	146.31
296.448	119.31
296.679	80.31
296.909	89.31
297.14	96.31
297.37	85.31
297.601	87.31
297.831	91.31
298.062	90.31
298.292	87.31
298.523	83.31
298.753	81.31
298.984	83.31
299.214	96.31
299.445	92.31
299.675	87.31
299.905	87.31
300.136	88.31
300.366	111.31
300.597	86.31
300.827	95.31
301.057	89.31
301.288	86.31
301.518	83.31
301.748	84.31
301.979	91.31
302.209	92.31
302.439	92.31
302.669	104.31
302.9	99.31
303.13	88.31
303.36	101.31
303.59	96.31
303.82	85.31
304.051	89.31
304.281	81.31
304.511	95.31
304.741	96.31
304.971	87.31
305.201	90.31
305.431	87.31
305.661	74.31
305.891	85.31
306.121	86.31
306.352	99.31
306.582	110.31
306.812	85.31
307.042	99.31
307.272	75.31
307.502	90.31
307.731	90.31
307.961	108.31
308.191	78.31
308.421	82.31
308.651	85.31
308.881	85.31
309.111	97.31
309.341	95.31
309.571	106.31
309.8	90.31
310.03	104.31
310.26	112.31
310.49	108.31
310.72	97.31
310.949	102.31
311.179	112.31
311.409	103.31
311.639	101.31
311.868	93.31
312.098	105.31
312.328	92.31
312.557	98.31
312.787	113.31
313.017	105.31
313.246	93.31
313.476	102.31
313.706	105.31
313.935	97.31
314.165	98.31
314.394	104.31
314.624	111.31
314.853	100.31
315.083	97.31
315.312	90.31
315.542	104.31
315.771	88.31
316.001	95.31
316.23	97.31
316.46	72.31
316.689	84.31
316.919	91.31
317.148	91.31
317.377	101.31
317.607	93.31
317.836	91.31
318.065	95.31
318.295	86.31
318.524	92.31
318.753	92.31
318.983	101.31
319.212	91.31
319.441	99.31
319.67	106.31
319.9	96.31
320.129	86.31
320.358	78.31
320.587	91.31
320.816	88.31
321.046	92.31
321.275	94.31
321.504	96.31
321.733	102.31
321.962	87.31
322.191	100.31
322.42	85.31
322.649	120.31
322.878	123.31
323.108	109.31
323.337	136.31
323.566	134.31
323.795	147.31
324.024	210.31
324.253	455.31
324.482	932.31
324.71	1955.31
324.939	2583.31
325.168	943.31
325.397	256.31
325.626	165.31
325.855	130.31
326.084	121.31
326.313	137.31
326.542	155.31
326.77	240.31
326.999	508.31
327.228	1056.31
327.457	1929.31
327.686	1522.31
327.914	414.31
328.143	219.31
328.372	156.31
328.6	128.31
328.829	118.31
329.058	146.31
329.287	137.31
329.515	107.31
329.744	122.31
329.972	105.31
330.201	107.31
330.43	104.31
330.658	136.31
330.887	153.31
331.115	142.31
331.344	87.31
331.572	112.31
331.801	121.31
332.03	100.31
332.258	99.31
332.486	101.31
332.715	98.31
332.943	95.31
333.172	103.31
333.4	101.31
333.629	99.31
333.857	101.31
334.085	94.31
334.314	87.31
334.542	83.31
334.771	97.31
334.999	112.31
335.227	99.31
335.455	93.31
335.684	92.31
335.912	89.31
336.14	81.31
336.369	96.31
336.597	112.31
336.825	103.31
337.053	98.31
337.281	94.31
337.51	76.31
337.738	91.31
337.966	88.31
338.194	101.31
338.422	112.31
338.65	105.31
338.878	95.31
339.106	90.31
339.334	92.31
339.562	93.31
339.79	92.31
340.018	101.31
340.246	94.31
340.474	93.31
340.702	85.31
340.93	88.31
341.158	94.31
341.386	107.31
341.614	101.31
341.842	95.31
342.07	82.31
342.298	95.31
342.526	87.31
342.754	96.31
342.981	81.31
343.209	83.31
343.437	84.31
343.665	75.31
343.893	82.31
344.12	92.31
344.348	79.31
344.576	75.31
344.804	91.31
345.031	107.31
345.259	91.31
345.487	99.31
345.714	78.31
345.942	105.31
346.17	78.31
346.397	93.31
346.625	98.31
346.853	94.31
347.08	99.31
347.308	88.31
347.535	91.31
347.763	112.31
347.99	114.31
348.218	91.31
348.445	107.31
348.673	97.31
348.9	91.31
349.128	101.31
349.355	78.31
349.583	83.31
349.81	94.31
350.037	91.31
350.265	91.31
350.492	83.31
350.72	87.31
350.947	107.31
351.174	108.31
351.402	112.31
351.629	90.31
351.856	107.31
352.083	98.31
352.311	103.31
352.538	111.31
352.765	113.31
352.992	119.31
353.22	98.31
353.447	100.31
353.674	105.31
353.901	84.31
354.128	98.31
354.355	99.31
354.583	89.31
354.81	82.31
355.037	107.31
355.264	84.31
355.491	77.31
355.718	88.31
355.945	79.31
356.172	92.31
356.399	98.31
356.626	105.31
356.853	95.31
357.08	83.31
357.307	90.31
357.534	85.31
357.761	77.31
357.988	103.31
358.215	88.31
358.441	85.31
358.668	86.31
358.895	85.31
359.122	77.31
359.349	101.31
359.576	83.31
359.802	100.31
360.029	107.31
360.256	116.31
360.483	109.31
360.709	76.31
360.936	91.31
361.163	91.31
361.39	93.31
361.616	101.31
361.843	93.31
362.07	95.31
362.296	101.31
362.523	86.31
362.749	97.31
362.976	92.31
363.203	95.31
363.429	84.31
363.656	88.31
363.882	87.31
364.109	77.31
364.335	85.31
364.562	88.31
364.788	82.31
365.015	87.31
365.241	98.31
365.468	102.31
365.694	117.31
365.92	110.31
366.147	93.31
366.373	87.31
366.599	93.31
366.826	82.31
367.052	92.31
367.278	88.31
367.505	96.31
367.731	83.31
367.957	85.31
368.184	79.31
368.41	103.31
368.636	108.31
368.862	122.31
369.089	110.31
369.315	84.31
369.541	86.31
369.767	93.31
369.993	75.31
370.219	99.31
370.445	90.31
370.672	98.31
370.898	81.31
371.124	92.31
371.35	81.31
371.576	75.31
371.802	92.31
372.028	90.31
372.254	88.31
372.48	83.31
372.706	69.31
372.932	73.31
373.158	81.31
373.384	77.31
373.61	91.31
373.835	88.31
374.061	92.31
374.287	90.31
374.513	103.31
374.739	71.31
374.965	81.31
375.191	88.31
375.416	89.31
375.642	77.31
375.868	86.31
376.094	82.31
376.319	81.31
376.545	92.31
376.771	75.31
376.997	79.31
377.222	80.31
377.448	85.31
377.674	82.31
377.899	76.31
378.125	97.31
378.35	90.31
378.576	99.31
378.802	80.31
379.027	77.31
379.253	95.31
379.478	93.31
379.704	100.31
379.929	83.31
380.155	93.31
380.38	81.31
380.606	88.31
380.831	100.31
381.057	104.31
381.282	97.31
381.507	100.31
381.733	84.31
381.958	103.31
382.184	99.31
382.409	97.31
382.634	96.31
382.86	89.31
383.085	108.31
383.31	92.31
383.535	96.31
383.761	98.31
383.986	103.31
384.211	97.31
384.436	98.31
384.662	88.31
384.887	92.31
385.112	105.31
385.337	91.31
385.562	97.31
385.787	105.31
386.013	120.31
386.238	113.31
386.463	96.31
386.688	95.31
386.913	95.31
387.138	98.31
387.363	85.31
387.588	90.31
387.813	103.31
388.038	96.31
388.263	101.31
388.488	103.31
388.713	99.31
388.938	99.31
389.163	100.31
389.387	90.31
389.612	90.31
389.837	77.31
390.062	107.31
390.287	78.31
390.512	93.31
390.736	92.31
390.961	98.31
391.186	94.31
391.411	103.31
391.636	77.31
391.86	79.31
392.085	83.31
392.31	76.31
392.534	71.31
392.759	84.31
392.984	75.31
393.208	78.31
393.433	77.31
393.658	78.31
393.882	80.31
394.107	83.31
394.331	90.31
394.556	81.31
394.78	93.31
395.005	94.31
395.229	96.31
395.454	96.31
395.678	65.31
395.903	78.31
396.127	91.31
396.352	78.31
396.576	81.31
396.801	79.31
397.025	79.31
397.249	79.31
397.474	99.31
397.698	91.31
397.922	100.31
398.147	79.31
398.371	90.31
398.595	92.31
398.82	80.31
399.044	92.31
399.268	86.31
399.492	77.31
399.717	84.31
399.941	85.31
400.165	104.31
400.389	92.31
400.613	86.31
400.837	101.31
401.062	87.31
401.286	81.31
401.51	84.31
401.734	93.31
401.958	99.31
402.182	126.31
402.406	179.31
402.63	105.31
402.854	95.31
403.078	96.31
403.302	87.31
403.526	89.31
403.75	90.31
403.974	103.31
404.198	93.31
404.422	85.31
404.645	86.31
404.869	79.31
405.093	81.31
405.317	85.31
405.541	91.31
405.765	117.31
405.988	121.31
406.212	180.31
406.436	252.31
406.66	165.31
406.883	112.31
407.107	98.31
407.331	103.31
407.555	103.31
407.778	101.31
408.002	112.31
408.226	89.31
408.449	83.31
408.673	90.31
408.896	92.31
409.12	93.31
409.344	85.31
409.567	89.31
409.791	92.31
410.014	103.31
410.238	105.31
410.461	84.31
410.685	92.31
410.908	89.31
411.132	100.31
411.355	83.31
411.578	78.31
411.802	100.31
412.025	99.31
412.249	82.31
412.472	84.31
412.695	73.31
412.919	90.31
413.142	85.31
413.365	80.31
413.589	82.31
413.812	87.31
414.035	87.31
414.258	92.31
414.482	94.31
414.705	80.31
414.928	99.31
415.151	90.31
415.374	91.31
415.597	87.31
415.821	94.31
416.044	94.31
416.267	88.31
416.49	82.31
416.713	69.31
416.936	78.31
417.159	87.31
417.382	91.31
417.605	92.31
417.828	105.31
418.051	101.31
418.274	87.31
418.497	84.31
418.72	92.31
418.943	96.31
419.166	88.31
419.389	90.31
419.611	79.31
419.834	81.31
420.057	89.31
420.28	83.31
420.503	100.31
420.726	96.31
420.948	92.31
421.171	88.31
421.394	88.31
421.617	88.31
421.839	102.31
422.062	87.31
422.285	79.31
422.507	88.31
422.73	106.31
422.953	99.31
423.175	87.31
423.398	97.31
423.621	96.31
423.843	82.31
424.066	88.31
424.288	78.31
424.511	100.31
424.733	96.31
424.956	120.31
425.178	98.31
425.401	97.31
425.623	110.31
425.846	103.31
426.068	99.31
426.291	101.31
426.513	73.31
426.735	77.31
426.958	82.31
427.18	125.31
427.402	155.31
427.625	188.31
427.847	152.31
428.069	100.31
428.292	93.31
428.514	86.31
428.736	88.31
428.958	82.31
429.181	81.31
429.403	82.31
429.625	86.31
429.847	97.31
430.069	101.31
430.292	94.31
430.514	83.31
430.736	82.31
430.958	92.31
431.18	84.31
431.402	75.31
431.624	91.31
431.846	84.31
432.068	69.31
432.29	100.31
432.512	75.31
432.734	84.31
432.956	85.31
433.178	84.31
433.4	96.31
433.622	107.31
433.844	82.31
434.066	89.31
434.287	95.31
434.509	97.31
434.731	92.31
434.953	90.31
435.175	87.31
435.397	88.31
435.618	89.31
435.84	109.31
436.062	148.31
436.284	144.31
436.505	119.31
436.727	99.31
436.949	94.31
437.17	91.31
437.392	83.31
437.614	97.31
437.835	109.31
438.057	132.31
438.278	133.31
438.5	111.31
438.721	148.31
438.943	106.31
439.165	95.31
439.386	87.31
439.608	78.31
439.829	94.31
440.05	132.31
440.272	175.31
440.493	90.31
440.715	77.31
440.936	111.31
441.158	92.31
441.379	96.31
441.6	101.31
441.822	108.31
442.043	93.31
442.264	121.31
442.486	112.31
442.707	90.31
442.928	112.31
443.149	151.31
443.371	148.31
443.592	115.31
443.813	126.31
444.034	124.31
444.255	91.31
444.476	87.31
444.698	93.31
444.919	93.31
445.14	139.31
445.361	125.31
445.582	116.31
445.803	171.31
446.024	163.31
446.245	160.31
446.466	110.31
446.687	96.31
446.908	84.31
447.129	93.31
447.35	78.31
447.571	92.31
447.792	84.31
448.013	99.31
448.234	113.31
448.455	111.31
448.675	131.31
448.896	133.31
449.117	111.31
449.338	111.31
449.559	144.31
449.779	147.31
450	101.31
450.221	94.31
450.442	83.31
450.662	86.31
450.883	103.31
451.104	132.31
451.324	91.31
451.545	91.31
451.766	80.31
451.986	74.31
452.207	90.31
452.428	85.31
452.648	92.31
452.869	109.31
453.089	115.31
453.31	125.31
453.53	99.31
453.751	90.31
453.971	105.31
454.192	121.31
454.412	106.31
454.633	95.31
454.853	80.31
455.073	78.31
455.294	87.31
455.514	117.31
455.734	88.31
455.955	91.31
456.175	88.31
456.395	94.31
456.616	89.31
456.836	88.31
457.056	90.31
457.276	71.31
457.497	88.31
457.717	87.31
457.937	81.31
458.157	85.31
458.377	102.31
458.598	107.31
458.818	156.31
459.038	180.31
459.258	126.31
459.478	74.31
459.698	81.31
459.918	101.31
460.138	82.31
460.358	91.31
460.578	81.31
460.798	85.31
461.018	75.31
461.238	88.31
461.458	85.31
461.678	78.31
461.898	79.31
462.118	86.31
462.338	80.31
462.558	75.31
462.777	79.31
462.997	91.31
463.217	77.31
463.437	88.31
463.657	93.31
463.876	95.31
464.096	91.31
464.316	102.31
464.536	89.31
464.755	95.31
464.975	108.31
465.195	186.31
465.414	186.31
465.634	89.31
465.854	83.31
466.073	82.31
466.293	85.31
466.512	81.31
466.732	65.31
466.951	92.31
467.171	89.31
467.391	83.31
467.61	100.31
467.829	93.31
468.049	79.31
468.268	88.31
468.488	80.31
468.707	78.31
468.927	87.31
469.146	76.31
469.365	76.31
469.585	76.31
469.804	83.31
470.023	90.31
470.243	90.31
470.462	96.31
470.681	115.31
470.901	81.31
471.12	75.31
471.339	81.31
471.558	82.31
471.777	96.31
471.997	96.31
472.216	83.31
472.435	97.31
472.654	95.31
472.873	79.31
473.092	92.31
473.311	79.31
473.53	72.31
473.749	90.31
473.968	98.31
474.187	120.31
474.406	105.31
474.625	100.31
474.844	90.31
475.063	80.31
475.282	79.31
475.501	84.31
475.72	96.31
475.939	84.31
476.158	87.31
476.377	82.31
476.596	84.31
476.814	96.31
477.033	99.31
477.252	97.31
477.471	102.31
477.69	85.31
477.908	81.31
478.127	92.31
478.346	86.31
478.564	84.31
478.783	80.31
479.002	79.31
479.22	105.31
479.439	100.31
479.658	101.31
479.876	90.31
480.095	90.31
480.313	89.31
480.532	91.31
480.751	86.31
480.969	86.31
481.188	100.31
481.406	89.31
481.624	85.31
481.843	84.31
482.061	92.31
482.28	90.31
482.498	87.31
482.717	73.31
482.935	75.31
483.153	96.31
483.372	75.31
483.59	89.31
483.808	84.31
484.027	75.31
484.245	108.31
484.463	91.31
484.681	95.31
484.9	86.31
485.118	85.31
485.336	84.31
485.554	88.31
485.772	80.31
485.99	86.31
486.209	103.31
486.427	97.31
486.645	101.31
486.863	111.31
487.081	100.31
487.299	96.31
487.517	94.31
487.735	74.31
487.953	84.31
488.171	93.31
488.389	97.31
488.607	99.31
488.825	90.31
489.043	91.31
489.261	103.31
489.479	91.31
489.696	75.31
489.914	101.31
490.132	77.31
490.35	93.31
490.568	78.31
490.786	88.31
491.003	103.31
491.221	80.31
491.439	101.31
491.657	101.31
491.874	86.31
492.092	81.31
492.31	96.31
492.527	81.31
492.745	92.31
492.963	93.31
493.18	82.31
493.398	89.31
493.615	77.31
493.833	96.31
494.05	90.31
494.268	83.31
494.485	95.31
494.703	92.31
494.92	99.31
495.138	92.31
495.355	89.31
495.573	98.31
495.79	108.31
496.008	104.31
496.225	99.31
496.442	104.31
496.66	97.31
496.877	95.31
497.094	82.31
497.312	94.31
497.529	80.31
497.746	79.31
497.963	89.31
498.181	84.31
498.398	94.31
498.615	97.31
498.832	100.31
499.049	96.31
499.267	77.31
499.484	99.31
499.701	86.31
499.918	95.31
500.135	91.31
500.352	94.31
500.569	80.31
500.786	93.31
501.003	97.31
501.22	89.31
501.437	94.31
501.654	89.31
501.871	117.31
502.088	103.31
502.305	79.31
502.522	76.31
502.739	96.31
502.956	91.31
503.172	105.31
503.389	81.31
503.606	99.31
503.823	94.31
504.04	96.31
504.256	91.31
504.473	91.31
504.69	100.31
504.907	104.31
505.123	78.31
505.34	103.31
505.557	85.31
505.773	85.31
505.99	88.31
506.207	75.31
506.423	94.31
506.64	91.31
506.856	92.31
507.073	96.31
507.289	88.31
507.506	98.31
507.722	116.31
507.939	117.31
508.155	79.31
508.372	88.31
508.588	103.31
508.805	83.31
509.021	94.31
509.238	88.31
509.454	98.31
509.67	100.31
509.887	116.31
510.103	139.31
510.319	220.31
510.536	801.31
510.752	2688.31
510.968	742.31
511.184	163.31
511.401	101.31
511.617	104.31
511.833	92.31
512.049	107.31
512.265	99.31
512.481	90.31
512.698	86.31
512.914	101.31
513.13	91.31
513.346	84.31
513.562	89.31
513.778	88.31
513.994	97.31
514.21	105.31
514.426	120.31
514.642	136.31
514.858	133.31
515.074	187.31
515.29	499.31
515.506	1784.31
515.721	643.31
515.937	166.31
516.153	122.31
516.369	95.31
516.585	91.31
516.801	92.31
517.016	95.31
517.232	94.31
517.448	87.31
517.664	88.31
517.879	97.31
518.095	97.31
518.311	104.31
518.527	95.31
518.742	91.31
518.958	88.31
519.173	80.31
519.389	82.31
519.605	100.31
519.82	103.31
520.036	106.31
520.251	131.31
520.467	125.31
520.682	103.31
520.898	115.31
521.113	121.31
521.329	160.31
521.544	238.31
521.76	673.31
521.975	2977.31
522.19	1723.31
522.406	356.31
522.621	141.31
522.836	99.31
523.052	99.31
523.267	108.31
523.482	103.31
523.698	94.31
523.913	125.31
524.128	97.31
524.343	108.31
524.559	92.31
524.774	110.31
524.989	95.31
525.204	118.31
525.419	92.31
525.634	90.31
525.849	88.31
526.064	83.31
526.28	86.31
526.495	95.31
526.71	81.31
526.925	88.31
527.14	89.31
527.355	88.31
527.57	83.31
527.785	88.31
527.999	84.31
528.214	114.31
528.429	83.31
528.644	80.31
528.859	99.31
529.074	85.31
529.289	143.31
529.503	208.31
529.718	121.31
529.933	87.31
530.148	85.31
530.363	107.31
530.577	80.31
530.792	80.31
531.007	98.31
531.221	96.31
531.436	83.31
531.651	106.31
531.865	87.31
532.08	89.31
532.295	94.31
532.509	89.31
532.724	95.31
532.938	100.31
533.153	97.31
533.367	93.31
533.582	80.31
533.796	78.31
534.011	86.31
534.225	87.31
534.44	98.31
534.654	91.31
534.868	89.31
535.083	97.31
535.297	101.31
535.511	109.31
535.726	108.31
535.94	121.31
536.154	91.31
536.369	84.31
536.583	79.31
536.797	75.31
537.011	88.31
537.225	97.31
537.44	84.31
537.654	91.31
537.868	97.31
538.082	78.31
538.296	88.31
538.51	90.31
538.724	96.31
538.938	88.31
539.153	90.31
539.367	102.31
539.581	103.31
539.795	97.31
540.009	92.31
540.222	93.31
540.436	94.31
540.65	91.31
540.864	94.31
541.078	90.31
541.292	86.31
541.506	92.31
541.72	80.31
541.934	88.31
542.147	98.31
542.361	78.31
542.575	102.31
542.789	103.31
543.002	92.31
543.216	99.31
543.43	84.31
543.644	94.31
543.857	88.31
544.071	85.31
544.285	66.31
544.498	83.31
544.712	91.31
544.925	85.31
545.139	96.31
545.352	97.31
545.566	99.31
545.779	97.31
545.993	93.31
546.206	97.31
546.42	71.31
546.633	102.31
546.847	90.31
547.06	78.31
547.274	74.31
547.487	100.31
547.7	83.31
547.914	88.31
548.127	98.31
548.34	80.31
548.554	101.31
548.767	94.31
548.98	92.31
549.193	89.31
549.407	82.31
549.62	83.31
549.833	82.31
550.046	78.31
550.259	90.31
550.473	86.31
550.686	99.31
550.899	87.31
551.112	97.31
551.325	82.31
551.538	81.31
551.751	65.31
551.964	87.31
552.177	89.31
552.39	90.31
552.603	83.31
552.816	90.31
553.029	98.31
553.242	101.31
553.455	89.31
553.667	99.31
553.88	112.31
554.093	87.31
554.306	92.31
554.519	92.31
554.732	91.31
554.944	83.31
555.157	97.31
555.37	91.31
555.583	81.31
555.795	84.31
556.008	87.31
556.221	93.31
556.433	95.31
556.646	85.31
556.859	85.31
557.071	98.31
557.284	95.31
557.496	92.31
557.709	89.31
557.921	82.31
558.134	92.31
558.346	98.31
558.559	89.31
558.771	88.31
558.984	83.31
559.196	99.31
559.409	78.31
559.621	106.31
559.833	83.31
560.046	73.31
560.258	85.31
560.47	90.31
560.683	92.31
560.895	84.31
561.107	106.31
561.32	97.31
561.532	90.31
561.744	83.31
561.956	101.31
562.168	88.31
562.381	81.31
562.593	89.31
562.805	85.31
563.017	98.31
563.229	87.31
563.441	92.31
563.653	95.31
563.865	79.31
564.077	79.31
564.289	95.31
564.501	104.31
564.713	93.31
564.925	84.31
565.137	108.31
565.349	81.31
565.561	77.31
565.773	87.31
565.985	73.31
566.197	90.31
566.408	96.31
566.62	80.31
566.832	90.31
567.044	82.31
567.255	93.31
567.467	83.31
567.679	83.31
567.891	92.31
568.102	98.31
568.314	85.31
568.526	95.31
568.737	82.31
568.949	91.31
569.161	89.31
569.372	86.31
569.584	87.31
569.795	92.31
570.007	127.31
570.218	276.31
570.43	143.31
570.641	83.31
570.853	80.31
571.064	84.31
571.276	84.31
571.487	86.31
571.698	92.31
571.91	95.31
572.121	97.31
572.333	87.31
572.544	97.31
572.755	74.31
572.966	71.31
573.178	75.31
573.389	94.31
573.6	89.31
573.811	87.31
574.023	85.31
574.234	90.31
574.445	95.31
574.656	97.31
574.867	76.31
575.078	93.31
575.289	94.31
575.501	87.31
575.712	88.31
575.923	86.31
576.134	69.31
576.345	82.31
576.556	79.31
576.767	85.31
576.978	84.31
577.188	92.31
577.399	87.31
577.61	90.31
577.821	100.31
578.032	119.31
578.243	293.31
578.454	851.31
578.665	215.31
578.875	91.31
579.086	88.31
579.297	103.31
579.508	94.31
579.718	85.31
579.929	93.31
580.14	97.31
580.35	93.31
580.561	80.31
580.772	91.31
580.982	97.31
581.193	91.31
581.403	80.31
581.614	85.31
581.825	75.31
582.035	81.31
582.246	99.31
582.456	85.31
582.667	78.31
582.877	97.31
583.087	87.31
583.298	85.31
583.508	76.31
583.719	69.31
583.929	95.31
584.139	88.31
584.35	85.31
584.56	85.31
584.77	81.31
584.981	92.31
585.191	102.31
585.401	76.31
585.611	77.31
585.821	93.31
586.032	98.31
586.242	78.31
586.452	99.31
586.662	100.31
586.872	75.31
587.082	77.31
587.292	87.31
587.502	71.31
587.713	82.31
587.923	85.31
588.133	87.31
588.343	81.31
588.553	93.31
588.762	84.31
588.972	80.31
589.182	84.31
589.392	98.31
589.602	82.31
589.812	80.31
590.022	88.31
590.232	92.31
590.441	87.31
590.651	77.31
590.861	85.31
591.071	88.31
591.281	89.31
591.49	80.31
591.7	89.31
591.91	78.31
592.119	85.31
592.329	96.31
592.539	99.31
592.748	87.31
592.958	85.31
593.167	75.31
593.377	72.31
593.587	90.31
593.796	77.31
594.006	99.31
594.215	81.31
594.424	78.31
594.634	84.31
594.843	81.31
595.053	70.31
595.262	88.31
595.472	89.31
595.681	92.31
595.89	85.31
596.1	91.31
596.309	82.31
596.518	86.31
596.727	82.31
596.937	99.31
597.146	76.31
597.355	95.31
597.564	69.31
597.774	80.31
597.983	89.31
598.192	98.31
598.401	84.31
598.61	79.31
598.819	80.31
599.028	76.31
599.237	95.31
599.446	91.31
599.655	84.31
599.864	79.31
600.073	75.31
600.282	89.31
600.491	87.31
600.7	84.31
600.909	94.31
601.118	68.31
601.327	79.31
601.536	87.31
601.745	87.31
601.953	87.31
602.162	75.31
602.371	63.31
602.58	90.31
602.789	107.31
602.997	79.31
603.206	79.31
603.415	79.31
603.623	91.31
603.832	96.31
604.041	87.31
604.249	80.31
604.458	90.31
604.666	96.31
604.875	82.31
605.084	110.31
605.292	79.31
605.501	91.31
605.709	82.31
605.918	92.31
606.126	93.31
606.334	84.31
606.543	81.31
606.751	77.31
606.96	85.31
607.168	84.31
607.376	78.31
607.585	81.31
607.793	88.31
608.001	108.31
608.21	90.31
608.418	94.31
608.626	84.31
608.834	80.31
609.043	91.31
609.251	79.31
609.459	84.31
609.667	73.31
609.875	76.31
610.083	81.31
610.291	79.31
610.499	74.31
610.707	84.31
610.916	83.31
611.124	84.31
611.332	68.31
611.54	99.31
611.748	68.31
611.955	83.31
612.163	86.31
612.371	91.31
612.579	91.31
612.787	72.31
612.995	89.31
613.203	81.31
613.411	89.31
613.618	88.31
613.826	77.31
614.034	84.31
614.242	91.31
614.449	89.31
614.657	75.31
614.865	84.31
615.072	86.31
615.28	82.31
615.488	83.31
615.695	93.31
615.903	85.31
616.111	73.31
616.318	105.31
616.526	91.31
616.733	99.31
616.941	98.31
617.148	88.31
617.356	89.31
617.563	82.31
617.771	86.31
617.978	98.31
618.185	82.31
618.393	96.31
618.6	100.31
618.807	87.31
619.015	75.31
619.222	75.31
619.429	81.31
619.637	91.31
619.844	83.31
620.051	71.31
620.258	79.31
620.466	83.31
620.673	96.31
620.88	72.31
621.087	81.31
621.294	73.31
621.501	90.31
621.708	86.31
621.915	95.31
622.122	93.31
622.329	91.31
622.536	75.31
622.743	78.31
622.95	93.31
623.157	77.31
623.364	90.31
623.571	72.31
623.778	92.31
623.985	80.31
624.192	83.31
624.399	84.31
624.606	74.31
624.812	87.31
625.019	73.31
625.226	88.31
625.433	90.31
625.639	81.31
625.846	89.31
626.053	78.31
626.259	79.31
626.466	89.31
626.673	92.31
626.879	72.31
627.086	84.31
627.293	73.31
627.499	71.31
627.706	76.31
627.912	80.31
628.119	86.31
628.325	90.31
628.532	82.31
628.738	77.31
628.945	82.31
629.151	89.31
629.357	89.31
629.564	83.31
629.77	95.31
629.976	74.31
630.183	75.31
630.389	91.31
630.595	87.31
630.802	75.31
631.008	93.31
631.214	76.31
631.42	95.31
631.627	80.31
631.833	65.31
632.039	79.31
632.245	74.31
632.451	83.31
632.657	79.31
632.863	75.31
633.069	78.31
633.275	101.31
633.481	87.31
633.688	87.31
633.893	67.31
634.099	78.31
634.305	87.31
634.511	91.31
634.717	91.31
634.923	76.31
635.129	68.31
635.335	86.31
635.541	69.31
635.747	100.31
635.952	78.31
636.158	81.31
636.364	93.31
636.57	78.31
636.775	83.31
636.981	86.31
637.187	89.31
637.392	89.31
637.598	68.31
637.804	86.31
638.009	88.31
638.215	84.31
638.421	88.31
638.626	77.31
638.832	65.31
639.037	84.31
639.243	74.31
639.448	80.31
639.654	87.31
639.859	93.31
640.065	84.31
640.27	91.31
640.475	69.31
640.681	69.31
640.886	95.31
641.091	74.31
641.297	65.31
641.502	81.31
641.707	89.31
641.913	88.31
642.118	87.31
642.323	83.31
642.528	79.31
642.733	94.31
642.939	87.31
643.144	88.31
643.349	90.31
643.554	91.31
643.759	89.31
643.964	75.31
644.169	83.31
644.374	82.31
644.579	84.31
644.784	81.31
644.989	83.31
645.194	87.31
645.399	66.31
645.604	92.31
645.809	79.31
646.014	75.31
646.219	88.31
646.423	93.31
646.628	93.31
646.833	82.31
647.038	81.31
647.243	87.31
647.447	91.31
647.652	82.31
647.857	87.31
648.062	72.31
648.266	88.31
648.471	91.31
648.676	104.31
648.88	91.31
649.085	82.31
649.289	86.31
649.494	95.31
649.698	127.31
649.903	101.31
650.107	87.31
650.312	95.31
650.516	86.31
650.721	95.31
650.925	77.31
651.13	73.31
651.334	68.31
651.539	78.31
651.743	68.31
651.947	78.31
652.152	92.31
652.356	85.31
652.56	75.31
652.764	83.31
652.969	82.31
653.173	68.31
653.377	83.31
653.581	78.31
653.785	80.31
653.99	83.31
654.194	89.31
654.398	84.31
654.602	82.31
654.806	76.31
655.01	101.31
655.214	91.31
655.418	91.31
655.622	92.31
655.826	87.31
656.03	86.31
656.234	92.31
656.438	97.31
656.642	95.31
656.846	88.31
657.049	84.31
657.253	77.31
657.457	93.31
657.661	77.31
657.865	79.31
658.068	80.31
658.272	79.31
658.476	87.31
658.68	66.31
658.883	71.31
659.087	78.31
659.291	95.31
659.494	89.31
659.698	71.31
659.901	71.31
660.105	73.31
660.309	85.31
660.512	70.31
660.716	84.31
660.919	79.31
661.123	81.31
661.326	75.31
661.53	73.31
661.733	75.31
661.936	87.31
662.14	89.31
662.343	65.31
662.546	77.31
662.75	93.31
662.953	76.31
663.156	87.31
663.36	86.31
663.563	84.31
663.766	81.31
663.969	84.31
664.173	83.31
664.376	83.31
664.579	86.31
664.782	76.31
664.985	75.31
665.188	77.31
665.391	64.31
665.594	87.31
665.797	71.31
666	83.31
666.203	79.31
666.406	82.31
666.609	85.31
666.812	71.31
667.015	84.31
667.218	82.31
667.421	75.31
667.624	68.31
667.827	81.31
668.03	74.31
668.232	72.31
668.435	92.31
668.638	74.31
668.841	77.31
669.043	81.31
669.246	74.31
669.449	78.31
669.651	82.31
669.854	81.31
670.057	81.31
670.259	81.31
670.462	85.31
670.665	83.31
670.867	78.31
671.07	68.31
671.272	79.31
671.475	94.31
671.677	78.31
671.88	81.31
672.082	75.31
672.284	68.31
672.487	82.31
672.689	83.31
672.892	74.31
