Data from Penny_2_HRD10591_00014.txt Node
Date: Wed Nov 05 15:34:33 EST 2025
User: Yrep
Spectrometer: HR+D1059
Trigger mode: 1
Integration Time (sec): 1.000000E-1
Scans to average: 1
Electric dark correction enabled: true
Nonlinearity correction enabled: false
Boxcar width: 0
XAxis mode: Wavelengths
Number of Pixels in Spectrum: 2048
>>>>>Begin Spectral Data<<<<<
223.165	-21
223.4	-21
223.635	-21
223.869	-10
224.104	-19
224.338	-9
224.573	-12
224.808	-9
225.042	-18
225.277	3
225.511	1
225.746	-4
225.98	-6
226.215	2
226.449	6
226.683	4
226.918	51
227.152	41
227.387	37
227.621	37
227.856	47
228.09	51
228.324	60
228.559	46
228.793	47
229.027	61
229.262	59
229.496	70
229.73	71
229.964	61
230.199	63
230.433	72
230.667	83
230.901	80
231.136	84
231.37	69
231.604	79
231.838	89
232.072	73
232.306	88
232.541	71
232.775	70
233.009	78
233.243	75
233.477	69
233.711	74
233.945	73
234.179	75
234.413	88
234.647	88
234.881	84
235.115	76
235.349	73
235.583	94
235.817	77
236.051	64
236.285	84
236.519	81
236.753	74
236.987	84
237.221	69
237.455	88
237.689	77
237.922	90
238.156	73
238.39	87
238.624	61
238.858	75
239.091	75
239.325	82
239.559	70
239.793	65
240.027	78
240.26	85
240.494	77
240.728	82
240.961	71
241.195	72
241.429	75
241.662	69
241.896	78
242.13	80
242.363	63
242.597	57
242.83	69
243.064	63
243.298	85
243.531	73
243.765	69
243.998	68
244.232	82
244.465	79
244.699	74
244.932	75
245.166	72
245.399	79
245.633	86
245.866	77
246.099	76
246.333	74
246.566	80
246.8	79
247.033	84
247.266	67
247.5	80
247.733	84
247.966	81
248.2	73
248.433	80
248.666	66
248.899	75
249.133	85
249.366	91
249.599	82
249.832	73
250.066	89
250.299	79
250.532	79
250.765	72
250.998	80
251.231	70
251.465	70
251.698	74
251.931	74
252.164	90
252.397	74
252.63	81
252.863	80
253.096	77
253.329	82
253.562	73
253.795	78
254.028	65
254.261	86
254.494	81
254.727	101
254.96	86
255.193	88
255.426	81
255.659	78
255.892	61
256.124	74
256.357	77
256.59	80
256.823	80
257.056	91
257.289	80
257.521	83
257.754	76
257.987	75
258.22	71
258.452	82
258.685	83
258.918	71
259.151	70
259.383	79
259.616	67
259.849	78
260.081	72
260.314	76
260.547	89
260.779	75
261.012	82
261.244	80
261.477	83
261.71	79
261.942	77
262.175	74
262.407	77
262.64	86
262.872	87
263.105	77
263.337	75
263.57	70
263.802	73
264.035	90
264.267	95
264.499	81
264.732	87
264.964	75
265.197	67
265.429	73
265.661	88
265.894	83
266.126	68
266.358	74
266.591	77
266.823	73
267.055	86
267.287	95
267.52	81
267.752	93
267.984	77
268.216	74
268.448	73
268.681	84
268.913	74
269.145	90
269.377	81
269.609	85
269.841	87
270.073	87
270.306	73
270.538	80
270.77	85
271.002	88
271.234	83
271.466	88
271.698	87
271.93	75
272.162	87
272.394	86
272.626	80
272.858	98
273.09	78
273.322	79
273.553	72
273.785	93
274.017	83
274.249	81
274.481	70
274.713	75
274.945	93
275.176	88
275.408	86
275.64	83
275.872	73
276.104	102
276.335	88
276.567	84
276.799	91
277.031	99
277.262	73
277.494	88
277.726	80
277.957	90
278.189	92
278.421	76
278.652	75
278.884	74
279.115	77
279.347	97
279.579	73
279.81	72
280.042	85
280.273	87
280.505	77
280.736	76
280.968	76
281.199	88
281.431	69
281.662	87
281.894	101
282.125	92
282.356	84
282.588	106
282.819	85
283.051	85
283.282	86
283.513	83
283.745	70
283.976	81
284.207	78
284.439	80
284.67	91
284.901	87
285.132	85
285.364	71
285.595	80
285.826	81
286.057	101
286.288	91
286.52	76
286.751	86
286.982	97
287.213	89
287.444	75
287.675	101
287.906	89
288.138	72
288.369	84
288.6	85
288.831	80
289.062	101
289.293	77
289.524	74
289.755	79
289.986	86
290.217	73
290.448	91
290.679	86
290.91	83
291.141	83
291.371	77
291.602	90
291.833	77
292.064	90
292.295	77
292.526	85
292.757	88
292.987	79
293.218	93
293.449	85
293.68	84
293.91	91
294.141	92
294.372	78
294.603	85
294.833	86
295.064	70
295.295	78
295.525	87
295.756	65
295.987	79
296.217	83
296.448	87
296.679	82
296.909	91
297.14	100
297.37	84
297.601	77
297.831	80
298.062	77
298.292	85
298.523	78
298.753	89
298.984	89
299.214	90
299.445	86
299.675	89
299.905	79
300.136	87
300.366	69
300.597	83
300.827	101
301.057	89
301.288	83
301.518	83
301.748	71
301.979	81
302.209	80
302.439	85
302.669	93
302.9	85
303.13	89
303.36	73
303.59	81
303.82	86
304.051	80
304.281	89
304.511	103
304.741	75
304.971	79
305.201	89
305.431	82
305.661	86
305.891	84
306.121	85
306.352	81
306.582	91
306.812	87
307.042	76
307.272	81
307.502	83
307.731	77
307.961	91
308.191	80
308.421	85
308.651	94
308.881	76
309.111	93
309.341	91
309.571	81
309.8	98
310.03	85
310.26	67
310.49	93
310.72	73
310.949	89
311.179	76
311.409	88
311.639	75
311.868	80
312.098	80
312.328	71
312.557	99
312.787	91
313.017	71
313.246	89
313.476	89
313.706	82
313.935	74
314.165	83
314.394	74
314.624	89
314.853	87
315.083	84
315.312	86
315.542	87
315.771	74
316.001	79
316.23	74
316.46	85
316.689	85
316.919	94
317.148	75
317.377	71
317.607	99
317.836	78
318.065	78
318.295	70
318.524	71
318.753	67
318.983	90
319.212	87
319.441	94
319.67	84
319.9	81
320.129	72
320.358	94
320.587	87
320.816	86
321.046	94
321.275	89
321.504	93
321.733	84
321.962	86
322.191	91
322.42	98
322.649	75
322.878	85
323.108	87
323.337	69
323.566	74
323.795	96
324.024	75
324.253	101
324.482	104
324.71	152
324.939	155
325.168	100
325.397	91
325.626	75
325.855	92
326.084	90
326.313	84
326.542	75
326.77	87
326.999	92
327.228	121
327.457	128
327.686	126
327.914	94
328.143	106
328.372	107
328.6	85
328.829	86
329.058	78
329.287	95
329.515	78
329.744	91
329.972	84
330.201	115
330.43	134
330.658	103
330.887	83
331.115	84
331.344	84
331.572	86
331.801	77
332.03	90
332.258	87
332.486	86
332.715	89
332.943	78
333.172	95
333.4	86
333.629	86
333.857	86
334.085	94
334.314	119
334.542	140
334.771	131
334.999	100
335.227	85
335.455	83
335.684	82
335.912	84
336.14	76
336.369	88
336.597	86
336.825	94
337.053	79
337.281	89
337.51	89
337.738	90
337.966	82
338.194	85
338.422	85
338.65	93
338.878	82
339.106	69
339.334	85
339.562	73
339.79	79
340.018	81
340.246	79
340.474	97
340.702	87
340.93	80
341.158	68
341.386	79
341.614	97
341.842	73
342.07	76
342.298	87
342.526	77
342.754	89
342.981	76
343.209	66
343.437	91
343.665	92
343.893	79
344.12	87
344.348	79
344.576	78
344.804	86
345.031	86
345.259	102
345.487	94
345.714	68
345.942	81
346.17	81
346.397	87
346.625	74
346.853	77
347.08	82
347.308	81
347.535	82
347.763	68
347.99	85
348.218	88
348.445	85
348.673	64
348.9	72
349.128	85
349.355	65
349.583	84
349.81	75
350.037	90
350.265	71
350.492	82
350.72	83
350.947	95
351.174	72
351.402	83
351.629	89
351.856	78
352.083	73
352.311	95
352.538	71
352.765	91
352.992	79
353.22	80
353.447	90
353.674	79
353.901	77
354.128	85
354.355	76
354.583	82
354.81	89
355.037	70
355.264	79
355.491	75
355.718	80
355.945	90
356.172	91
356.399	78
356.626	69
356.853	90
357.08	92
357.307	78
357.534	90
357.761	87
357.988	89
358.215	76
358.441	86
358.668	88
358.895	80
359.122	81
359.349	84
359.576	98
359.802	93
360.029	95
360.256	103
360.483	84
360.709	72
360.936	71
361.163	83
361.39	79
361.616	74
361.843	85
362.07	77
362.296	69
362.523	86
362.749	83
362.976	85
363.203	92
363.429	75
363.656	68
363.882	80
364.109	95
364.335	108
364.562	83
364.788	79
365.015	67
365.241	91
365.468	94
365.694	82
365.92	76
366.147	80
366.373	71
366.599	79
366.826	64
367.052	84
367.278	88
367.505	79
367.731	80
367.957	95
368.184	72
368.41	87
368.636	91
368.862	78
369.089	88
369.315	79
369.541	89
369.767	106
369.993	87
370.219	68
370.445	76
370.672	89
370.898	85
371.124	76
371.35	85
371.576	81
371.802	81
372.028	90
372.254	75
372.48	76
372.706	88
372.932	82
373.158	95
373.384	95
373.61	79
373.835	73
374.061	91
374.287	72
374.513	67
374.739	76
374.965	102
375.191	87
375.416	97
375.642	69
375.868	75
376.094	76
376.319	76
376.545	75
376.771	85
376.997	75
377.222	90
377.448	89
377.674	74
377.899	94
378.125	80
378.35	85
378.576	84
378.802	77
379.027	85
379.253	92
379.478	78
379.704	79
379.929	93
380.155	87
380.38	76
380.606	64
380.831	85
381.057	93
381.282	95
381.507	98
381.733	90
381.958	93
382.184	81
382.409	80
382.634	89
382.86	91
383.085	100
383.31	92
383.535	80
383.761	90
383.986	83
384.211	95
384.436	86
384.662	84
384.887	83
385.112	71
385.337	90
385.562	85
385.787	88
386.013	84
386.238	77
386.463	79
386.688	97
386.913	84
387.138	85
387.363	90
387.588	73
387.813	74
388.038	80
388.263	72
388.488	68
388.713	78
388.938	76
389.163	80
389.387	93
389.612	84
389.837	94
390.062	89
390.287	86
390.512	69
390.736	67
390.961	82
391.186	88
391.411	77
391.636	73
391.86	75
392.085	110
392.31	84
392.534	77
392.759	92
392.984	94
393.208	74
393.433	79
393.658	86
393.882	86
394.107	90
394.331	82
394.556	76
394.78	77
395.005	73
395.229	79
395.454	80
395.678	87
395.903	84
396.127	79
396.352	103
396.576	88
396.801	70
397.025	96
397.249	87
397.474	87
397.698	90
397.922	71
398.147	85
398.371	78
398.595	88
398.82	72
399.044	80
399.268	85
399.492	72
399.717	86
399.941	73
400.165	82
400.389	83
400.613	73
400.837	94
401.062	86
401.286	79
401.51	82
401.734	79
401.958	94
402.182	79
402.406	79
402.63	92
402.854	78
403.078	78
403.302	79
403.526	75
403.75	76
403.974	76
404.198	83
404.422	72
404.645	77
404.869	83
405.093	73
405.317	78
405.541	70
405.765	73
405.988	81
406.212	62
406.436	91
406.66	79
406.883	71
407.107	83
407.331	84
407.555	92
407.778	84
408.002	87
408.226	84
408.449	80
408.673	88
408.896	86
409.12	93
409.344	75
409.567	83
409.791	74
410.014	75
410.238	84
410.461	79
410.685	61
410.908	74
411.132	89
411.355	66
411.578	85
411.802	73
412.025	85
412.249	101
412.472	70
412.695	70
412.919	78
413.142	81
413.365	93
413.589	71
413.812	81
414.035	82
414.258	78
414.482	73
414.705	80
414.928	82
415.151	73
415.374	77
415.597	89
415.821	64
416.044	81
416.267	79
416.49	68
416.713	89
416.936	86
417.159	63
417.382	95
417.605	86
417.828	74
418.051	74
418.274	69
418.497	76
418.72	76
418.943	84
419.166	77
419.389	73
419.611	75
419.834	83
420.057	69
420.28	83
420.503	77
420.726	67
420.948	77
421.171	70
421.394	97
421.617	67
421.839	80
422.062	86
422.285	90
422.507	74
422.73	74
422.953	91
423.175	82
423.398	78
423.621	66
423.843	66
424.066	87
424.288	87
424.511	76
424.733	79
424.956	82
425.178	77
425.401	83
425.623	77
425.846	89
426.068	94
426.291	82
426.513	82
426.735	94
426.958	87
427.18	91
427.402	99
427.625	85
427.847	85
428.069	83
428.292	90
428.514	81
428.736	82
428.958	77
429.181	81
429.403	74
429.625	82
429.847	88
430.069	77
430.292	74
430.514	81
430.736	67
430.958	77
431.18	77
431.402	71
431.624	84
431.846	78
432.068	80
432.29	75
432.512	85
432.734	61
432.956	77
433.178	85
433.4	94
433.622	80
433.844	79
434.066	83
434.287	85
434.509	90
434.731	99
434.953	87
435.175	91
435.397	91
435.618	89
435.84	85
436.062	77
436.284	85
436.505	81
436.727	85
436.949	68
437.17	71
437.392	67
437.614	83
437.835	76
438.057	85
438.278	87
438.5	87
438.721	79
438.943	83
439.165	73
439.386	78
439.608	83
439.829	75
440.05	68
440.272	87
440.493	75
440.715	74
440.936	76
441.158	80
441.379	74
441.6	72
441.822	78
442.043	80
442.264	82
442.486	73
442.707	83
442.928	87
443.149	82
443.371	81
443.592	75
443.813	85
444.034	79
444.255	74
444.476	80
444.698	85
444.919	69
445.14	143
445.361	118
445.582	74
445.803	71
446.024	79
446.245	83
446.466	82
446.687	87
446.908	83
447.129	93
447.35	95
447.571	81
447.792	91
448.013	74
448.234	78
448.455	101
448.675	70
448.896	81
449.117	79
449.338	90
449.559	86
449.779	79
450	88
450.221	73
450.442	85
450.662	86
450.883	80
451.104	85
451.324	83
451.545	74
451.766	80
451.986	77
452.207	80
452.428	82
452.648	83
452.869	81
453.089	73
453.31	79
453.53	76
453.751	85
453.971	79
454.192	79
454.412	71
454.633	84
454.853	83
455.073	83
455.294	78
455.514	84
455.734	85
455.955	70
456.175	86
456.395	85
456.616	86
456.836	69
457.056	67
457.276	67
457.497	85
457.717	79
457.937	85
458.157	90
458.377	86
458.598	75
458.818	86
459.038	79
459.258	75
459.478	77
459.698	84
459.918	84
460.138	66
460.358	74
460.578	73
460.798	70
461.018	88
461.238	82
461.458	63
461.678	77
461.898	94
462.118	87
462.338	96
462.558	87
462.777	67
462.997	90
463.217	88
463.437	78
463.657	80
463.876	69
464.096	83
464.316	90
464.536	82
464.755	94
464.975	77
465.195	89
465.414	70
465.634	90
465.854	87
466.073	90
466.293	80
466.512	77
466.732	85
466.951	82
467.171	93
467.391	83
467.61	69
467.829	101
468.049	109
468.268	104
468.488	86
468.707	76
468.927	77
469.146	88
469.365	91
469.585	75
469.804	70
470.023	73
470.243	79
470.462	89
470.681	72
470.901	75
471.12	77
471.339	71
471.558	75
471.777	76
471.997	85
472.216	145
472.435	157
472.654	96
472.873	97
473.092	90
473.311	69
473.53	75
473.749	79
473.968	92
474.187	78
474.406	84
474.625	83
474.844	80
475.063	78
475.282	83
475.501	57
475.72	78
475.939	79
476.158	66
476.377	76
476.596	73
476.814	85
477.033	65
477.252	83
477.471	73
477.69	83
477.908	83
478.127	77
478.346	88
478.564	68
478.783	80
479.002	71
479.22	92
479.439	80
479.658	80
479.876	74
480.095	89
480.313	94
480.532	79
480.751	93
480.969	140
481.188	241
481.406	143
481.624	94
481.843	77
482.061	91
482.28	86
482.498	73
482.717	79
482.935	86
483.153	82
483.372	69
483.59	75
483.808	82
484.027	87
484.245	85
484.463	76
484.681	79
484.9	71
485.118	85
485.336	86
485.554	77
485.772	67
485.99	84
486.209	87
486.427	75
486.645	91
486.863	96
487.081	74
487.299	109
487.517	79
487.735	75
487.953	97
488.171	77
488.389	79
488.607	94
488.825	86
489.043	89
489.261	73
489.479	81
489.696	80
489.914	75
490.132	85
490.35	72
490.568	78
490.786	79
491.003	75
491.221	82
491.439	80
491.657	67
491.874	82
492.092	90
492.31	79
492.527	81
492.745	83
492.963	86
493.18	76
493.398	88
493.615	70
493.833	75
494.05	83
494.268	89
494.485	91
494.703	85
494.92	78
495.138	85
495.355	82
495.573	89
495.79	85
496.008	80
496.225	78
496.442	78
496.66	88
496.877	77
497.094	96
497.312	79
497.529	92
497.746	89
497.963	95
498.181	88
498.398	89
498.615	92
498.832	85
499.049	89
499.267	83
499.484	79
499.701	98
499.918	78
500.135	77
500.352	72
500.569	87
500.786	75
501.003	81
501.22	67
501.437	72
501.654	73
501.871	86
502.088	76
502.305	80
502.522	82
502.739	80
502.956	77
503.172	83
503.389	84
503.606	81
503.823	89
504.04	94
504.256	85
504.473	79
504.69	94
504.907	91
505.123	73
505.34	85
505.557	90
505.773	91
505.99	79
506.207	83
506.423	75
506.64	90
506.856	78
507.073	80
507.289	82
507.506	86
507.722	88
507.939	87
508.155	83
508.372	92
508.588	78
508.805	81
509.021	63
509.238	82
509.454	71
509.67	87
509.887	78
510.103	87
510.319	76
510.536	123
510.752	192
510.968	100
511.184	85
511.401	73
511.617	78
511.833	79
512.049	78
512.265	81
512.481	85
512.698	73
512.914	82
513.13	87
513.346	77
513.562	73
513.778	78
513.994	61
514.21	76
514.426	91
514.642	97
514.858	85
515.074	97
515.29	133
515.506	203
515.721	106
515.937	79
516.153	77
516.369	90
516.585	97
516.801	70
517.016	73
517.232	83
517.448	78
517.664	91
517.879	90
518.095	85
518.311	80
518.527	85
518.742	80
518.958	87
519.173	93
519.389	85
519.605	69
519.82	98
520.036	91
520.251	95
520.467	77
520.682	79
520.898	83
521.113	71
521.329	80
521.544	113
521.76	133
521.975	277
522.19	178
522.406	101
522.621	87
522.836	84
523.052	97
523.267	83
523.482	93
523.698	83
523.913	76
524.128	72
524.343	69
524.559	77
524.774	81
524.989	78
525.204	83
525.419	86
525.634	84
525.849	82
526.064	83
526.28	87
526.495	79
526.71	85
526.925	73
527.14	85
527.355	80
527.57	80
527.785	96
527.999	80
528.214	77
528.429	69
528.644	86
528.859	71
529.074	85
529.289	92
529.503	93
529.718	77
529.933	82
530.148	74
530.363	76
530.577	75
530.792	85
531.007	77
531.221	90
531.436	85
531.651	85
531.865	75
532.08	83
532.295	77
532.509	86
532.724	85
532.938	73
533.153	73
533.367	74
533.582	83
533.796	94
534.011	81
534.225	82
534.44	89
534.654	90
534.868	92
535.083	92
535.297	84
535.511	85
535.726	89
535.94	79
536.154	83
536.369	93
536.583	73
536.797	69
537.011	77
537.225	78
537.44	79
537.654	81
537.868	77
538.082	85
538.296	93
538.51	82
538.724	91
538.938	79
539.153	67
539.367	94
539.581	91
539.795	82
540.009	63
540.222	76
540.436	95
540.65	88
540.864	97
541.078	97
541.292	82
541.506	94
541.72	90
541.934	84
542.147	86
542.361	88
542.575	80
542.789	85
543.002	85
543.216	87
543.43	87
543.644	78
543.857	76
544.071	83
544.285	87
544.498	89
544.712	81
544.925	72
545.139	83
545.352	78
545.566	85
545.779	95
545.993	89
546.206	84
546.42	100
546.633	93
546.847	93
547.06	78
547.274	82
547.487	72
547.7	79
547.914	83
548.127	81
548.34	78
548.554	76
548.767	93
548.98	87
549.193	71
549.407	86
549.62	97
549.833	82
550.046	88
550.259	96
550.473	90
550.686	95
550.899	92
551.112	98
551.325	66
551.538	87
551.751	93
551.964	74
552.177	78
552.39	84
552.603	101
552.816	80
553.029	85
553.242	94
553.455	94
553.667	86
553.88	77
554.093	78
554.306	74
554.519	85
554.732	93
554.944	81
555.157	77
555.37	81
555.583	84
555.795	81
556.008	80
556.221	62
556.433	87
556.646	65
556.859	90
557.071	101
557.284	91
557.496	81
557.709	95
557.921	81
558.134	80
558.346	97
558.559	91
558.771	76
558.984	80
559.196	82
559.409	80
559.621	78
559.833	93
560.046	89
560.258	85
560.47	81
560.683	101
560.895	94
561.107	69
561.32	93
561.532	69
561.744	87
561.956	76
562.168	69
562.381	90
562.593	81
562.805	96
563.017	92
563.229	92
563.441	61
563.653	88
563.865	95
564.077	78
564.289	83
564.501	95
564.713	72
564.925	91
565.137	85
565.349	73
565.561	73
565.773	69
565.985	82
566.197	96
566.408	94
566.62	84
566.832	87
567.044	93
567.255	89
567.467	87
567.679	91
567.891	73
568.102	86
568.314	75
568.526	87
568.737	87
568.949	78
569.161	67
569.372	86
569.584	89
569.795	73
570.007	84
570.218	109
570.43	92
570.641	91
570.853	73
571.064	87
571.276	90
571.487	93
571.698	91
571.91	86
572.121	86
572.333	95
572.544	91
572.755	95
572.966	85
573.178	84
573.389	94
573.6	83
573.811	93
574.023	94
574.234	78
574.445	79
574.656	94
574.867	91
575.078	106
575.289	97
575.501	80
575.712	91
575.923	85
576.134	94
576.345	83
576.556	90
576.767	81
576.978	79
577.188	71
577.399	85
577.61	86
577.821	88
578.032	76
578.243	99
578.454	129
578.665	84
578.875	85
579.086	93
579.297	97
579.508	79
579.718	88
579.929	93
580.14	86
580.35	74
580.561	77
580.772	72
580.982	84
581.193	80
581.403	85
581.614	82
581.825	83
582.035	93
582.246	88
582.456	80
582.667	84
582.877	75
583.087	76
583.298	87
583.508	87
583.719	74
583.929	92
584.139	83
584.35	69
584.56	88
584.77	82
584.981	94
585.191	77
585.401	80
585.611	67
585.821	89
586.032	79
586.242	89
586.452	81
586.662	78
586.872	68
587.082	83
587.292	92
587.502	94
587.713	88
587.923	90
588.133	93
588.343	76
588.553	74
588.762	82
588.972	76
589.182	87
589.392	91
589.602	90
589.812	79
590.022	82
590.232	88
590.441	94
590.651	80
590.861	89
591.071	91
591.281	79
591.49	80
591.7	77
591.91	92
592.119	89
592.329	78
592.539	82
592.748	80
592.958	82
593.167	73
593.377	77
593.587	80
593.796	83
594.006	77
594.215	77
594.424	78
594.634	78
594.843	85
595.053	89
595.262	85
595.472	82
595.681	83
595.89	87
596.1	79
596.309	80
596.518	78
596.727	77
596.937	71
597.146	85
597.355	83
597.564	83
597.774	97
597.983	80
598.192	86
598.401	75
598.61	79
598.819	76
599.028	80
599.237	92
599.446	81
599.655	86
599.864	82
600.073	85
600.282	97
600.491	80
600.7	70
600.909	72
601.118	93
601.327	85
601.536	78
601.745	80
601.953	101
602.162	85
602.371	84
602.58	91
602.789	97
602.997	87
603.206	85
603.415	87
603.623	69
603.832	87
604.041	85
604.249	74
604.458	99
604.666	83
604.875	86
605.084	90
605.292	79
605.501	85
605.709	92
605.918	95
606.126	61
606.334	87
606.543	92
606.751	83
606.96	88
607.168	76
607.376	79
607.585	95
607.793	73
608.001	78
608.21	87
608.418	101
608.626	85
608.834	83
609.043	90
609.251	83
609.459	85
609.667	96
609.875	73
610.083	79
610.291	90
610.499	85
610.707	87
610.916	78
611.124	89
611.332	94
611.54	82
611.748	72
611.955	73
612.163	84
612.371	71
612.579	94
612.787	87
612.995	69
613.203	85
613.411	85
613.618	89
613.826	88
614.034	84
614.242	82
614.449	86
614.657	87
614.865	87
615.072	86
615.28	88
615.488	77
615.695	72
615.903	79
616.111	66
616.318	91
616.526	80
616.733	70
616.941	87
617.148	71
617.356	76
617.563	77
617.771	81
617.978	68
618.185	94
618.393	94
618.6	77
618.807	84
619.015	87
619.222	78
619.429	88
619.637	79
619.844	77
620.051	91
620.258	81
620.466	76
620.673	75
620.88	78
621.087	86
621.294	85
621.501	80
621.708	88
621.915	89
622.122	99
622.329	70
622.536	83
622.743	99
622.95	90
623.157	104
623.364	90
623.571	82
623.778	88
623.985	82
624.192	75
624.399	88
624.606	89
624.812	82
625.019	76
625.226	85
625.433	89
625.639	74
625.846	77
626.053	86
626.259	84
626.466	88
626.673	76
626.879	77
627.086	82
627.293	105
627.499	85
627.706	79
627.912	69
628.119	70
628.325	79
628.532	94
628.738	85
628.945	69
629.151	87
629.357	80
629.564	78
629.77	79
629.976	85
630.183	81
630.389	84
630.595	85
630.802	97
631.008	75
631.214	89
631.42	73
631.627	74
631.833	77
632.039	98
632.245	74
632.451	74
632.657	88
632.863	85
633.069	80
633.275	87
633.481	92
633.688	72
633.893	98
634.099	77
634.305	94
634.511	91
634.717	79
634.923	84
635.129	80
635.335	77
635.541	62
635.747	73
635.952	89
636.158	85
636.364	97
636.57	84
636.775	89
636.981	79
637.187	75
637.392	85
637.598	78
637.804	82
638.009	93
638.215	87
638.421	84
638.626	89
638.832	67
639.037	74
639.243	79
639.448	86
639.654	84
639.859	73
640.065	87
640.27	85
640.475	88
640.681	82
640.886	84
641.091	80
641.297	84
641.502	78
641.707	80
641.913	77
642.118	70
642.323	85
642.528	83
642.733	91
642.939	93
643.144	75
643.349	75
643.554	85
643.759	85
643.964	79
644.169	86
644.374	65
644.579	85
644.784	77
644.989	81
645.194	67
645.399	74
645.604	81
645.809	97
646.014	99
646.219	83
646.423	75
646.628	74
646.833	73
647.038	89
647.243	87
647.447	86
647.652	76
647.857	77
648.062	85
648.266	82
648.471	93
648.676	73
648.88	76
649.085	83
649.289	81
649.494	76
649.698	77
649.903	89
650.107	83
650.312	91
650.516	78
650.721	64
650.925	90
651.13	94
651.334	79
651.539	66
651.743	97
651.947	78
652.152	81
652.356	83
652.56	79
652.764	93
652.969	67
653.173	87
653.377	90
653.581	84
653.785	75
653.99	83
654.194	81
654.398	78
654.602	82
654.806	85
655.01	87
655.214	76
655.418	97
655.622	78
655.826	79
656.03	78
656.234	74
656.438	73
656.642	86
656.846	63
657.049	79
657.253	72
657.457	87
657.661	80
657.865	87
658.068	77
658.272	71
658.476	93
658.68	78
658.883	83
659.087	80
659.291	74
659.494	83
659.698	73
659.901	77
660.105	82
660.309	85
660.512	81
660.716	85
660.919	78
661.123	91
661.326	93
661.53	90
661.733	79
661.936	87
662.14	83
662.343	86
662.546	81
662.75	78
662.953	91
663.156	80
663.36	60
663.563	98
663.766	94
663.969	75
664.173	71
664.376	71
664.579	97
664.782	87
664.985	86
665.188	84
665.391	79
665.594	89
665.797	73
666	95
666.203	71
666.406	77
666.609	88
666.812	95
667.015	89
667.218	78
667.421	82
667.624	71
667.827	87
668.03	98
668.232	80
668.435	92
668.638	82
668.841	74
669.043	75
669.246	86
669.449	81
669.651	82
669.854	73
670.057	77
670.259	91
670.462	83
670.665	81
670.867	73
671.07	75
671.272	78
671.475	85
671.677	75
671.88	101
672.082	96
672.284	91
672.487	85
672.689	79
672.892	69
