Data from KBrNoHeat2_HRD10591_00013.txt Node
Date: Fri Dec 27 14:47:44 EST 2024
User: Yrep
Spectrometer: HR+D1059
Trigger mode: 1
Integration Time (sec): 1.000000E-1
Scans to average: 1
Electric dark correction enabled: true
Nonlinearity correction enabled: false
Boxcar width: 0
XAxis mode: Wavelengths
Number of Pixels in Spectrum: 2048
>>>>>Begin Spectral Data<<<<<
223.165	-15.12
223.4	-15.12
223.635	-15.12
223.869	-35.12
224.104	-17.12
224.338	-11.12
224.573	-4.12
224.808	-23.12
225.042	-6.12
225.277	-2.12
225.511	-6.12
225.746	17.88
225.98	14.88
226.215	0.88
226.449	10.88
226.683	24.88
226.918	26.88
227.152	23.88
227.387	31.88
227.621	48.88
227.856	30.88
228.09	46.88
228.324	48.88
228.559	54.88
228.793	53.88
229.027	61.88
229.262	72.88
229.496	80.88
229.73	80.88
229.964	84.88
230.199	69.88
230.433	72.88
230.667	60.88
230.901	72.88
231.136	77.88
231.37	75.88
231.604	81.88
231.838	74.88
232.072	82.88
232.306	91.88
232.541	89.88
232.775	91.88
233.009	100.88
233.243	82.88
233.477	76.88
233.711	94.88
233.945	87.88
234.179	93.88
234.413	104.88
234.647	80.88
234.881	72.88
235.115	87.88
235.349	76.88
235.583	67.88
235.817	76.88
236.051	87.88
236.285	89.88
236.519	90.88
236.753	85.88
236.987	80.88
237.221	75.88
237.455	79.88
237.689	81.88
237.922	84.88
238.156	78.88
238.39	77.88
238.624	83.88
238.858	82.88
239.091	88.88
239.325	96.88
239.559	61.88
239.793	72.88
240.027	93.88
240.26	64.88
240.494	93.88
240.728	86.88
240.961	92.88
241.195	71.88
241.429	79.88
241.662	79.88
241.896	72.88
242.13	70.88
242.363	78.88
242.597	93.88
242.83	91.88
243.064	69.88
243.298	86.88
243.531	90.88
243.765	70.88
243.998	81.88
244.232	89.88
244.465	91.88
244.699	81.88
244.932	79.88
245.166	89.88
245.399	87.88
245.633	77.88
245.866	79.88
246.099	80.88
246.333	77.88
246.566	73.88
246.8	87.88
247.033	79.88
247.266	75.88
247.5	81.88
247.733	93.88
247.966	92.88
248.2	89.88
248.433	81.88
248.666	87.88
248.899	87.88
249.133	82.88
249.366	92.88
249.599	72.88
249.832	80.88
250.066	72.88
250.299	81.88
250.532	72.88
250.765	81.88
250.998	69.88
251.231	81.88
251.465	90.88
251.698	88.88
251.931	79.88
252.164	76.88
252.397	71.88
252.63	80.88
252.863	86.88
253.096	66.88
253.329	86.88
253.562	78.88
253.795	84.88
254.028	75.88
254.261	86.88
254.494	77.88
254.727	77.88
254.96	88.88
255.193	85.88
255.426	97.88
255.659	80.88
255.892	80.88
256.124	84.88
256.357	86.88
256.59	84.88
256.823	82.88
257.056	69.88
257.289	87.88
257.521	87.88
257.754	84.88
257.987	76.88
258.22	80.88
258.452	80.88
258.685	97.88
258.918	84.88
259.151	78.88
259.383	87.88
259.616	87.88
259.849	79.88
260.081	82.88
260.314	79.88
260.547	73.88
260.779	80.88
261.012	76.88
261.244	82.88
261.477	104.88
261.71	94.88
261.942	90.88
262.175	94.88
262.407	72.88
262.64	73.88
262.872	89.88
263.105	88.88
263.337	78.88
263.57	81.88
263.802	73.88
264.035	80.88
264.267	91.88
264.499	86.88
264.732	79.88
264.964	82.88
265.197	83.88
265.429	71.88
265.661	90.88
265.894	81.88
266.126	90.88
266.358	88.88
266.591	91.88
266.823	73.88
267.055	76.88
267.287	86.88
267.52	82.88
267.752	84.88
267.984	89.88
268.216	77.88
268.448	86.88
268.681	84.88
268.913	97.88
269.145	87.88
269.377	82.88
269.609	95.88
269.841	88.88
270.073	89.88
270.306	76.88
270.538	89.88
270.77	89.88
271.002	86.88
271.234	82.88
271.466	100.88
271.698	66.88
271.93	102.88
272.162	85.88
272.394	87.88
272.626	89.88
272.858	80.88
273.09	81.88
273.322	77.88
273.553	91.88
273.785	94.88
274.017	86.88
274.249	91.88
274.481	72.88
274.713	91.88
274.945	77.88
275.176	81.88
275.408	96.88
275.64	99.88
275.872	90.88
276.104	80.88
276.335	81.88
276.567	75.88
276.799	90.88
277.031	71.88
277.262	85.88
277.494	72.88
277.726	92.88
277.957	79.88
278.189	85.88
278.421	70.88
278.652	88.88
278.884	103.88
279.115	102.88
279.347	82.88
279.579	87.88
279.81	84.88
280.042	85.88
280.273	85.88
280.505	89.88
280.736	93.88
280.968	92.88
281.199	95.88
281.431	80.88
281.662	78.88
281.894	86.88
282.125	100.88
282.356	91.88
282.588	84.88
282.819	83.88
283.051	91.88
283.282	90.88
283.513	100.88
283.745	83.88
283.976	101.88
284.207	106.88
284.439	89.88
284.67	69.88
284.901	86.88
285.132	96.88
285.364	74.88
285.595	79.88
285.826	89.88
286.057	102.88
286.288	88.88
286.52	91.88
286.751	93.88
286.982	89.88
287.213	89.88
287.444	89.88
287.675	78.88
287.906	90.88
288.138	71.88
288.369	92.88
288.6	95.88
288.831	85.88
289.062	86.88
289.293	98.88
289.524	100.88
289.755	89.88
289.986	82.88
290.217	82.88
290.448	77.88
290.679	85.88
290.91	85.88
291.141	82.88
291.371	77.88
291.602	97.88
291.833	85.88
292.064	93.88
292.295	77.88
292.526	83.88
292.757	79.88
292.987	94.88
293.218	88.88
293.449	88.88
293.68	94.88
293.91	84.88
294.141	93.88
294.372	98.88
294.603	87.88
294.833	102.88
295.064	89.88
295.295	90.88
295.525	89.88
295.756	95.88
295.987	85.88
296.217	88.88
296.448	99.88
296.679	98.88
296.909	96.88
297.14	84.88
297.37	81.88
297.601	93.88
297.831	89.88
298.062	100.88
298.292	93.88
298.523	106.88
298.753	93.88
298.984	76.88
299.214	76.88
299.445	81.88
299.675	86.88
299.905	77.88
300.136	90.88
300.366	94.88
300.597	90.88
300.827	97.88
301.057	78.88
301.288	89.88
301.518	89.88
301.748	103.88
301.979	102.88
302.209	91.88
302.439	92.88
302.669	84.88
302.9	82.88
303.13	101.88
303.36	86.88
303.59	83.88
303.82	96.88
304.051	95.88
304.281	67.88
304.511	82.88
304.741	87.88
304.971	89.88
305.201	94.88
305.431	85.88
305.661	92.88
305.891	72.88
306.121	94.88
306.352	96.88
306.582	92.88
306.812	83.88
307.042	76.88
307.272	85.88
307.502	84.88
307.731	82.88
307.961	86.88
308.191	86.88
308.421	95.88
308.651	97.88
308.881	85.88
309.111	90.88
309.341	84.88
309.571	85.88
309.8	75.88
310.03	86.88
310.26	91.88
310.49	98.88
310.72	89.88
310.949	108.88
311.179	85.88
311.409	93.88
311.639	90.88
311.868	94.88
312.098	96.88
312.328	95.88
312.557	93.88
312.787	91.88
313.017	93.88
313.246	97.88
313.476	101.88
313.706	95.88
313.935	86.88
314.165	76.88
314.394	77.88
314.624	100.88
314.853	96.88
315.083	89.88
315.312	79.88
315.542	81.88
315.771	90.88
316.001	88.88
316.23	91.88
316.46	78.88
316.689	84.88
316.919	85.88
317.148	87.88
317.377	88.88
317.607	69.88
317.836	102.88
318.065	85.88
318.295	90.88
318.524	82.88
318.753	85.88
318.983	75.88
319.212	87.88
319.441	88.88
319.67	102.88
319.9	85.88
320.129	86.88
320.358	86.88
320.587	93.88
320.816	84.88
321.046	82.88
321.275	82.88
321.504	81.88
321.733	80.88
321.962	94.88
322.191	83.88
322.42	74.88
322.649	80.88
322.878	94.88
323.108	89.88
323.337	91.88
323.566	104.88
323.795	90.88
324.024	82.88
324.253	93.88
324.482	89.88
324.71	94.88
324.939	80.88
325.168	97.88
325.397	96.88
325.626	97.88
325.855	73.88
326.084	90.88
326.313	81.88
326.542	95.88
326.77	75.88
326.999	83.88
327.228	89.88
327.457	76.88
327.686	93.88
327.914	94.88
328.143	86.88
328.372	89.88
328.6	88.88
328.829	102.88
329.058	70.88
329.287	76.88
329.515	82.88
329.744	77.88
329.972	84.88
330.201	94.88
330.43	95.88
330.658	78.88
330.887	86.88
331.115	95.88
331.344	86.88
331.572	82.88
331.801	85.88
332.03	79.88
332.258	91.88
332.486	95.88
332.715	89.88
332.943	93.88
333.172	97.88
333.4	76.88
333.629	90.88
333.857	81.88
334.085	80.88
334.314	90.88
334.542	87.88
334.771	103.88
334.999	90.88
335.227	78.88
335.455	86.88
335.684	92.88
335.912	94.88
336.14	89.88
336.369	93.88
336.597	93.88
336.825	86.88
337.053	83.88
337.281	83.88
337.51	93.88
337.738	86.88
337.966	95.88
338.194	92.88
338.422	92.88
338.65	77.88
338.878	93.88
339.106	84.88
339.334	92.88
339.562	99.88
339.79	94.88
340.018	89.88
340.246	90.88
340.474	95.88
340.702	81.88
340.93	90.88
341.158	94.88
341.386	76.88
341.614	83.88
341.842	93.88
342.07	90.88
342.298	81.88
342.526	80.88
342.754	78.88
342.981	89.88
343.209	80.88
343.437	100.88
343.665	80.88
343.893	106.88
344.12	103.88
344.348	95.88
344.576	100.88
344.804	120.88
345.031	96.88
345.259	96.88
345.487	86.88
345.714	96.88
345.942	93.88
346.17	88.88
346.397	81.88
346.625	85.88
346.853	70.88
347.08	82.88
347.308	95.88
347.535	90.88
347.763	83.88
347.99	102.88
348.218	86.88
348.445	93.88
348.673	90.88
348.9	93.88
349.128	103.88
349.355	78.88
349.583	94.88
349.81	99.88
350.037	78.88
350.265	86.88
350.492	87.88
350.72	74.88
350.947	99.88
351.174	112.88
351.402	93.88
351.629	94.88
351.856	94.88
352.083	84.88
352.311	84.88
352.538	77.88
352.765	97.88
352.992	105.88
353.22	81.88
353.447	97.88
353.674	92.88
353.901	82.88
354.128	83.88
354.355	80.88
354.583	98.88
354.81	93.88
355.037	90.88
355.264	83.88
355.491	88.88
355.718	87.88
355.945	93.88
356.172	85.88
356.399	78.88
356.626	88.88
356.853	102.88
357.08	95.88
357.307	82.88
357.534	86.88
357.761	103.88
357.988	98.88
358.215	86.88
358.441	88.88
358.668	85.88
358.895	93.88
359.122	94.88
359.349	88.88
359.576	76.88
359.802	80.88
360.029	76.88
360.256	78.88
360.483	94.88
360.709	87.88
360.936	83.88
361.163	99.88
361.39	95.88
361.616	86.88
361.843	97.88
362.07	93.88
362.296	85.88
362.523	92.88
362.749	87.88
362.976	97.88
363.203	87.88
363.429	79.88
363.656	75.88
363.882	84.88
364.109	87.88
364.335	100.88
364.562	91.88
364.788	80.88
365.015	101.88
365.241	86.88
365.468	88.88
365.694	76.88
365.92	82.88
366.147	85.88
366.373	87.88
366.599	81.88
366.826	84.88
367.052	69.88
367.278	95.88
367.505	93.88
367.731	100.88
367.957	82.88
368.184	92.88
368.41	90.88
368.636	95.88
368.862	88.88
369.089	86.88
369.315	76.88
369.541	91.88
369.767	80.88
369.993	93.88
370.219	91.88
370.445	98.88
370.672	72.88
370.898	74.88
371.124	87.88
371.35	73.88
371.576	93.88
371.802	92.88
372.028	89.88
372.254	92.88
372.48	90.88
372.706	87.88
372.932	81.88
373.158	93.88
373.384	93.88
373.61	87.88
373.835	92.88
374.061	97.88
374.287	91.88
374.513	88.88
374.739	80.88
374.965	85.88
375.191	78.88
375.416	82.88
375.642	85.88
375.868	82.88
376.094	86.88
376.319	84.88
376.545	84.88
376.771	82.88
376.997	78.88
377.222	75.88
377.448	97.88
377.674	88.88
377.899	87.88
378.125	96.88
378.35	93.88
378.576	89.88
378.802	88.88
379.027	71.88
379.253	89.88
379.478	100.88
379.704	82.88
379.929	104.88
380.155	101.88
380.38	96.88
380.606	85.88
380.831	94.88
381.057	89.88
381.282	101.88
381.507	90.88
381.733	95.88
381.958	88.88
382.184	90.88
382.409	76.88
382.634	82.88
382.86	92.88
383.085	78.88
383.31	94.88
383.535	94.88
383.761	83.88
383.986	84.88
384.211	98.88
384.436	104.88
384.662	78.88
384.887	78.88
385.112	84.88
385.337	83.88
385.562	105.88
385.787	94.88
386.013	96.88
386.238	97.88
386.463	97.88
386.688	94.88
386.913	86.88
387.138	83.88
387.363	89.88
387.588	100.88
387.813	93.88
388.038	88.88
388.263	92.88
388.488	80.88
388.713	86.88
388.938	97.88
389.163	92.88
389.387	95.88
389.612	104.88
389.837	94.88
390.062	88.88
390.287	87.88
390.512	92.88
390.736	86.88
390.961	78.88
391.186	76.88
391.411	89.88
391.636	86.88
391.86	96.88
392.085	91.88
392.31	80.88
392.534	93.88
392.759	70.88
392.984	98.88
393.208	105.88
393.433	87.88
393.658	95.88
393.882	85.88
394.107	96.88
394.331	84.88
394.556	77.88
394.78	84.88
395.005	89.88
395.229	88.88
395.454	87.88
395.678	99.88
395.903	88.88
396.127	95.88
396.352	86.88
396.576	74.88
396.801	100.88
397.025	83.88
397.249	97.88
397.474	91.88
397.698	83.88
397.922	100.88
398.147	80.88
398.371	99.88
398.595	112.88
398.82	84.88
399.044	94.88
399.268	86.88
399.492	82.88
399.717	68.88
399.941	87.88
400.165	84.88
400.389	90.88
400.613	90.88
400.837	96.88
401.062	95.88
401.286	93.88
401.51	84.88
401.734	94.88
401.958	103.88
402.182	89.88
402.406	72.88
402.63	78.88
402.854	87.88
403.078	86.88
403.302	92.88
403.526	96.88
403.75	89.88
403.974	91.88
404.198	108.88
404.422	136.88
404.645	166.88
404.869	123.88
405.093	114.88
405.317	97.88
405.541	93.88
405.765	77.88
405.988	89.88
406.212	97.88
406.436	94.88
406.66	81.88
406.883	100.88
407.107	84.88
407.331	95.88
407.555	82.88
407.778	83.88
408.002	91.88
408.226	89.88
408.449	91.88
408.673	85.88
408.896	97.88
409.12	106.88
409.344	79.88
409.567	97.88
409.791	85.88
410.014	88.88
410.238	95.88
410.461	93.88
410.685	88.88
410.908	83.88
411.132	89.88
411.355	95.88
411.578	88.88
411.802	87.88
412.025	93.88
412.249	92.88
412.472	87.88
412.695	93.88
412.919	110.88
413.142	81.88
413.365	85.88
413.589	92.88
413.812	90.88
414.035	106.88
414.258	97.88
414.482	92.88
414.705	92.88
414.928	85.88
415.151	92.88
415.374	97.88
415.597	103.88
415.821	92.88
416.044	90.88
416.267	81.88
416.49	92.88
416.713	89.88
416.936	92.88
417.159	96.88
417.382	95.88
417.605	105.88
417.828	90.88
418.051	76.88
418.274	90.88
418.497	83.88
418.72	91.88
418.943	98.88
419.166	89.88
419.389	95.88
419.611	90.88
419.834	95.88
420.057	88.88
420.28	85.88
420.503	80.88
420.726	81.88
420.948	94.88
421.171	79.88
421.394	106.88
421.617	80.88
421.839	81.88
422.062	64.88
422.285	77.88
422.507	96.88
422.73	93.88
422.953	98.88
423.175	98.88
423.398	94.88
423.621	89.88
423.843	81.88
424.066	79.88
424.288	100.88
424.511	100.88
424.733	86.88
424.956	98.88
425.178	87.88
425.401	89.88
425.623	81.88
425.846	87.88
426.068	90.88
426.291	90.88
426.513	91.88
426.735	82.88
426.958	92.88
427.18	79.88
427.402	90.88
427.625	79.88
427.847	76.88
428.069	80.88
428.292	85.88
428.514	94.88
428.736	89.88
428.958	89.88
429.181	85.88
429.403	104.88
429.625	87.88
429.847	90.88
430.069	95.88
430.292	80.88
430.514	79.88
430.736	84.88
430.958	84.88
431.18	86.88
431.402	108.88
431.624	92.88
431.846	86.88
432.068	84.88
432.29	95.88
432.512	95.88
432.734	84.88
432.956	101.88
433.178	96.88
433.4	87.88
433.622	97.88
433.844	94.88
434.066	96.88
434.287	76.88
434.509	89.88
434.731	88.88
434.953	74.88
435.175	85.88
435.397	99.88
435.618	91.88
435.84	105.88
436.062	88.88
436.284	99.88
436.505	91.88
436.727	83.88
436.949	82.88
437.17	83.88
437.392	96.88
437.614	89.88
437.835	94.88
438.057	84.88
438.278	82.88
438.5	92.88
438.721	86.88
438.943	90.88
439.165	82.88
439.386	100.88
439.608	95.88
439.829	94.88
440.05	80.88
440.272	84.88
440.493	92.88
440.715	105.88
440.936	96.88
441.158	87.88
441.379	89.88
441.6	85.88
441.822	88.88
442.043	84.88
442.264	94.88
442.486	85.88
442.707	75.88
442.928	83.88
443.149	70.88
443.371	94.88
443.592	95.88
443.813	91.88
444.034	84.88
444.255	98.88
444.476	94.88
444.698	88.88
444.919	85.88
445.14	156.88
445.361	116.88
445.582	89.88
445.803	96.88
446.024	95.88
446.245	103.88
446.466	88.88
446.687	89.88
446.908	84.88
447.129	85.88
447.35	84.88
447.571	101.88
447.792	87.88
448.013	87.88
448.234	87.88
448.455	81.88
448.675	80.88
448.896	94.88
449.117	87.88
449.338	86.88
449.559	82.88
449.779	77.88
450	93.88
450.221	77.88
450.442	91.88
450.662	97.88
450.883	110.88
451.104	84.88
451.324	94.88
451.545	94.88
451.766	92.88
451.986	89.88
452.207	73.88
452.428	82.88
452.648	90.88
452.869	93.88
453.089	91.88
453.31	93.88
453.53	90.88
453.751	81.88
453.971	93.88
454.192	86.88
454.412	78.88
454.633	80.88
454.853	96.88
455.073	93.88
455.294	71.88
455.514	91.88
455.734	88.88
455.955	89.88
456.175	91.88
456.395	91.88
456.616	96.88
456.836	90.88
457.056	107.88
457.276	88.88
457.497	84.88
457.717	81.88
457.937	90.88
458.157	83.88
458.377	88.88
458.598	70.88
458.818	88.88
459.038	84.88
459.258	100.88
459.478	78.88
459.698	84.88
459.918	73.88
460.138	87.88
460.358	79.88
460.578	98.88
460.798	76.88
461.018	87.88
461.238	89.88
461.458	105.88
461.678	104.88
461.898	80.88
462.118	84.88
462.338	89.88
462.558	80.88
462.777	79.88
462.997	82.88
463.217	86.88
463.437	80.88
463.657	77.88
463.876	87.88
464.096	84.88
464.316	99.88
464.536	92.88
464.755	87.88
464.975	80.88
465.195	90.88
465.414	92.88
465.634	92.88
465.854	82.88
466.073	86.88
466.293	90.88
466.512	97.88
466.732	78.88
466.951	93.88
467.171	96.88
467.391	95.88
467.61	96.88
467.829	91.88
468.049	99.88
468.268	81.88
468.488	85.88
468.707	86.88
468.927	81.88
469.146	96.88
469.365	98.88
469.585	95.88
469.804	81.88
470.023	75.88
470.243	79.88
470.462	87.88
470.681	89.88
470.901	82.88
471.12	86.88
471.339	82.88
471.558	82.88
471.777	88.88
471.997	87.88
472.216	95.88
472.435	95.88
472.654	86.88
472.873	102.88
473.092	84.88
473.311	81.88
473.53	87.88
473.749	83.88
473.968	96.88
474.187	75.88
474.406	94.88
474.625	81.88
474.844	92.88
475.063	96.88
475.282	91.88
475.501	67.88
475.72	101.88
475.939	96.88
476.158	79.88
476.377	88.88
476.596	85.88
476.814	85.88
477.033	84.88
477.252	98.88
477.471	77.88
477.69	76.88
477.908	89.88
478.127	88.88
478.346	88.88
478.564	82.88
478.783	95.88
479.002	97.88
479.22	100.88
479.439	92.88
479.658	81.88
479.876	87.88
480.095	77.88
480.313	96.88
480.532	96.88
480.751	87.88
480.969	96.88
481.188	95.88
481.406	104.88
481.624	100.88
481.843	87.88
482.061	83.88
482.28	77.88
482.498	90.88
482.717	97.88
482.935	100.88
483.153	98.88
483.372	95.88
483.59	83.88
483.808	85.88
484.027	88.88
484.245	79.88
484.463	94.88
484.681	107.88
484.9	90.88
485.118	87.88
485.336	101.88
485.554	82.88
485.772	95.88
485.99	89.88
486.209	92.88
486.427	97.88
486.645	106.88
486.863	78.88
487.081	95.88
487.299	92.88
487.517	85.88
487.735	102.88
487.953	110.88
488.171	95.88
488.389	93.88
488.607	82.88
488.825	76.88
489.043	79.88
489.261	92.88
489.479	101.88
489.696	94.88
489.914	100.88
490.132	100.88
490.35	101.88
490.568	102.88
490.786	86.88
491.003	106.88
491.221	92.88
491.439	91.88
491.657	100.88
491.874	105.88
492.092	90.88
492.31	107.88
492.527	81.88
492.745	79.88
492.963	83.88
493.18	94.88
493.398	98.88
493.615	105.88
493.833	82.88
494.05	96.88
494.268	94.88
494.485	90.88
494.703	92.88
494.92	96.88
495.138	81.88
495.355	75.88
495.573	94.88
495.79	95.88
496.008	95.88
496.225	103.88
496.442	97.88
496.66	89.88
496.877	84.88
497.094	88.88
497.312	111.88
497.529	103.88
497.746	88.88
497.963	108.88
498.181	92.88
498.398	96.88
498.615	108.88
498.832	87.88
499.049	97.88
499.267	94.88
499.484	71.88
499.701	86.88
499.918	103.88
500.135	81.88
500.352	90.88
500.569	96.88
500.786	111.88
501.003	95.88
501.22	100.88
501.437	93.88
501.654	93.88
501.871	81.88
502.088	94.88
502.305	91.88
502.522	84.88
502.739	79.88
502.956	91.88
503.172	86.88
503.389	88.88
503.606	105.88
503.823	91.88
504.04	90.88
504.256	100.88
504.473	87.88
504.69	91.88
504.907	95.88
505.123	98.88
505.34	95.88
505.557	90.88
505.773	72.88
505.99	84.88
506.207	99.88
506.423	99.88
506.64	107.88
506.856	96.88
507.073	78.88
507.289	86.88
507.506	81.88
507.722	96.88
507.939	84.88
508.155	86.88
508.372	94.88
508.588	95.88
508.805	94.88
509.021	82.88
509.238	87.88
509.454	93.88
509.67	89.88
509.887	83.88
510.103	113.88
510.319	85.88
510.536	96.88
510.752	91.88
510.968	95.88
511.184	80.88
511.401	90.88
511.617	88.88
511.833	95.88
512.049	97.88
512.265	84.88
512.481	81.88
512.698	73.88
512.914	88.88
513.13	73.88
513.346	84.88
513.562	97.88
513.778	75.88
513.994	96.88
514.21	104.88
514.426	100.88
514.642	84.88
514.858	89.88
515.074	86.88
515.29	97.88
515.506	87.88
515.721	108.88
515.937	86.88
516.153	95.88
516.369	85.88
516.585	90.88
516.801	81.88
517.016	96.88
517.232	81.88
517.448	87.88
517.664	95.88
517.879	88.88
518.095	95.88
518.311	82.88
518.527	86.88
518.742	89.88
518.958	90.88
519.173	93.88
519.389	81.88
519.605	91.88
519.82	88.88
520.036	107.88
520.251	87.88
520.467	85.88
520.682	84.88
520.898	94.88
521.113	91.88
521.329	87.88
521.544	82.88
521.76	89.88
521.975	84.88
522.19	86.88
522.406	99.88
522.621	84.88
522.836	86.88
523.052	88.88
523.267	89.88
523.482	99.88
523.698	92.88
523.913	102.88
524.128	90.88
524.343	94.88
524.559	86.88
524.774	97.88
524.989	107.88
525.204	90.88
525.419	83.88
525.634	88.88
525.849	88.88
526.064	100.88
526.28	104.88
526.495	81.88
526.71	84.88
526.925	84.88
527.14	111.88
527.355	86.88
527.57	92.88
527.785	87.88
527.999	92.88
528.214	74.88
528.429	91.88
528.644	97.88
528.859	87.88
529.074	97.88
529.289	87.88
529.503	97.88
529.718	99.88
529.933	84.88
530.148	98.88
530.363	92.88
530.577	91.88
530.792	93.88
531.007	95.88
531.221	86.88
531.436	95.88
531.651	83.88
531.865	99.88
532.08	96.88
532.295	92.88
532.509	93.88
532.724	95.88
532.938	97.88
533.153	100.88
533.367	100.88
533.582	95.88
533.796	100.88
534.011	93.88
534.225	92.88
534.44	102.88
534.654	92.88
534.868	92.88
535.083	109.88
535.297	104.88
535.511	101.88
535.726	98.88
535.94	100.88
536.154	104.88
536.369	110.88
536.583	103.88
536.797	100.88
537.011	96.88
537.225	92.88
537.44	90.88
537.654	102.88
537.868	90.88
538.082	90.88
538.296	91.88
538.51	84.88
538.724	86.88
538.938	92.88
539.153	102.88
539.367	111.88
539.581	96.88
539.795	99.88
540.009	94.88
540.222	96.88
540.436	85.88
540.65	91.88
540.864	82.88
541.078	83.88
541.292	108.88
541.506	98.88
541.72	89.88
541.934	100.88
542.147	104.88
542.361	85.88
542.575	100.88
542.789	87.88
543.002	80.88
543.216	90.88
543.43	96.88
543.644	100.88
543.857	90.88
544.071	96.88
544.285	94.88
544.498	103.88
544.712	112.88
544.925	91.88
545.139	92.88
545.352	87.88
545.566	88.88
545.779	93.88
545.993	84.88
546.206	96.88
546.42	87.88
546.633	84.88
546.847	99.88
547.06	106.88
547.274	88.88
547.487	90.88
547.7	78.88
547.914	89.88
548.127	93.88
548.34	88.88
548.554	84.88
548.767	88.88
548.98	93.88
549.193	93.88
549.407	99.88
549.62	92.88
549.833	83.88
550.046	76.88
550.259	101.88
550.473	79.88
550.686	98.88
550.899	93.88
551.112	91.88
551.325	93.88
551.538	100.88
551.751	100.88
551.964	93.88
552.177	94.88
552.39	105.88
552.603	101.88
552.816	90.88
553.029	100.88
553.242	94.88
553.455	89.88
553.667	103.88
553.88	105.88
554.093	95.88
554.306	89.88
554.519	92.88
554.732	89.88
554.944	94.88
555.157	93.88
555.37	101.88
555.583	74.88
555.795	88.88
556.008	100.88
556.221	92.88
556.433	88.88
556.646	90.88
556.859	94.88
557.071	97.88
557.284	75.88
557.496	97.88
557.709	90.88
557.921	103.88
558.134	97.88
558.346	97.88
558.559	100.88
558.771	89.88
558.984	91.88
559.196	94.88
559.409	96.88
559.621	102.88
559.833	84.88
560.046	89.88
560.258	81.88
560.47	82.88
560.683	89.88
560.895	95.88
561.107	79.88
561.32	91.88
561.532	96.88
561.744	92.88
561.956	91.88
562.168	91.88
562.381	87.88
562.593	84.88
562.805	97.88
563.017	89.88
563.229	75.88
563.441	93.88
563.653	92.88
563.865	86.88
564.077	83.88
564.289	76.88
564.501	93.88
564.713	96.88
564.925	87.88
565.137	97.88
565.349	93.88
565.561	89.88
565.773	104.88
565.985	88.88
566.197	92.88
566.408	85.88
566.62	88.88
566.832	84.88
567.044	76.88
567.255	91.88
567.467	90.88
567.679	93.88
567.891	94.88
568.102	82.88
568.314	89.88
568.526	91.88
568.737	95.88
568.949	99.88
569.161	73.88
569.372	92.88
569.584	90.88
569.795	87.88
570.007	100.88
570.218	107.88
570.43	85.88
570.641	94.88
570.853	101.88
571.064	96.88
571.276	84.88
571.487	84.88
571.698	92.88
571.91	100.88
572.121	92.88
572.333	95.88
572.544	70.88
572.755	82.88
572.966	90.88
573.178	87.88
573.389	70.88
573.6	115.88
573.811	86.88
574.023	101.88
574.234	92.88
574.445	88.88
574.656	95.88
574.867	96.88
575.078	75.88
575.289	92.88
575.501	88.88
575.712	87.88
575.923	84.88
576.134	79.88
576.345	84.88
576.556	86.88
576.767	97.88
576.978	87.88
577.188	92.88
577.399	104.88
577.61	93.88
577.821	80.88
578.032	88.88
578.243	87.88
578.454	98.88
578.665	108.88
578.875	121.88
579.086	102.88
579.297	93.88
579.508	106.88
579.718	91.88
579.929	96.88
580.14	95.88
580.35	128.88
580.561	112.88
580.772	103.88
580.982	113.88
581.193	106.88
581.403	92.88
581.614	106.88
581.825	98.88
582.035	100.88
582.246	97.88
582.456	102.88
582.667	95.88
582.877	108.88
583.087	108.88
583.298	101.88
583.508	100.88
583.719	100.88
583.929	102.88
584.139	110.88
584.35	111.88
584.56	93.88
584.77	97.88
584.981	91.88
585.191	97.88
585.401	101.88
585.611	95.88
585.821	92.88
586.032	91.88
586.242	96.88
586.452	81.88
586.662	95.88
586.872	91.88
587.082	81.88
587.292	90.88
587.502	84.88
587.713	98.88
587.923	97.88
588.133	96.88
588.343	90.88
588.553	88.88
588.762	97.88
588.972	150.88
589.182	256.88
589.392	168.88
589.602	164.88
589.812	222.88
590.022	145.88
590.232	97.88
590.441	103.88
590.651	74.88
590.861	97.88
591.071	104.88
591.281	102.88
591.49	95.88
591.7	84.88
591.91	88.88
592.119	88.88
592.329	90.88
592.539	81.88
592.748	94.88
592.958	98.88
593.167	84.88
593.377	88.88
593.587	93.88
593.796	80.88
594.006	84.88
594.215	94.88
594.424	96.88
594.634	86.88
594.843	106.88
595.053	108.88
595.262	98.88
595.472	97.88
595.681	89.88
595.89	95.88
596.1	85.88
596.309	94.88
596.518	80.88
596.727	69.88
596.937	73.88
597.146	93.88
597.355	90.88
597.564	97.88
597.774	90.88
597.983	76.88
598.192	73.88
598.401	98.88
598.61	82.88
598.819	90.88
599.028	89.88
599.237	82.88
599.446	103.88
599.655	84.88
599.864	93.88
600.073	81.88
600.282	90.88
600.491	86.88
600.7	97.88
600.909	87.88
601.118	75.88
601.327	81.88
601.536	91.88
601.745	89.88
601.953	97.88
602.162	104.88
602.371	88.88
602.58	80.88
602.789	90.88
602.997	93.88
603.206	100.88
603.415	97.88
603.623	85.88
603.832	81.88
604.041	101.88
604.249	92.88
604.458	99.88
604.666	85.88
604.875	73.88
605.084	81.88
605.292	84.88
605.501	89.88
605.709	90.88
605.918	97.88
606.126	77.88
606.334	93.88
606.543	90.88
606.751	104.88
606.96	110.88
607.168	90.88
607.376	89.88
607.585	90.88
607.793	96.88
608.001	85.88
608.21	82.88
608.418	94.88
608.626	86.88
608.834	96.88
609.043	93.88
609.251	91.88
609.459	78.88
609.667	86.88
609.875	102.88
610.083	90.88
610.291	85.88
610.499	96.88
610.707	82.88
610.916	83.88
611.124	100.88
611.332	85.88
611.54	96.88
611.748	88.88
611.955	75.88
612.163	93.88
612.371	95.88
612.579	81.88
612.787	97.88
612.995	79.88
613.203	89.88
613.411	86.88
613.618	93.88
613.826	88.88
614.034	80.88
614.242	104.88
614.449	72.88
614.657	85.88
614.865	85.88
615.072	85.88
615.28	104.88
615.488	88.88
615.695	84.88
615.903	93.88
616.111	108.88
616.318	103.88
616.526	88.88
616.733	102.88
616.941	86.88
617.148	87.88
617.356	94.88
617.563	90.88
617.771	87.88
617.978	80.88
618.185	73.88
618.393	101.88
618.6	86.88
618.807	91.88
619.015	97.88
619.222	86.88
619.429	94.88
619.637	85.88
619.844	97.88
620.051	90.88
620.258	88.88
620.466	86.88
620.673	86.88
620.88	73.88
621.087	102.88
621.294	88.88
621.501	83.88
621.708	80.88
621.915	79.88
622.122	81.88
622.329	87.88
622.536	88.88
622.743	89.88
622.95	95.88
623.157	80.88
623.364	92.88
623.571	103.88
623.778	90.88
623.985	96.88
624.192	82.88
624.399	90.88
624.606	100.88
624.812	87.88
625.019	89.88
625.226	85.88
625.433	90.88
625.639	100.88
625.846	96.88
626.053	85.88
626.259	102.88
626.466	85.88
626.673	87.88
626.879	87.88
627.086	93.88
627.293	85.88
627.499	91.88
627.706	85.88
627.912	90.88
628.119	77.88
628.325	107.88
628.532	86.88
628.738	97.88
628.945	74.88
629.151	81.88
629.357	89.88
629.564	82.88
629.77	91.88
629.976	95.88
630.183	92.88
630.389	86.88
630.595	92.88
630.802	91.88
631.008	79.88
631.214	90.88
631.42	86.88
631.627	96.88
631.833	89.88
632.039	88.88
632.245	94.88
632.451	86.88
632.657	98.88
632.863	87.88
633.069	77.88
633.275	93.88
633.481	100.88
633.688	87.88
633.893	79.88
634.099	83.88
634.305	81.88
634.511	96.88
634.717	96.88
634.923	93.88
635.129	98.88
635.335	101.88
635.541	82.88
635.747	83.88
635.952	94.88
636.158	104.88
636.364	88.88
636.57	79.88
636.775	92.88
636.981	84.88
637.187	81.88
637.392	83.88
637.598	82.88
637.804	79.88
638.009	77.88
638.215	93.88
638.421	93.88
638.626	73.88
638.832	90.88
639.037	86.88
639.243	96.88
639.448	100.88
639.654	85.88
639.859	83.88
640.065	77.88
640.27	85.88
640.475	76.88
640.681	87.88
640.886	70.88
641.091	87.88
641.297	86.88
641.502	81.88
641.707	89.88
641.913	90.88
642.118	95.88
642.323	86.88
642.528	99.88
642.733	106.88
642.939	97.88
643.144	102.88
643.349	100.88
643.554	89.88
643.759	82.88
643.964	95.88
644.169	105.88
644.374	79.88
644.579	98.88
644.784	94.88
644.989	92.88
645.194	100.88
645.399	97.88
645.604	88.88
645.809	86.88
646.014	86.88
646.219	97.88
646.423	92.88
646.628	94.88
646.833	100.88
647.038	91.88
647.243	95.88
647.447	89.88
647.652	90.88
647.857	85.88
648.062	96.88
648.266	74.88
648.471	106.88
648.676	85.88
648.88	74.88
649.085	85.88
649.289	80.88
649.494	81.88
649.698	92.88
649.903	79.88
650.107	90.88
650.312	89.88
650.516	77.88
650.721	77.88
650.925	87.88
651.13	91.88
651.334	89.88
651.539	80.88
651.743	87.88
651.947	80.88
652.152	72.88
652.356	86.88
652.56	83.88
652.764	75.88
652.969	85.88
653.173	86.88
653.377	79.88
653.581	76.88
653.785	89.88
653.99	88.88
654.194	77.88
654.398	88.88
654.602	84.88
654.806	91.88
655.01	90.88
655.214	81.88
655.418	71.88
655.622	79.88
655.826	91.88
656.03	90.88
656.234	91.88
656.438	90.88
656.642	82.88
656.846	90.88
657.049	89.88
657.253	92.88
657.457	84.88
657.661	92.88
657.865	92.88
658.068	82.88
658.272	80.88
658.476	81.88
658.68	105.88
658.883	77.88
659.087	90.88
659.291	96.88
659.494	103.88
659.698	88.88
659.901	92.88
660.105	97.88
660.309	90.88
660.512	74.88
660.716	99.88
660.919	83.88
661.123	87.88
661.326	73.88
661.53	92.88
661.733	100.88
661.936	86.88
662.14	93.88
662.343	94.88
662.546	87.88
662.75	94.88
662.953	101.88
663.156	86.88
663.36	84.88
663.563	73.88
663.766	79.88
663.969	87.88
664.173	90.88
664.376	80.88
664.579	86.88
664.782	88.88
664.985	84.88
665.188	87.88
665.391	75.88
665.594	80.88
665.797	90.88
666	72.88
666.203	72.88
666.406	81.88
666.609	77.88
666.812	85.88
667.015	84.88
667.218	81.88
667.421	92.88
667.624	90.88
667.827	91.88
668.03	93.88
668.232	78.88
668.435	86.88
668.638	90.88
668.841	90.88
669.043	92.88
669.246	93.88
669.449	98.88
669.651	88.88
669.854	85.88
670.057	97.88
670.259	78.88
670.462	74.88
670.665	66.88
670.867	60.88
671.07	86.88
671.272	100.88
671.475	77.88
671.677	91.88
671.88	85.88
672.082	80.88
672.284	94.88
672.487	102.88
672.689	93.88
672.892	69.88
