Data from Uncirc_2007_H10_HRD10591_00005.txt Node
Date: Wed Jan 03 10:20:43 EST 2024
User: Yrep
Spectrometer: HR+D1059
Trigger mode: 1
Integration Time (sec): 1.000000E-1
Scans to average: 1
Electric dark correction enabled: true
Nonlinearity correction enabled: false
Boxcar width: 0
XAxis mode: Wavelengths
Number of Pixels in Spectrum: 2048
>>>>>Begin Spectral Data<<<<<
223.165	-26.94
223.4	-26.94
223.635	-26.94
223.869	-9.94
224.104	-20.94
224.338	-14.94
224.573	-10.94
224.808	-2.94
225.042	-9.94
225.277	-3.94
225.511	0.06
225.746	2.06
225.98	8.06
226.215	2.06
226.449	19.06
226.683	18.06
226.918	30.06
227.152	21.06
227.387	36.06
227.621	46.06
227.856	53.06
228.09	51.06
228.324	41.06
228.559	63.06
228.793	166.06
229.027	450.06
229.262	536.06
229.496	619.06
229.73	848.06
229.964	872.06
230.199	579.06
230.433	499.06
230.667	474.06
230.901	472.06
231.136	433.06
231.37	475.06
231.604	453.06
231.838	480.06
232.072	478.06
232.306	475.06
232.541	476.06
232.775	480.06
233.009	462.06
233.243	486.06
233.477	489.06
233.711	495.06
233.945	517.06
234.179	530.06
234.413	526.06
234.647	521.06
234.881	521.06
235.115	528.06
235.349	563.06
235.583	572.06
235.817	604.06
236.051	628.06
236.285	602.06
236.519	625.06
236.753	713.06
236.987	956.06
237.221	1419.06
237.455	1582.06
237.689	954.06
237.922	753.06
238.156	739.06
238.39	674.06
238.624	672.06
238.858	646.06
239.091	666.06
239.325	661.06
239.559	682.06
239.793	703.06
240.027	766.06
240.26	930.06
240.494	990.06
240.728	1000.06
240.961	913.06
241.195	846.06
241.429	793.06
241.662	781.06
241.896	788.06
242.13	782.06
242.363	773.06
242.597	796.06
242.83	845.06
243.064	842.06
243.298	849.06
243.531	842.06
243.765	856.06
243.998	867.06
244.232	854.06
244.465	877.06
244.699	946.06
244.932	927.06
245.166	925.06
245.399	962.06
245.633	925.06
245.866	935.06
246.099	933.06
246.333	936.06
246.566	1001.06
246.8	989.06
247.033	994.06
247.266	1090.06
247.5	1120.06
247.733	1217.06
247.966	1176.06
248.2	1170.06
248.433	1196.06
248.666	1269.06
248.899	1402.06
249.133	1506.06
249.366	1468.06
249.599	1346.06
249.832	1247.06
250.066	1189.06
250.299	1252.06
250.532	1393.06
250.765	1558.06
250.998	1722.06
251.231	1668.06
251.465	1566.06
251.698	1462.06
251.931	1427.06
252.164	1426.06
252.397	1469.06
252.63	1517.06
252.863	1584.06
253.096	1717.06
253.329	1827.06
253.562	1709.06
253.795	1613.06
254.028	1556.06
254.261	1646.06
254.494	1897.06
254.727	2261.06
254.96	2314.06
255.193	2009.06
255.426	1807.06
255.659	1672.06
255.892	1588.06
256.124	1572.06
256.357	1545.06
256.59	1490.06
256.823	1530.06
257.056	1499.06
257.289	1537.06
257.521	1587.06
257.754	1580.06
257.987	1540.06
258.22	1548.06
258.452	1568.06
258.685	1563.06
258.918	1577.06
259.151	1680.06
259.383	1732.06
259.616	1732.06
259.849	1837.06
260.081	1948.06
260.314	2176.06
260.547	2079.06
260.779	1903.06
261.012	1815.06
261.244	1742.06
261.477	1733.06
261.71	1736.06
261.942	1763.06
262.175	1806.06
262.407	1712.06
262.64	1659.06
262.872	1660.06
263.105	1688.06
263.337	1661.06
263.57	1676.06
263.802	1709.06
264.035	1676.06
264.267	1704.06
264.499	1714.06
264.732	1705.06
264.964	1721.06
265.197	1737.06
265.429	1762.06
265.661	1733.06
265.894	1738.06
266.126	1736.06
266.358	1763.06
266.591	1801.06
266.823	1915.06
267.055	1932.06
267.287	1901.06
267.52	1847.06
267.752	1870.06
267.984	1884.06
268.216	1931.06
268.448	1994.06
268.681	2049.06
268.913	2211.06
269.145	2395.06
269.377	2444.06
269.609	2370.06
269.841	2311.06
270.073	2453.06
270.306	2758.06
270.538	2903.06
270.77	2752.06
271.002	2565.06
271.234	2552.06
271.466	2693.06
271.698	2820.06
271.93	2885.06
272.162	2899.06
272.394	2762.06
272.626	2568.06
272.858	2469.06
273.09	2370.06
273.322	2293.06
273.553	2279.06
273.785	2323.06
274.017	2257.06
274.249	2321.06
274.481	2354.06
274.713	2314.06
274.945	2327.06
275.176	2320.06
275.408	2302.06
275.64	2313.06
275.872	2286.06
276.104	2308.06
276.335	2354.06
276.567	2454.06
276.799	2612.06
277.031	2843.06
277.262	2968.06
277.494	2844.06
277.726	2614.06
277.957	2547.06
278.189	2466.06
278.421	2428.06
278.652	2431.06
278.884	2438.06
279.115	2395.06
279.347	2418.06
279.579	2374.06
279.81	2415.06
280.042	2414.06
280.273	2464.06
280.505	2427.06
280.736	2442.06
280.968	2467.06
281.199	2462.06
281.431	2504.06
281.662	2543.06
281.894	2509.06
282.125	2565.06
282.356	2753.06
282.588	2895.06
282.819	2692.06
283.051	2564.06
283.282	2542.06
283.513	2643.06
283.745	2675.06
283.976	2686.06
284.207	2743.06
284.439	2681.06
284.67	2715.06
284.901	2646.06
285.132	2720.06
285.364	2652.06
285.595	2669.06
285.826	2705.06
286.057	2686.06
286.288	2746.06
286.52	2741.06
286.751	2746.06
286.982	2774.06
287.213	2756.06
287.444	2824.06
287.675	2855.06
287.906	2973.06
288.138	2997.06
288.369	2994.06
288.6	3005.06
288.831	2896.06
289.062	2882.06
289.293	2857.06
289.524	2923.06
289.755	2821.06
289.986	2832.06
290.217	2839.06
290.448	2849.06
290.679	2927.06
290.91	2838.06
291.141	2828.06
291.371	2895.06
291.602	2889.06
291.833	2868.06
292.064	2868.06
292.295	2883.06
292.526	2861.06
292.757	2892.06
292.987	2891.06
293.218	2838.06
293.449	2909.06
293.68	2867.06
293.91	2867.06
294.141	2881.06
294.372	2867.06
294.603	2935.06
294.833	2922.06
295.064	2948.06
295.295	2928.06
295.525	2963.06
295.756	3016.06
295.987	3091.06
296.217	3252.06
296.448	3155.06
296.679	3007.06
296.909	2987.06
297.14	3020.06
297.37	3076.06
297.601	3141.06
297.831	3081.06
298.062	3097.06
298.292	3122.06
298.523	3201.06
298.753	3197.06
298.984	3154.06
299.214	3154.06
299.445	3178.06
299.675	3183.06
299.905	3224.06
300.136	3172.06
300.366	3240.06
300.597	3249.06
300.827	3322.06
301.057	3422.06
301.288	3461.06
301.518	3445.06
301.748	3405.06
301.979	3528.06
302.209	3482.06
302.439	3461.06
302.669	3481.06
302.9	3394.06
303.13	3351.06
303.36	3414.06
303.59	3385.06
303.82	3460.06
304.051	3435.06
304.281	3403.06
304.511	3364.06
304.741	3339.06
304.971	3362.06
305.201	3373.06
305.431	3379.06
305.661	3385.06
305.891	3330.06
306.121	3357.06
306.352	3365.06
306.582	3403.06
306.812	3313.06
307.042	3368.06
307.272	3361.06
307.502	3352.06
307.731	3356.06
307.961	3364.06
308.191	3301.06
308.421	3321.06
308.651	3426.06
308.881	3392.06
309.111	3463.06
309.341	3447.06
309.571	3534.06
309.8	3636.06
310.03	3614.06
310.26	3691.06
310.49	3635.06
310.72	3781.06
310.949	3876.06
311.179	3788.06
311.409	3697.06
311.639	3728.06
311.868	3761.06
312.098	3814.06
312.328	3880.06
312.557	4041.06
312.787	4053.06
313.017	3953.06
313.246	3791.06
313.476	3808.06
313.706	3866.06
313.935	3926.06
314.165	4059.06
314.394	4041.06
314.624	4021.06
314.853	3886.06
315.083	3840.06
315.312	3823.06
315.542	3792.06
315.771	3743.06
316.001	3742.06
316.23	3763.06
316.46	3772.06
316.689	3825.06
316.919	3860.06
317.148	3852.06
317.377	3848.06
317.607	3864.06
317.836	3768.06
318.065	3725.06
318.295	3760.06
318.524	3765.06
318.753	3746.06
318.983	3773.06
319.212	3704.06
319.441	3835.06
319.67	3771.06
319.9	3704.06
320.129	3723.06
320.358	3767.06
320.587	3844.06
320.816	3908.06
321.046	3945.06
321.275	3916.06
321.504	3968.06
321.733	3919.06
321.962	4026.06
322.191	4150.06
322.42	4235.06
322.649	4291.06
322.878	4378.06
323.108	4421.06
323.337	4652.06
323.566	4820.06
323.795	5152.06
324.024	5822.06
324.253	7537.06
324.482	11422.06
324.71	15606.06
324.939	15606.06
325.168	13445.06
325.397	6751.06
325.626	5416.06
325.855	4940.06
326.084	4828.06
326.313	4903.06
326.542	5053.06
326.77	5713.06
326.999	7412.06
327.228	10725.06
327.457	14771.06
327.686	14098.06
327.914	7589.06
328.143	6017.06
328.372	5535.06
328.6	5259.06
328.829	5313.06
329.058	5528.06
329.287	5411.06
329.515	5054.06
329.744	4899.06
329.972	4838.06
330.201	4904.06
330.43	5221.06
330.658	5505.06
330.887	5904.06
331.115	5450.06
331.344	5097.06
331.572	4975.06
331.801	5060.06
332.03	5086.06
332.258	5020.06
332.486	5045.06
332.715	5180.06
332.943	5282.06
333.172	5424.06
333.4	5549.06
333.629	5632.06
333.857	5715.06
334.085	5631.06
334.314	5426.06
334.542	5434.06
334.771	5395.06
334.999	5339.06
335.227	5244.06
335.455	5198.06
335.684	5101.06
335.912	5078.06
336.14	5041.06
336.369	5060.06
336.597	5170.06
336.825	5105.06
337.053	5005.06
337.281	4884.06
337.51	4828.06
337.738	4812.06
337.966	4795.06
338.194	4783.06
338.422	4762.06
338.65	4691.06
338.878	4670.06
339.106	4632.06
339.334	4587.06
339.562	4520.06
339.79	4502.06
340.018	4540.06
340.246	4533.06
340.474	4527.06
340.702	4488.06
340.93	4544.06
341.158	4531.06
341.386	4514.06
341.614	4563.06
341.842	4466.06
342.07	4459.06
342.298	4440.06
342.526	4472.06
342.754	4420.06
342.981	4346.06
343.209	4546.06
343.437	4787.06
343.665	5027.06
343.893	5251.06
344.12	5250.06
344.348	5114.06
344.576	4902.06
344.804	4867.06
345.031	4718.06
345.259	4665.06
345.487	4510.06
345.714	4447.06
345.942	4402.06
346.17	4286.06
346.397	4265.06
346.625	4368.06
346.853	4300.06
347.08	4321.06
347.308	4365.06
347.535	4432.06
347.763	4452.06
347.99	4360.06
348.218	4402.06
348.445	4439.06
348.673	4341.06
348.9	4280.06
349.128	4214.06
349.355	4237.06
349.583	4166.06
349.81	4183.06
350.037	4105.06
350.265	4127.06
350.492	4181.06
350.72	4170.06
350.947	4254.06
351.174	4283.06
351.402	4286.06
351.629	4305.06
351.856	4256.06
352.083	4393.06
352.311	4344.06
352.538	4290.06
352.765	4288.06
352.992	4213.06
353.22	4242.06
353.447	4191.06
353.674	4124.06
353.901	4084.06
354.128	4074.06
354.355	4075.06
354.583	4086.06
354.81	4056.06
355.037	4021.06
355.264	4070.06
355.491	4036.06
355.718	4034.06
355.945	4042.06
356.172	4027.06
356.399	4028.06
356.626	3999.06
356.853	4118.06
357.08	4098.06
357.307	4040.06
357.534	4092.06
357.761	4061.06
357.988	4050.06
358.215	4066.06
358.441	4103.06
358.668	4085.06
358.895	4178.06
359.122	4220.06
359.349	4277.06
359.576	4421.06
359.802	4550.06
360.029	4777.06
360.256	4695.06
360.483	4541.06
360.709	4334.06
360.936	4269.06
361.163	4290.06
361.39	4341.06
361.616	4314.06
361.843	4264.06
362.07	4316.06
362.296	4320.06
362.523	4281.06
362.749	4278.06
362.976	4206.06
363.203	4140.06
363.429	4147.06
363.656	4126.06
363.882	4160.06
364.109	4172.06
364.335	4082.06
364.562	4160.06
364.788	4100.06
365.015	4170.06
365.241	4219.06
365.468	4190.06
365.694	4257.06
365.92	4192.06
366.147	4192.06
366.373	4176.06
366.599	4127.06
366.826	4081.06
367.052	4055.06
367.278	4110.06
367.505	4144.06
367.731	4218.06
367.957	4130.06
368.184	4206.06
368.41	4338.06
368.636	4395.06
368.862	4364.06
369.089	4335.06
369.315	4218.06
369.541	4248.06
369.767	4226.06
369.993	4262.06
370.219	4273.06
370.445	4276.06
370.672	4326.06
370.898	4360.06
371.124	4384.06
371.35	4421.06
371.576	4429.06
371.802	4403.06
372.028	4350.06
372.254	4413.06
372.48	4488.06
372.706	4551.06
372.932	4607.06
373.158	4508.06
373.384	4522.06
373.61	4385.06
373.835	4391.06
374.061	4447.06
374.287	4564.06
374.513	4614.06
374.739	4707.06
374.965	4863.06
375.191	4829.06
375.416	4747.06
375.642	4649.06
375.868	4590.06
376.094	4501.06
376.319	4450.06
376.545	4490.06
376.771	4433.06
376.997	4463.06
377.222	4491.06
377.448	4373.06
377.674	4377.06
377.899	4390.06
378.125	4417.06
378.35	4374.06
378.576	4376.06
378.802	4351.06
379.027	4368.06
379.253	4424.06
379.478	4365.06
379.704	4358.06
379.929	4408.06
380.155	4412.06
380.38	4419.06
380.606	4504.06
380.831	4423.06
381.057	4413.06
381.282	4485.06
381.507	4415.06
381.733	4516.06
381.958	4544.06
382.184	4557.06
382.409	4656.06
382.634	4628.06
382.86	4650.06
383.085	4753.06
383.31	4828.06
383.535	4794.06
383.761	4844.06
383.986	5018.06
384.211	5120.06
384.436	5156.06
384.662	5169.06
384.887	5245.06
385.112	5324.06
385.337	5318.06
385.562	5387.06
385.787	5398.06
386.013	5413.06
386.238	5430.06
386.463	5450.06
386.688	5389.06
386.913	5257.06
387.138	5289.06
387.363	5281.06
387.588	5184.06
387.813	5241.06
388.038	5292.06
388.263	5342.06
388.488	5341.06
388.713	5277.06
388.938	5260.06
389.163	5250.06
389.387	5250.06
389.612	5180.06
389.837	5158.06
390.062	5132.06
390.287	5200.06
390.512	5209.06
390.736	5301.06
390.961	5298.06
391.186	5437.06
391.411	5608.06
391.636	5742.06
391.86	5876.06
392.085	5957.06
392.31	5824.06
392.534	5721.06
392.759	5608.06
392.984	5538.06
393.208	5505.06
393.433	5473.06
393.658	5450.06
393.882	5500.06
394.107	5539.06
394.331	5512.06
394.556	5632.06
394.78	5700.06
395.005	5658.06
395.229	5698.06
395.454	5845.06
395.678	5991.06
395.903	5965.06
396.127	5989.06
396.352	5831.06
396.576	5611.06
396.801	5624.06
397.025	5714.06
397.249	5809.06
397.474	5900.06
397.698	5884.06
397.922	6099.06
398.147	6260.06
398.371	6331.06
398.595	6477.06
398.82	6664.06
399.044	7219.06
399.268	8065.06
399.492	9155.06
399.717	9862.06
399.941	9616.06
400.165	8982.06
400.389	8308.06
400.613	7468.06
400.837	7027.06
401.062	6844.06
401.286	6730.06
401.51	6648.06
401.734	6664.06
401.958	6850.06
402.182	6896.06
402.406	7054.06
402.63	7044.06
402.854	7162.06
403.078	7258.06
403.302	7350.06
403.526	7509.06
403.75	7533.06
403.974	7519.06
404.198	7616.06
404.422	7660.06
404.645	7495.06
404.869	7416.06
405.093	7565.06
405.317	7680.06
405.541	7649.06
405.765	7390.06
405.988	7398.06
406.212	7624.06
406.436	7850.06
406.66	7984.06
406.883	7938.06
407.107	8717.06
407.331	9049.06
407.555	9674.06
407.778	9279.06
408.002	8454.06
408.226	8105.06
408.449	8002.06
408.673	7893.06
408.896	8012.06
409.12	8197.06
409.344	7784.06
409.567	7391.06
409.791	7334.06
410.014	7229.06
410.238	7033.06
410.461	7201.06
410.685	7235.06
410.908	7355.06
411.132	7552.06
411.355	7553.06
411.578	7243.06
411.802	6924.06
412.025	6936.06
412.249	6896.06
412.472	6883.06
412.695	6750.06
412.919	6608.06
413.142	6618.06
413.365	6519.06
413.589	6643.06
413.812	6473.06
414.035	6458.06
414.258	6493.06
414.482	6450.06
414.705	6662.06
414.928	6545.06
415.151	6472.06
415.374	6525.06
415.597	6501.06
415.821	6405.06
416.044	6407.06
416.267	6432.06
416.49	6405.06
416.713	6401.06
416.936	6473.06
417.159	6509.06
417.382	6523.06
417.605	6474.06
417.828	6667.06
418.051	6837.06
418.274	6738.06
418.497	6586.06
418.72	6744.06
418.943	6598.06
419.166	7115.06
419.389	7422.06
419.611	7251.06
419.834	7109.06
420.057	6965.06
420.28	6804.06
420.503	6547.06
420.726	6648.06
420.948	6853.06
421.171	7291.06
421.394	7236.06
421.617	6767.06
421.839	6632.06
422.062	6778.06
422.285	6919.06
422.507	7772.06
422.73	8224.06
422.953	7538.06
423.175	7192.06
423.398	7198.06
423.621	7125.06
423.843	7432.06
424.066	7413.06
424.288	7335.06
424.511	7630.06
424.733	7994.06
424.956	8493.06
425.178	8024.06
425.401	8248.06
425.623	8037.06
425.846	7066.06
426.068	6874.06
426.291	6738.06
426.513	6728.06
426.735	6897.06
426.958	7401.06
427.18	8142.06
427.402	9342.06
427.625	9378.06
427.847	7896.06
428.069	6896.06
428.292	6612.06
428.514	6234.06
428.736	6264.06
428.958	6173.06
429.181	5977.06
429.403	5938.06
429.625	6194.06
429.847	6503.06
430.069	7141.06
430.292	6570.06
430.514	6058.06
430.736	6039.06
430.958	5969.06
431.18	5874.06
431.402	5875.06
431.624	5829.06
431.846	5883.06
432.068	5940.06
432.29	5980.06
432.512	5908.06
432.734	5944.06
432.956	5912.06
433.178	5979.06
433.4	5973.06
433.622	5799.06
433.844	5950.06
434.066	5969.06
434.287	6047.06
434.509	6277.06
434.731	6490.06
434.953	6753.06
435.175	6766.06
435.397	6912.06
435.618	6868.06
435.84	7236.06
436.062	8104.06
436.284	8096.06
436.505	6842.06
436.727	6436.06
436.949	6120.06
437.17	6037.06
437.392	6036.06
437.614	6180.06
437.835	6590.06
438.057	7584.06
438.278	8206.06
438.5	8176.06
438.721	9070.06
438.943	7931.06
439.165	6642.06
439.386	6426.06
439.608	6513.06
439.829	6590.06
440.05	6959.06
440.272	7310.06
440.493	6666.06
440.715	6436.06
440.936	6282.06
441.158	6294.06
441.379	6441.06
441.6	6799.06
441.822	7101.06
442.043	7477.06
442.264	8445.06
442.486	8011.06
442.707	7200.06
442.928	7002.06
443.149	7187.06
443.371	7409.06
443.592	7979.06
443.813	8974.06
444.034	8853.06
444.255	7734.06
444.476	7608.06
444.698	7680.06
444.919	7867.06
445.14	7639.06
445.361	7460.06
445.582	7649.06
445.803	8323.06
446.024	8994.06
446.245	8685.06
446.466	7734.06
446.687	6676.06
446.908	6396.06
447.129	6012.06
447.35	5895.06
447.571	5889.06
447.792	5699.06
448.013	5845.06
448.234	6099.06
448.455	6726.06
448.675	8021.06
448.896	8506.06
449.117	6969.06
449.338	7169.06
449.559	8541.06
449.779	8736.06
450	6715.06
450.221	6017.06
450.442	5646.06
450.662	5650.06
450.883	5706.06
451.104	5870.06
451.324	5765.06
451.545	5547.06
451.766	5373.06
451.986	5322.06
452.207	5220.06
452.428	5186.06
452.648	5163.06
452.869	5319.06
453.089	5320.06
453.31	5494.06
453.53	5275.06
453.751	5108.06
453.971	5217.06
454.192	5300.06
454.412	5174.06
454.633	5061.06
454.853	5103.06
455.073	5185.06
455.294	5627.06
455.514	6127.06
455.734	5556.06
455.955	5042.06
456.175	4916.06
456.395	4812.06
456.616	4757.06
456.836	4792.06
457.056	4783.06
457.276	4704.06
457.497	4868.06
457.717	4892.06
457.937	4923.06
458.157	4994.06
458.377	5086.06
458.598	5484.06
458.818	6247.06
459.038	7087.06
459.258	6970.06
459.478	6160.06
459.698	5959.06
459.918	6044.06
460.138	6206.06
460.358	6460.06
460.578	6394.06
460.798	6575.06
461.018	6572.06
461.238	6456.06
461.458	6380.06
461.678	6350.06
461.898	6485.06
462.118	6578.06
462.338	6859.06
462.558	6992.06
462.777	7299.06
462.997	8010.06
463.217	8318.06
463.437	8126.06
463.657	7513.06
463.876	7316.06
464.096	7387.06
464.316	7364.06
464.536	7404.06
464.755	7123.06
464.975	7036.06
465.195	7218.06
465.414	7232.06
465.634	6481.06
465.854	6080.06
466.073	5874.06
466.293	5647.06
466.512	5426.06
466.732	5280.06
466.951	5422.06
467.171	5422.06
467.391	5480.06
467.61	5520.06
467.829	5416.06
468.049	5362.06
468.268	5200.06
468.488	5122.06
468.707	5029.06
468.927	5128.06
469.146	5130.06
469.365	5151.06
469.585	5215.06
469.804	5387.06
470.023	5658.06
470.243	5624.06
470.462	5724.06
470.681	5770.06
470.901	5624.06
471.12	5549.06
471.339	5442.06
471.558	5437.06
471.777	5271.06
471.997	5231.06
472.216	5134.06
472.435	5111.06
472.654	5038.06
472.873	5052.06
473.092	5085.06
473.311	5089.06
473.53	5029.06
473.749	5230.06
473.968	5828.06
474.187	7002.06
474.406	6484.06
474.625	5493.06
474.844	5224.06
475.063	5207.06
475.282	5109.06
475.501	5219.06
475.72	5298.06
475.939	5297.06
476.158	5288.06
476.377	5312.06
476.596	5322.06
476.814	5416.06
477.033	5521.06
477.252	5557.06
477.471	5609.06
477.69	5777.06
477.908	5958.06
478.127	6093.06
478.346	6146.06
478.564	6285.06
478.783	6313.06
479.002	6435.06
479.22	6560.06
479.439	6581.06
479.658	6687.06
479.876	6757.06
480.095	7036.06
480.313	7357.06
480.532	7229.06
480.751	7119.06
480.969	7001.06
481.188	6792.06
481.406	6619.06
481.624	6454.06
481.843	6226.06
482.061	6152.06
482.28	6123.06
482.498	6027.06
482.717	6036.06
482.935	6029.06
483.153	6028.06
483.372	6064.06
483.59	5984.06
483.808	6024.06
484.027	5991.06
484.245	6118.06
484.463	6164.06
484.681	6186.06
484.9	6234.06
485.118	6227.06
485.336	6368.06
485.554	6419.06
485.772	6536.06
485.99	6486.06
486.209	6453.06
486.427	6569.06
486.645	6571.06
486.863	6664.06
487.081	6547.06
487.299	6461.06
487.517	6482.06
487.735	6414.06
487.953	6464.06
488.171	6490.06
488.389	6479.06
488.607	6472.06
488.825	6489.06
489.043	6460.06
489.261	6504.06
489.479	6642.06
489.696	6606.06
489.914	6689.06
490.132	6706.06
490.35	6780.06
490.568	6842.06
490.786	6954.06
491.003	7050.06
491.221	7179.06
491.439	7205.06
491.657	7273.06
491.874	7330.06
492.092	7421.06
492.31	7421.06
492.527	7371.06
492.745	7458.06
492.963	7476.06
493.18	7589.06
493.398	7668.06
493.615	7799.06
493.833	7872.06
494.05	7820.06
494.268	7752.06
494.485	7677.06
494.703	7716.06
494.92	7736.06
495.138	7630.06
495.355	7793.06
495.573	7793.06
495.79	7767.06
496.008	7774.06
496.225	7805.06
496.442	7788.06
496.66	7829.06
496.877	7856.06
497.094	7962.06
497.312	8122.06
497.529	8288.06
497.746	8586.06
497.963	8712.06
498.181	9232.06
498.398	9405.06
498.615	9790.06
498.832	10312.06
499.049	10768.06
499.267	11478.06
499.484	12231.06
499.701	12909.06
499.918	13642.06
500.135	14427.06
500.352	15034.06
500.569	15054.06
500.786	14963.06
501.003	14520.06
501.22	13992.06
501.437	13264.06
501.654	12469.06
501.871	11883.06
502.088	11139.06
502.305	10380.06
502.522	9970.06
502.739	9645.06
502.956	9164.06
503.172	8885.06
503.389	8662.06
503.606	8495.06
503.823	8474.06
504.04	8285.06
504.256	8440.06
504.473	8574.06
504.69	8598.06
504.907	8389.06
505.123	7934.06
505.34	7793.06
505.557	7499.06
505.773	7486.06
505.99	7386.06
506.207	7377.06
506.423	7316.06
506.64	7102.06
506.856	7015.06
507.073	6956.06
507.289	6983.06
507.506	6957.06
507.722	7066.06
507.939	7057.06
508.155	6827.06
508.372	6722.06
508.588	6602.06
508.805	6632.06
509.021	6719.06
509.238	6867.06
509.454	6890.06
509.67	6724.06
509.887	6581.06
510.103	6484.06
510.319	6584.06
510.536	8041.06
510.752	11749.06
510.968	7904.06
511.184	6344.06
511.401	6230.06
511.617	6128.06
511.833	6137.06
512.049	5972.06
512.265	6061.06
512.481	6073.06
512.698	6045.06
512.914	5998.06
513.13	6012.06
513.346	6091.06
513.562	6069.06
513.778	6090.06
513.994	6152.06
514.21	6253.06
514.426	6442.06
514.642	6727.06
514.858	6978.06
515.074	7315.06
515.29	8824.06
515.506	11826.06
515.721	8521.06
515.937	7145.06
516.153	6863.06
516.369	6878.06
516.585	6950.06
516.801	7105.06
517.016	7248.06
517.232	7512.06
517.448	7684.06
517.664	7759.06
517.879	7785.06
518.095	7769.06
518.311	7561.06
518.527	7336.06
518.742	7073.06
518.958	6891.06
519.173	6660.06
519.389	6583.06
519.605	6422.06
519.82	6399.06
520.036	6467.06
520.251	6588.06
520.467	6655.06
520.682	6586.06
520.898	6622.06
521.113	6728.06
521.329	6966.06
521.544	7682.06
521.76	9732.06
521.975	14377.06
522.19	11592.06
522.406	7298.06
522.621	6355.06
522.836	5923.06
523.052	5754.06
523.267	5560.06
523.482	5476.06
523.698	5428.06
523.913	5404.06
524.128	5379.06
524.343	5254.06
524.559	5165.06
524.774	5088.06
524.989	5112.06
525.204	5233.06
525.419	5156.06
525.634	5146.06
525.849	5078.06
526.064	5042.06
526.28	4956.06
526.495	4901.06
526.71	4922.06
526.925	4847.06
527.14	4926.06
527.355	4899.06
527.57	4938.06
527.785	4884.06
527.999	4855.06
528.214	4846.06
528.429	4932.06
528.644	4876.06
528.859	4895.06
529.074	4909.06
529.289	5191.06
529.503	5723.06
529.718	5305.06
529.933	5049.06
530.148	4996.06
530.363	4910.06
530.577	4917.06
530.792	4877.06
531.007	4828.06
531.221	4887.06
531.436	4900.06
531.651	4886.06
531.865	4779.06
532.08	4779.06
532.295	4776.06
532.509	4800.06
532.724	4789.06
532.938	4800.06
533.153	4816.06
533.367	4834.06
533.582	4803.06
533.796	4692.06
534.011	4724.06
534.225	4602.06
534.44	4657.06
534.654	4624.06
534.868	4708.06
535.083	4656.06
535.297	4680.06
535.511	4723.06
535.726	4703.06
535.94	4710.06
536.154	4618.06
536.369	4499.06
536.583	4508.06
536.797	4493.06
537.011	4493.06
537.225	4458.06
537.44	4510.06
537.654	4465.06
537.868	4517.06
538.082	4512.06
538.296	4491.06
538.51	4493.06
538.724	4441.06
538.938	4464.06
539.153	4427.06
539.367	4492.06
539.581	4420.06
539.795	4355.06
540.009	4310.06
540.222	4403.06
540.436	4386.06
540.65	4384.06
540.864	4442.06
541.078	4436.06
541.292	4349.06
541.506	4339.06
541.72	4296.06
541.934	4224.06
542.147	4240.06
542.361	4189.06
542.575	4195.06
542.789	4250.06
543.002	4230.06
543.216	4299.06
543.43	4351.06
543.644	4280.06
543.857	4276.06
544.071	4300.06
544.285	4258.06
544.498	4221.06
544.712	4286.06
544.925	4369.06
545.139	4365.06
545.352	4257.06
545.566	4281.06
545.779	4292.06
545.993	4270.06
546.206	4284.06
546.42	4260.06
546.633	4244.06
546.847	4210.06
547.06	4235.06
547.274	4162.06
547.487	4137.06
547.7	4258.06
547.914	4219.06
548.127	4282.06
548.34	4244.06
548.554	4240.06
548.767	4303.06
548.98	4278.06
549.193	4271.06
549.407	4259.06
549.62	4360.06
549.833	4386.06
550.046	4348.06
550.259	4256.06
550.473	4168.06
550.686	4113.06
550.899	4130.06
551.112	4092.06
551.325	4108.06
551.538	4177.06
551.751	4139.06
551.964	4104.06
552.177	4193.06
552.39	4285.06
552.603	4384.06
552.816	4465.06
553.029	4531.06
553.242	4569.06
553.455	4652.06
553.667	4734.06
553.88	4588.06
554.093	4508.06
554.306	4496.06
554.519	4319.06
554.732	4218.06
554.944	4108.06
555.157	4094.06
555.37	3952.06
555.583	3866.06
555.795	3853.06
556.008	3769.06
556.221	3752.06
556.433	3778.06
556.646	3643.06
556.859	3604.06
557.071	3592.06
557.284	3533.06
557.496	3608.06
557.709	3546.06
557.921	3470.06
558.134	3500.06
558.346	3506.06
558.559	3452.06
558.771	3401.06
558.984	3422.06
559.196	3413.06
559.409	3493.06
559.621	3419.06
559.833	3412.06
560.046	3426.06
560.258	3398.06
560.47	3417.06
560.683	3375.06
560.895	3316.06
561.107	3368.06
561.32	3338.06
561.532	3372.06
561.744	3364.06
561.956	3380.06
562.168	3395.06
562.381	3458.06
562.593	3426.06
562.805	3452.06
563.017	3481.06
563.229	3503.06
563.441	3419.06
563.653	3499.06
563.865	3462.06
564.077	3522.06
564.289	3564.06
564.501	3595.06
564.713	3656.06
564.925	3778.06
565.137	3928.06
565.349	3908.06
565.561	4012.06
565.773	4153.06
565.985	4284.06
566.197	4618.06
566.408	4874.06
566.62	5176.06
566.832	5487.06
567.044	5488.06
567.255	5620.06
567.467	5745.06
567.679	5986.06
567.891	6377.06
568.102	6368.06
568.314	5992.06
568.526	5477.06
568.737	5029.06
568.949	4615.06
569.161	4380.06
569.372	4047.06
569.584	3869.06
569.795	3730.06
570.007	3664.06
570.218	3882.06
570.43	3641.06
570.641	3512.06
570.853	3452.06
571.064	3484.06
571.276	3459.06
571.487	3333.06
571.698	3161.06
571.91	3143.06
572.121	3074.06
572.333	2953.06
572.544	2968.06
572.755	2873.06
572.966	2948.06
573.178	2862.06
573.389	2838.06
573.6	2816.06
573.811	2784.06
574.023	2732.06
574.234	2749.06
574.445	2760.06
574.656	2793.06
574.867	2693.06
575.078	2755.06
575.289	2705.06
575.501	2623.06
575.712	2612.06
575.923	2641.06
576.134	2576.06
576.345	2578.06
576.556	2597.06
576.767	2569.06
576.978	2558.06
577.188	2561.06
577.399	2497.06
577.61	2480.06
577.821	2513.06
578.032	2494.06
578.243	2866.06
578.454	4051.06
578.665	2778.06
578.875	2428.06
579.086	2350.06
579.297	2358.06
579.508	2372.06
579.718	2337.06
579.929	2323.06
580.14	2333.06
580.35	2262.06
580.561	2324.06
580.772	2287.06
580.982	2254.06
581.193	2277.06
581.403	2290.06
581.614	2236.06
581.825	2230.06
582.035	2244.06
582.246	2232.06
582.456	2266.06
582.667	2236.06
582.877	2206.06
583.087	2164.06
583.298	2195.06
583.508	2166.06
583.719	2220.06
583.929	2181.06
584.139	2181.06
584.35	2166.06
584.56	2165.06
584.77	2162.06
584.981	2134.06
585.191	2171.06
585.401	2124.06
585.611	2086.06
585.821	2145.06
586.032	2146.06
586.242	2176.06
586.452	2082.06
586.662	2060.06
586.872	2062.06
587.082	2099.06
587.292	2108.06
587.502	2068.06
587.713	2084.06
587.923	2061.06
588.133	2050.06
588.343	2056.06
588.553	2070.06
588.762	2047.06
588.972	2046.06
589.182	2064.06
589.392	2078.06
589.602	2060.06
589.812	2107.06
590.022	2121.06
590.232	2094.06
590.441	2126.06
590.651	2110.06
590.861	2114.06
591.071	2160.06
591.281	2171.06
591.49	2216.06
591.7	2244.06
591.91	2233.06
592.119	2298.06
592.329	2355.06
592.539	2477.06
592.748	2487.06
592.958	2541.06
593.167	2589.06
593.377	2684.06
593.587	2678.06
593.796	2698.06
594.006	2673.06
594.215	2699.06
594.424	2661.06
594.634	2634.06
594.843	2499.06
595.053	2366.06
595.262	2320.06
595.472	2251.06
595.681	2221.06
595.89	2162.06
596.1	2133.06
596.309	2045.06
596.518	2008.06
596.727	1996.06
596.937	1962.06
597.146	1909.06
597.355	1904.06
597.564	1871.06
597.774	1838.06
597.983	1815.06
598.192	1836.06
598.401	1753.06
598.61	1786.06
598.819	1763.06
599.028	1753.06
599.237	1733.06
599.446	1713.06
599.655	1721.06
599.864	1736.06
600.073	1726.06
600.282	1692.06
600.491	1696.06
600.7	1685.06
600.909	1674.06
601.118	1650.06
601.327	1675.06
601.536	1671.06
601.745	1632.06
601.953	1599.06
602.162	1649.06
602.371	1655.06
602.58	1589.06
602.789	1620.06
602.997	1621.06
603.206	1609.06
603.415	1605.06
603.623	1565.06
603.832	1561.06
604.041	1533.06
604.249	1562.06
604.458	1526.06
604.666	1517.06
604.875	1552.06
605.084	1533.06
605.292	1530.06
605.501	1503.06
605.709	1539.06
605.918	1513.06
606.126	1489.06
606.334	1527.06
606.543	1498.06
606.751	1516.06
606.96	1490.06
607.168	1444.06
607.376	1473.06
607.585	1480.06
607.793	1461.06
608.001	1474.06
608.21	1473.06
608.418	1493.06
608.626	1469.06
608.834	1449.06
609.043	1452.06
609.251	1420.06
609.459	1433.06
609.667	1450.06
609.875	1467.06
610.083	1451.06
610.291	1453.06
610.499	1442.06
610.707	1417.06
610.916	1453.06
611.124	1459.06
611.332	1453.06
611.54	1391.06
611.748	1419.06
611.955	1441.06
612.163	1379.06
612.371	1439.06
612.579	1382.06
612.787	1434.06
612.995	1378.06
613.203	1385.06
613.411	1428.06
613.618	1414.06
613.826	1375.06
614.034	1397.06
614.242	1405.06
614.449	1396.06
614.657	1426.06
614.865	1386.06
615.072	1381.06
615.28	1415.06
615.488	1412.06
615.695	1418.06
615.903	1447.06
616.111	1426.06
616.318	1441.06
616.526	1445.06
616.733	1435.06
616.941	1452.06
617.148	1430.06
617.356	1435.06
617.563	1395.06
617.771	1398.06
617.978	1405.06
618.185	1389.06
618.393	1374.06
618.6	1390.06
618.807	1377.06
619.015	1351.06
619.222	1353.06
619.429	1340.06
619.637	1359.06
619.844	1367.06
620.051	1347.06
620.258	1322.06
620.466	1276.06
620.673	1251.06
620.88	1270.06
621.087	1272.06
621.294	1286.06
621.501	1320.06
621.708	1282.06
621.915	1277.06
622.122	1290.06
622.329	1281.06
622.536	1270.06
622.743	1259.06
622.95	1237.06
623.157	1232.06
623.364	1257.06
623.571	1256.06
623.778	1221.06
623.985	1196.06
624.192	1214.06
624.399	1208.06
624.606	1188.06
624.812	1176.06
625.019	1198.06
625.226	1188.06
625.433	1195.06
625.639	1198.06
625.846	1205.06
626.053	1144.06
626.259	1136.06
626.466	1134.06
626.673	1120.06
626.879	1126.06
627.086	1137.06
627.293	1120.06
627.499	1159.06
627.706	1114.06
627.912	1089.06
628.119	1132.06
628.325	1114.06
628.532	1062.06
628.738	1106.06
628.945	1085.06
629.151	1087.06
629.357	1047.06
629.564	1056.06
629.77	1093.06
629.976	1068.06
630.183	1031.06
630.389	1050.06
630.595	1030.06
630.802	1050.06
631.008	1041.06
631.214	1008.06
631.42	1016.06
631.627	993.06
631.833	1032.06
632.039	968.06
632.245	998.06
632.451	979.06
632.657	995.06
632.863	968.06
633.069	982.06
633.275	968.06
633.481	943.06
633.688	971.06
633.893	966.06
634.099	935.06
634.305	936.06
634.511	925.06
634.717	907.06
634.923	938.06
635.129	909.06
635.335	908.06
635.541	896.06
635.747	914.06
635.952	906.06
636.158	881.06
636.364	902.06
636.57	891.06
636.775	882.06
636.981	888.06
637.187	918.06
637.392	885.06
637.598	885.06
637.804	865.06
638.009	896.06
638.215	842.06
638.421	850.06
638.626	864.06
638.832	863.06
639.037	859.06
639.243	855.06
639.448	818.06
639.654	826.06
639.859	821.06
640.065	807.06
640.27	826.06
640.475	844.06
640.681	805.06
640.886	814.06
641.091	822.06
641.297	807.06
641.502	795.06
641.707	826.06
641.913	788.06
642.118	790.06
642.323	798.06
642.528	782.06
642.733	768.06
642.939	770.06
643.144	796.06
643.349	771.06
643.554	771.06
643.759	739.06
643.964	760.06
644.169	753.06
644.374	787.06
644.579	778.06
644.784	765.06
644.989	756.06
645.194	746.06
645.399	734.06
645.604	764.06
645.809	774.06
646.014	761.06
646.219	796.06
646.423	775.06
646.628	760.06
646.833	782.06
647.038	772.06
647.243	770.06
647.447	776.06
647.652	808.06
647.857	802.06
648.062	812.06
648.266	847.06
648.471	878.06
648.676	843.06
648.88	844.06
649.085	843.06
649.289	846.06
649.494	912.06
649.698	1060.06
649.903	900.06
650.107	805.06
650.312	738.06
650.516	715.06
650.721	680.06
650.925	665.06
651.13	637.06
651.334	641.06
651.539	617.06
651.743	597.06
651.947	592.06
652.152	603.06
652.356	563.06
652.56	544.06
652.764	559.06
652.969	572.06
653.173	550.06
653.377	514.06
653.581	538.06
653.785	538.06
653.99	520.06
654.194	501.06
654.398	503.06
654.602	492.06
654.806	525.06
655.01	585.06
655.214	522.06
655.418	491.06
655.622	473.06
655.826	462.06
656.03	463.06
656.234	483.06
656.438	507.06
656.642	498.06
656.846	466.06
657.049	434.06
657.253	398.06
657.457	375.06
657.661	333.06
657.865	337.06
658.068	308.06
658.272	294.06
658.476	270.06
658.68	264.06
658.883	244.06
659.087	242.06
659.291	217.06
659.494	224.06
659.698	203.06
659.901	205.06
660.105	189.06
660.309	180.06
660.512	182.06
660.716	163.06
660.919	159.06
661.123	151.06
661.326	153.06
661.53	153.06
661.733	125.06
661.936	128.06
662.14	114.06
662.343	107.06
662.546	109.06
662.75	100.06
662.953	102.06
663.156	112.06
663.36	111.06
663.563	104.06
663.766	100.06
663.969	98.06
664.173	82.06
664.376	84.06
664.579	90.06
664.782	86.06
664.985	91.06
665.188	99.06
665.391	83.06
665.594	102.06
665.797	82.06
666	70.06
666.203	82.06
666.406	103.06
666.609	82.06
666.812	81.06
667.015	93.06
667.218	81.06
667.421	82.06
667.624	75.06
667.827	86.06
668.03	85.06
668.232	78.06
668.435	97.06
668.638	91.06
668.841	89.06
669.043	73.06
669.246	81.06
669.449	84.06
669.651	75.06
669.854	84.06
670.057	78.06
670.259	65.06
670.462	88.06
670.665	81.06
670.867	83.06
671.07	77.06
671.272	86.06
671.475	80.06
671.677	83.06
671.88	79.06
672.082	85.06
672.284	75.06
672.487	86.06
672.689	90.06
672.892	89.06
