Data from Uncirc_2007_H10_HRD10591_00095.txt Node
Date: Wed Jan 03 10:21:01 EST 2024
User: Yrep
Spectrometer: HR+D1059
Trigger mode: 1
Integration Time (sec): 1.000000E-1
Scans to average: 1
Electric dark correction enabled: true
Nonlinearity correction enabled: false
Boxcar width: 0
XAxis mode: Wavelengths
Number of Pixels in Spectrum: 2048
>>>>>Begin Spectral Data<<<<<
223.165	-19.25
223.4	-19.25
223.635	-19.25
223.869	-15.25
224.104	-26.25
224.338	-16.25
224.573	-9.25
224.808	-18.25
225.042	-19.25
225.277	-16.25
225.511	7.75
225.746	9.75
225.98	9.75
226.215	9.75
226.449	17.75
226.683	19.75
226.918	34.75
227.152	30.75
227.387	30.75
227.621	39.75
227.856	57.75
228.09	42.75
228.324	42.75
228.559	52.75
228.793	59.75
229.027	58.75
229.262	65.75
229.496	79.75
229.73	91.75
229.964	72.75
230.199	72.75
230.433	71.75
230.667	82.75
230.901	60.75
231.136	77.75
231.37	84.75
231.604	91.75
231.838	77.75
232.072	79.75
232.306	85.75
232.541	74.75
232.775	82.75
233.009	74.75
233.243	80.75
233.477	82.75
233.711	93.75
233.945	81.75
234.179	81.75
234.413	93.75
234.647	75.75
234.881	79.75
235.115	80.75
235.349	91.75
235.583	74.75
235.817	79.75
236.051	86.75
236.285	85.75
236.519	72.75
236.753	60.75
236.987	93.75
237.221	71.75
237.455	93.75
237.689	77.75
237.922	88.75
238.156	81.75
238.39	65.75
238.624	81.75
238.858	89.75
239.091	82.75
239.325	79.75
239.559	80.75
239.793	80.75
240.027	86.75
240.26	64.75
240.494	83.75
240.728	86.75
240.961	74.75
241.195	92.75
241.429	85.75
241.662	67.75
241.896	93.75
242.13	91.75
242.363	82.75
242.597	83.75
242.83	83.75
243.064	83.75
243.298	66.75
243.531	84.75
243.765	76.75
243.998	86.75
244.232	91.75
244.465	86.75
244.699	81.75
244.932	57.75
245.166	96.75
245.399	76.75
245.633	92.75
245.866	75.75
246.099	76.75
246.333	86.75
246.566	74.75
246.8	64.75
247.033	75.75
247.266	83.75
247.5	88.75
247.733	89.75
247.966	81.75
248.2	81.75
248.433	82.75
248.666	85.75
248.899	83.75
249.133	71.75
249.366	110.75
249.599	84.75
249.832	82.75
250.066	86.75
250.299	76.75
250.532	89.75
250.765	79.75
250.998	88.75
251.231	81.75
251.465	78.75
251.698	77.75
251.931	72.75
252.164	81.75
252.397	66.75
252.63	70.75
252.863	88.75
253.096	70.75
253.329	75.75
253.562	76.75
253.795	96.75
254.028	92.75
254.261	86.75
254.494	78.75
254.727	81.75
254.96	86.75
255.193	80.75
255.426	90.75
255.659	72.75
255.892	74.75
256.124	88.75
256.357	88.75
256.59	82.75
256.823	76.75
257.056	79.75
257.289	96.75
257.521	73.75
257.754	81.75
257.987	87.75
258.22	78.75
258.452	87.75
258.685	69.75
258.918	76.75
259.151	66.75
259.383	78.75
259.616	80.75
259.849	97.75
260.081	85.75
260.314	88.75
260.547	92.75
260.779	82.75
261.012	78.75
261.244	94.75
261.477	92.75
261.71	107.75
261.942	106.75
262.175	110.75
262.407	98.75
262.64	78.75
262.872	81.75
263.105	71.75
263.337	79.75
263.57	94.75
263.802	85.75
264.035	83.75
264.267	83.75
264.499	78.75
264.732	88.75
264.964	90.75
265.197	77.75
265.429	89.75
265.661	85.75
265.894	88.75
266.126	86.75
266.358	93.75
266.591	84.75
266.823	78.75
267.055	96.75
267.287	90.75
267.52	71.75
267.752	88.75
267.984	79.75
268.216	86.75
268.448	80.75
268.681	86.75
268.913	89.75
269.145	94.75
269.377	91.75
269.609	76.75
269.841	91.75
270.073	87.75
270.306	68.75
270.538	83.75
270.77	81.75
271.002	69.75
271.234	90.75
271.466	92.75
271.698	78.75
271.93	91.75
272.162	84.75
272.394	87.75
272.626	95.75
272.858	85.75
273.09	82.75
273.322	93.75
273.553	86.75
273.785	78.75
274.017	77.75
274.249	81.75
274.481	77.75
274.713	69.75
274.945	84.75
275.176	86.75
275.408	100.75
275.64	97.75
275.872	86.75
276.104	88.75
276.335	93.75
276.567	104.75
276.799	115.75
277.031	86.75
277.262	75.75
277.494	80.75
277.726	88.75
277.957	90.75
278.189	83.75
278.421	96.75
278.652	95.75
278.884	90.75
279.115	90.75
279.347	82.75
279.579	74.75
279.81	99.75
280.042	87.75
280.273	77.75
280.505	86.75
280.736	82.75
280.968	95.75
281.199	83.75
281.431	89.75
281.662	89.75
281.894	98.75
282.125	95.75
282.356	117.75
282.588	155.75
282.819	123.75
283.051	91.75
283.282	85.75
283.513	82.75
283.745	91.75
283.976	81.75
284.207	88.75
284.439	91.75
284.67	93.75
284.901	96.75
285.132	81.75
285.364	99.75
285.595	79.75
285.826	74.75
286.057	88.75
286.288	93.75
286.52	76.75
286.751	84.75
286.982	88.75
287.213	82.75
287.444	101.75
287.675	75.75
287.906	86.75
288.138	96.75
288.369	97.75
288.6	91.75
288.831	82.75
289.062	97.75
289.293	92.75
289.524	94.75
289.755	99.75
289.986	98.75
290.217	69.75
290.448	95.75
290.679	91.75
290.91	93.75
291.141	90.75
291.371	89.75
291.602	87.75
291.833	87.75
292.064	85.75
292.295	96.75
292.526	99.75
292.757	92.75
292.987	92.75
293.218	97.75
293.449	88.75
293.68	92.75
293.91	89.75
294.141	76.75
294.372	85.75
294.603	96.75
294.833	91.75
295.064	91.75
295.295	93.75
295.525	97.75
295.756	99.75
295.987	115.75
296.217	144.75
296.448	124.75
296.679	106.75
296.909	96.75
297.14	89.75
297.37	73.75
297.601	79.75
297.831	101.75
298.062	103.75
298.292	84.75
298.523	83.75
298.753	98.75
298.984	87.75
299.214	85.75
299.445	95.75
299.675	105.75
299.905	89.75
300.136	70.75
300.366	84.75
300.597	86.75
300.827	93.75
301.057	107.75
301.288	96.75
301.518	88.75
301.748	100.75
301.979	107.75
302.209	93.75
302.439	93.75
302.669	93.75
302.9	99.75
303.13	98.75
303.36	96.75
303.59	107.75
303.82	96.75
304.051	92.75
304.281	88.75
304.511	74.75
304.741	89.75
304.971	75.75
305.201	93.75
305.431	80.75
305.661	83.75
305.891	96.75
306.121	94.75
306.352	90.75
306.582	104.75
306.812	91.75
307.042	78.75
307.272	101.75
307.502	85.75
307.731	93.75
307.961	107.75
308.191	102.75
308.421	93.75
308.651	84.75
308.881	85.75
309.111	91.75
309.341	101.75
309.571	110.75
309.8	101.75
310.03	105.75
310.26	111.75
310.49	93.75
310.72	106.75
310.949	108.75
311.179	95.75
311.409	78.75
311.639	104.75
311.868	90.75
312.098	93.75
312.328	94.75
312.557	91.75
312.787	117.75
313.017	99.75
313.246	102.75
313.476	83.75
313.706	89.75
313.935	97.75
314.165	97.75
314.394	109.75
314.624	102.75
314.853	88.75
315.083	90.75
315.312	94.75
315.542	98.75
315.771	104.75
316.001	99.75
316.23	100.75
316.46	98.75
316.689	91.75
316.919	92.75
317.148	97.75
317.377	113.75
317.607	84.75
317.836	92.75
318.065	91.75
318.295	92.75
318.524	85.75
318.753	92.75
318.983	101.75
319.212	115.75
319.441	110.75
319.67	114.75
319.9	97.75
320.129	104.75
320.358	95.75
320.587	106.75
320.816	110.75
321.046	100.75
321.275	92.75
321.504	102.75
321.733	116.75
321.962	101.75
322.191	85.75
322.42	117.75
322.649	98.75
322.878	112.75
323.108	105.75
323.337	138.75
323.566	131.75
323.795	173.75
324.024	221.75
324.253	433.75
324.482	941.75
324.71	1928.75
324.939	2568.75
325.168	914.75
325.397	258.75
325.626	153.75
325.855	148.75
326.084	132.75
326.313	145.75
326.542	170.75
326.77	249.75
326.999	528.75
327.228	1060.75
327.457	1970.75
327.686	1554.75
327.914	416.75
328.143	223.75
328.372	163.75
328.6	136.75
328.829	122.75
329.058	119.75
329.287	139.75
329.515	117.75
329.744	89.75
329.972	107.75
330.201	101.75
330.43	101.75
330.658	116.75
330.887	149.75
331.115	120.75
331.344	105.75
331.572	100.75
331.801	107.75
332.03	107.75
332.258	98.75
332.486	92.75
332.715	82.75
332.943	104.75
333.172	90.75
333.4	95.75
333.629	120.75
333.857	113.75
334.085	112.75
334.314	96.75
334.542	100.75
334.771	97.75
334.999	94.75
335.227	94.75
335.455	84.75
335.684	100.75
335.912	97.75
336.14	101.75
336.369	108.75
336.597	77.75
336.825	98.75
337.053	101.75
337.281	103.75
337.51	92.75
337.738	93.75
337.966	90.75
338.194	99.75
338.422	99.75
338.65	104.75
338.878	98.75
339.106	97.75
339.334	91.75
339.562	93.75
339.79	90.75
340.018	103.75
340.246	77.75
340.474	91.75
340.702	87.75
340.93	101.75
341.158	91.75
341.386	94.75
341.614	114.75
341.842	101.75
342.07	87.75
342.298	78.75
342.526	100.75
342.754	81.75
342.981	79.75
343.209	96.75
343.437	89.75
343.665	92.75
343.893	88.75
344.12	101.75
344.348	89.75
344.576	87.75
344.804	84.75
345.031	104.75
345.259	106.75
345.487	106.75
345.714	90.75
345.942	86.75
346.17	101.75
346.397	91.75
346.625	107.75
346.853	83.75
347.08	97.75
347.308	106.75
347.535	93.75
347.763	96.75
347.99	100.75
348.218	105.75
348.445	99.75
348.673	99.75
348.9	83.75
349.128	76.75
349.355	93.75
349.583	89.75
349.81	104.75
350.037	73.75
350.265	96.75
350.492	90.75
350.72	106.75
350.947	95.75
351.174	106.75
351.402	123.75
351.629	99.75
351.856	94.75
352.083	106.75
352.311	112.75
352.538	101.75
352.765	97.75
352.992	113.75
353.22	112.75
353.447	107.75
353.674	101.75
353.901	99.75
354.128	95.75
354.355	110.75
354.583	99.75
354.81	105.75
355.037	100.75
355.264	97.75
355.491	94.75
355.718	87.75
355.945	104.75
356.172	104.75
356.399	90.75
356.626	91.75
356.853	86.75
357.08	93.75
357.307	101.75
357.534	79.75
357.761	92.75
357.988	104.75
358.215	101.75
358.441	76.75
358.668	90.75
358.895	94.75
359.122	99.75
359.349	102.75
359.576	79.75
359.802	93.75
360.029	117.75
360.256	108.75
360.483	106.75
360.709	80.75
360.936	77.75
361.163	97.75
361.39	88.75
361.616	81.75
361.843	87.75
362.07	83.75
362.296	92.75
362.523	86.75
362.749	97.75
362.976	86.75
363.203	94.75
363.429	89.75
363.656	93.75
363.882	73.75
364.109	85.75
364.335	90.75
364.562	94.75
364.788	92.75
365.015	98.75
365.241	98.75
365.468	109.75
365.694	119.75
365.92	88.75
366.147	88.75
366.373	108.75
366.599	98.75
366.826	88.75
367.052	76.75
367.278	89.75
367.505	88.75
367.731	91.75
367.957	113.75
368.184	86.75
368.41	86.75
368.636	107.75
368.862	113.75
369.089	110.75
369.315	100.75
369.541	97.75
369.767	87.75
369.993	90.75
370.219	107.75
370.445	96.75
370.672	94.75
370.898	91.75
371.124	100.75
371.35	94.75
371.576	85.75
371.802	85.75
372.028	81.75
372.254	87.75
372.48	107.75
372.706	93.75
372.932	85.75
373.158	85.75
373.384	91.75
373.61	91.75
373.835	84.75
374.061	78.75
374.287	73.75
374.513	85.75
374.739	74.75
374.965	84.75
375.191	86.75
375.416	94.75
375.642	97.75
375.868	77.75
376.094	86.75
376.319	92.75
376.545	93.75
376.771	84.75
376.997	83.75
377.222	108.75
377.448	98.75
377.674	99.75
377.899	89.75
378.125	92.75
378.35	86.75
378.576	92.75
378.802	96.75
379.027	92.75
379.253	92.75
379.478	73.75
379.704	90.75
379.929	75.75
380.155	94.75
380.38	98.75
380.606	84.75
380.831	85.75
381.057	97.75
381.282	95.75
381.507	81.75
381.733	89.75
381.958	76.75
382.184	92.75
382.409	80.75
382.634	97.75
382.86	93.75
383.085	103.75
383.31	107.75
383.535	105.75
383.761	98.75
383.986	93.75
384.211	97.75
384.436	104.75
384.662	93.75
384.887	107.75
385.112	92.75
385.337	108.75
385.562	113.75
385.787	105.75
386.013	109.75
386.238	121.75
386.463	106.75
386.688	100.75
386.913	99.75
387.138	97.75
387.363	89.75
387.588	96.75
387.813	97.75
388.038	103.75
388.263	103.75
388.488	97.75
388.713	99.75
388.938	88.75
389.163	98.75
389.387	90.75
389.612	94.75
389.837	104.75
390.062	93.75
390.287	78.75
390.512	89.75
390.736	76.75
390.961	101.75
391.186	96.75
391.411	112.75
391.636	95.75
391.86	88.75
392.085	101.75
392.31	78.75
392.534	95.75
392.759	103.75
392.984	84.75
393.208	83.75
393.433	84.75
393.658	88.75
393.882	93.75
394.107	91.75
394.331	97.75
394.556	90.75
394.78	89.75
395.005	86.75
395.229	76.75
395.454	92.75
395.678	84.75
395.903	90.75
396.127	87.75
396.352	92.75
396.576	98.75
396.801	83.75
397.025	80.75
397.249	82.75
397.474	82.75
397.698	90.75
397.922	94.75
398.147	85.75
398.371	87.75
398.595	90.75
398.82	91.75
399.044	74.75
399.268	98.75
399.492	89.75
399.717	88.75
399.941	75.75
400.165	91.75
400.389	85.75
400.613	101.75
400.837	93.75
401.062	82.75
401.286	87.75
401.51	99.75
401.734	94.75
401.958	113.75
402.182	117.75
402.406	162.75
402.63	116.75
402.854	98.75
403.078	91.75
403.302	97.75
403.526	92.75
403.75	101.75
403.974	83.75
404.198	89.75
404.422	85.75
404.645	76.75
404.869	95.75
405.093	93.75
405.317	94.75
405.541	90.75
405.765	101.75
405.988	105.75
406.212	172.75
406.436	229.75
406.66	165.75
406.883	96.75
407.107	101.75
407.331	90.75
407.555	105.75
407.778	96.75
408.002	78.75
408.226	97.75
408.449	92.75
408.673	75.75
408.896	93.75
409.12	93.75
409.344	91.75
409.567	96.75
409.791	92.75
410.014	93.75
410.238	100.75
410.461	99.75
410.685	97.75
410.908	105.75
411.132	103.75
411.355	99.75
411.578	89.75
411.802	92.75
412.025	81.75
412.249	84.75
412.472	86.75
412.695	94.75
412.919	85.75
413.142	92.75
413.365	95.75
413.589	97.75
413.812	87.75
414.035	77.75
414.258	83.75
414.482	76.75
414.705	86.75
414.928	79.75
415.151	95.75
415.374	93.75
415.597	88.75
415.821	85.75
416.044	96.75
416.267	86.75
416.49	92.75
416.713	90.75
416.936	98.75
417.159	101.75
417.382	74.75
417.605	78.75
417.828	91.75
418.051	98.75
418.274	77.75
418.497	83.75
418.72	94.75
418.943	88.75
419.166	79.75
419.389	91.75
419.611	96.75
419.834	95.75
420.057	91.75
420.28	89.75
420.503	88.75
420.726	86.75
420.948	72.75
421.171	91.75
421.394	107.75
421.617	102.75
421.839	84.75
422.062	95.75
422.285	93.75
422.507	96.75
422.73	99.75
422.953	102.75
423.175	108.75
423.398	115.75
423.621	85.75
423.843	98.75
424.066	81.75
424.288	85.75
424.511	106.75
424.733	97.75
424.956	120.75
425.178	81.75
425.401	126.75
425.623	85.75
425.846	85.75
426.068	105.75
426.291	89.75
426.513	92.75
426.735	99.75
426.958	95.75
427.18	105.75
427.402	132.75
427.625	151.75
427.847	122.75
428.069	96.75
428.292	88.75
428.514	92.75
428.736	84.75
428.958	87.75
429.181	80.75
429.403	94.75
429.625	74.75
429.847	103.75
430.069	101.75
430.292	112.75
430.514	85.75
430.736	84.75
430.958	88.75
431.18	78.75
431.402	83.75
431.624	95.75
431.846	84.75
432.068	83.75
432.29	78.75
432.512	90.75
432.734	77.75
432.956	92.75
433.178	96.75
433.4	104.75
433.622	93.75
433.844	88.75
434.066	90.75
434.287	93.75
434.509	81.75
434.731	89.75
434.953	95.75
435.175	86.75
435.397	86.75
435.618	97.75
435.84	101.75
436.062	136.75
436.284	111.75
436.505	103.75
436.727	101.75
436.949	98.75
437.17	98.75
437.392	84.75
437.614	83.75
437.835	99.75
438.057	121.75
438.278	116.75
438.5	121.75
438.721	127.75
438.943	103.75
439.165	84.75
439.386	89.75
439.608	85.75
439.829	110.75
440.05	133.75
440.272	164.75
440.493	100.75
440.715	96.75
440.936	105.75
441.158	88.75
441.379	76.75
441.6	79.75
441.822	86.75
442.043	108.75
442.264	105.75
442.486	109.75
442.707	94.75
442.928	108.75
443.149	125.75
443.371	127.75
443.592	115.75
443.813	110.75
444.034	92.75
444.255	93.75
444.476	88.75
444.698	87.75
444.919	78.75
445.14	138.75
445.361	131.75
445.582	108.75
445.803	149.75
446.024	148.75
446.245	146.75
446.466	117.75
446.687	97.75
446.908	90.75
447.129	75.75
447.35	75.75
447.571	105.75
447.792	100.75
448.013	100.75
448.234	114.75
448.455	91.75
448.675	123.75
448.896	125.75
449.117	109.75
449.338	115.75
449.559	116.75
449.779	134.75
450	96.75
450.221	91.75
450.442	94.75
450.662	104.75
450.883	101.75
451.104	111.75
451.324	82.75
451.545	89.75
451.766	81.75
451.986	75.75
452.207	84.75
452.428	92.75
452.648	108.75
452.869	109.75
453.089	118.75
453.31	113.75
453.53	108.75
453.751	100.75
453.971	102.75
454.192	108.75
454.412	89.75
454.633	91.75
454.853	91.75
455.073	88.75
455.294	93.75
455.514	85.75
455.734	101.75
455.955	96.75
456.175	90.75
456.395	76.75
456.616	76.75
456.836	84.75
457.056	95.75
457.276	81.75
457.497	85.75
457.717	97.75
457.937	98.75
458.157	97.75
458.377	93.75
458.598	110.75
458.818	160.75
459.038	173.75
459.258	124.75
459.478	79.75
459.698	80.75
459.918	91.75
460.138	87.75
460.358	90.75
460.578	80.75
460.798	78.75
461.018	93.75
461.238	92.75
461.458	84.75
461.678	80.75
461.898	90.75
462.118	76.75
462.338	80.75
462.558	88.75
462.777	97.75
462.997	80.75
463.217	81.75
463.437	91.75
463.657	103.75
463.876	93.75
464.096	82.75
464.316	90.75
464.536	84.75
464.755	91.75
464.975	114.75
465.195	164.75
465.414	161.75
465.634	107.75
465.854	95.75
466.073	97.75
466.293	78.75
466.512	88.75
466.732	97.75
466.951	99.75
467.171	98.75
467.391	107.75
467.61	109.75
467.829	92.75
468.049	92.75
468.268	96.75
468.488	85.75
468.707	99.75
468.927	92.75
469.146	79.75
469.365	83.75
469.585	79.75
469.804	92.75
470.023	98.75
470.243	94.75
470.462	81.75
470.681	123.75
470.901	96.75
471.12	88.75
471.339	87.75
471.558	91.75
471.777	84.75
471.997	91.75
472.216	88.75
472.435	97.75
472.654	80.75
472.873	98.75
473.092	102.75
473.311	90.75
473.53	105.75
473.749	77.75
473.968	77.75
474.187	108.75
474.406	100.75
474.625	88.75
474.844	97.75
475.063	92.75
475.282	93.75
475.501	82.75
475.72	76.75
475.939	79.75
476.158	96.75
476.377	93.75
476.596	98.75
476.814	101.75
477.033	109.75
477.252	78.75
477.471	80.75
477.69	86.75
477.908	88.75
478.127	90.75
478.346	90.75
478.564	93.75
478.783	93.75
479.002	86.75
479.22	85.75
479.439	96.75
479.658	106.75
479.876	98.75
480.095	105.75
480.313	87.75
480.532	90.75
480.751	100.75
480.969	95.75
481.188	83.75
481.406	79.75
481.624	101.75
481.843	77.75
482.061	84.75
482.28	91.75
482.498	94.75
482.717	96.75
482.935	99.75
483.153	86.75
483.372	82.75
483.59	85.75
483.808	82.75
484.027	80.75
484.245	99.75
484.463	93.75
484.681	97.75
484.9	90.75
485.118	89.75
485.336	106.75
485.554	98.75
485.772	99.75
485.99	90.75
486.209	110.75
486.427	108.75
486.645	109.75
486.863	129.75
487.081	110.75
487.299	101.75
487.517	76.75
487.735	106.75
487.953	95.75
488.171	105.75
488.389	95.75
488.607	97.75
488.825	84.75
489.043	85.75
489.261	83.75
489.479	92.75
489.696	93.75
489.914	88.75
490.132	100.75
490.35	93.75
490.568	98.75
490.786	91.75
491.003	97.75
491.221	102.75
491.439	100.75
491.657	92.75
491.874	94.75
492.092	97.75
492.31	99.75
492.527	85.75
492.745	94.75
492.963	89.75
493.18	83.75
493.398	90.75
493.615	103.75
493.833	102.75
494.05	83.75
494.268	90.75
494.485	97.75
494.703	84.75
494.92	95.75
495.138	93.75
495.355	89.75
495.573	95.75
495.79	73.75
496.008	90.75
496.225	89.75
496.442	89.75
496.66	85.75
496.877	81.75
497.094	89.75
497.312	97.75
497.529	94.75
497.746	93.75
497.963	82.75
498.181	83.75
498.398	94.75
498.615	113.75
498.832	101.75
499.049	83.75
499.267	91.75
499.484	85.75
499.701	91.75
499.918	93.75
500.135	103.75
500.352	81.75
500.569	94.75
500.786	100.75
501.003	95.75
501.22	95.75
501.437	94.75
501.654	114.75
501.871	108.75
502.088	88.75
502.305	104.75
502.522	87.75
502.739	99.75
502.956	91.75
503.172	105.75
503.389	95.75
503.606	109.75
503.823	111.75
504.04	79.75
504.256	89.75
504.473	98.75
504.69	94.75
504.907	95.75
505.123	84.75
505.34	85.75
505.557	84.75
505.773	79.75
505.99	84.75
506.207	89.75
506.423	97.75
506.64	92.75
506.856	100.75
507.073	102.75
507.289	94.75
507.506	83.75
507.722	122.75
507.939	112.75
508.155	90.75
508.372	89.75
508.588	83.75
508.805	99.75
509.021	94.75
509.238	99.75
509.454	92.75
509.67	85.75
509.887	85.75
510.103	143.75
510.319	220.75
510.536	857.75
510.752	2654.75
510.968	745.75
511.184	175.75
511.401	112.75
511.617	98.75
511.833	96.75
512.049	90.75
512.265	97.75
512.481	93.75
512.698	98.75
512.914	89.75
513.13	97.75
513.346	101.75
513.562	92.75
513.778	94.75
513.994	97.75
514.21	102.75
514.426	125.75
514.642	134.75
514.858	137.75
515.074	180.75
515.29	480.75
515.506	1596.75
515.721	599.75
515.937	146.75
516.153	112.75
516.369	97.75
516.585	86.75
516.801	94.75
517.016	79.75
517.232	104.75
517.448	102.75
517.664	85.75
517.879	81.75
518.095	102.75
518.311	94.75
518.527	91.75
518.742	97.75
518.958	95.75
519.173	96.75
519.389	79.75
519.605	82.75
519.82	100.75
520.036	113.75
520.251	125.75
520.467	114.75
520.682	96.75
520.898	104.75
521.113	114.75
521.329	152.75
521.544	231.75
521.76	616.75
521.975	2604.75
522.19	1577.75
522.406	342.75
522.621	131.75
522.836	104.75
523.052	88.75
523.267	93.75
523.482	88.75
523.698	111.75
523.913	122.75
524.128	108.75
524.343	86.75
524.559	89.75
524.774	81.75
524.989	96.75
525.204	113.75
525.419	115.75
525.634	88.75
525.849	86.75
526.064	83.75
526.28	74.75
526.495	109.75
526.71	92.75
526.925	84.75
527.14	93.75
527.355	94.75
527.57	95.75
527.785	100.75
527.999	81.75
528.214	98.75
528.429	90.75
528.644	97.75
528.859	95.75
529.074	102.75
529.289	135.75
529.503	175.75
529.718	116.75
529.933	79.75
530.148	95.75
530.363	91.75
530.577	101.75
530.792	88.75
531.007	93.75
531.221	104.75
531.436	91.75
531.651	88.75
531.865	91.75
532.08	89.75
532.295	86.75
532.509	100.75
532.724	102.75
532.938	89.75
533.153	89.75
533.367	86.75
533.582	86.75
533.796	98.75
534.011	84.75
534.225	85.75
534.44	95.75
534.654	102.75
534.868	85.75
535.083	85.75
535.297	92.75
535.511	113.75
535.726	92.75
535.94	94.75
536.154	98.75
536.369	100.75
536.583	83.75
536.797	77.75
537.011	94.75
537.225	92.75
537.44	104.75
537.654	93.75
537.868	95.75
538.082	105.75
538.296	96.75
538.51	90.75
538.724	83.75
538.938	98.75
539.153	94.75
539.367	92.75
539.581	107.75
539.795	81.75
540.009	99.75
540.222	91.75
540.436	99.75
540.65	93.75
540.864	92.75
541.078	95.75
541.292	74.75
541.506	104.75
541.72	96.75
541.934	104.75
542.147	87.75
542.361	89.75
542.575	99.75
542.789	83.75
543.002	82.75
543.216	102.75
543.43	98.75
543.644	84.75
543.857	102.75
544.071	87.75
544.285	80.75
544.498	78.75
544.712	88.75
544.925	81.75
545.139	104.75
545.352	96.75
545.566	89.75
545.779	80.75
545.993	78.75
546.206	83.75
546.42	74.75
546.633	90.75
546.847	94.75
547.06	98.75
547.274	93.75
547.487	85.75
547.7	112.75
547.914	80.75
548.127	75.75
548.34	84.75
548.554	94.75
548.767	91.75
548.98	85.75
549.193	93.75
549.407	100.75
549.62	91.75
549.833	80.75
550.046	77.75
550.259	87.75
550.473	83.75
550.686	104.75
550.899	86.75
551.112	94.75
551.325	84.75
551.538	86.75
551.751	95.75
551.964	84.75
552.177	77.75
552.39	93.75
552.603	94.75
552.816	91.75
553.029	88.75
553.242	83.75
553.455	113.75
553.667	107.75
553.88	112.75
554.093	84.75
554.306	97.75
554.519	96.75
554.732	99.75
554.944	87.75
555.157	92.75
555.37	95.75
555.583	79.75
555.795	84.75
556.008	85.75
556.221	92.75
556.433	86.75
556.646	85.75
556.859	99.75
557.071	85.75
557.284	90.75
557.496	90.75
557.709	80.75
557.921	97.75
558.134	95.75
558.346	77.75
558.559	82.75
558.771	95.75
558.984	91.75
559.196	97.75
559.409	96.75
559.621	100.75
559.833	93.75
560.046	87.75
560.258	85.75
560.47	88.75
560.683	95.75
560.895	91.75
561.107	98.75
561.32	95.75
561.532	102.75
561.744	81.75
561.956	88.75
562.168	103.75
562.381	100.75
562.593	90.75
562.805	94.75
563.017	96.75
563.229	92.75
563.441	98.75
563.653	97.75
563.865	91.75
564.077	80.75
564.289	102.75
564.501	86.75
564.713	103.75
564.925	93.75
565.137	84.75
565.349	92.75
565.561	77.75
565.773	90.75
565.985	85.75
566.197	90.75
566.408	89.75
566.62	86.75
566.832	80.75
567.044	80.75
567.255	94.75
567.467	85.75
567.679	93.75
567.891	83.75
568.102	104.75
568.314	89.75
568.526	92.75
568.737	84.75
568.949	98.75
569.161	85.75
569.372	89.75
569.584	93.75
569.795	101.75
570.007	125.75
570.218	240.75
570.43	138.75
570.641	104.75
570.853	85.75
571.064	84.75
571.276	83.75
571.487	98.75
571.698	88.75
571.91	91.75
572.121	77.75
572.333	77.75
572.544	81.75
572.755	88.75
572.966	79.75
573.178	83.75
573.389	84.75
573.6	97.75
573.811	90.75
574.023	84.75
574.234	81.75
574.445	79.75
574.656	95.75
574.867	80.75
575.078	103.75
575.289	101.75
575.501	82.75
575.712	72.75
575.923	98.75
576.134	96.75
576.345	80.75
576.556	85.75
576.767	100.75
576.978	81.75
577.188	84.75
577.399	92.75
577.61	114.75
577.821	103.75
578.032	115.75
578.243	289.75
578.454	861.75
578.665	231.75
578.875	109.75
579.086	104.75
579.297	78.75
579.508	90.75
579.718	87.75
579.929	99.75
580.14	89.75
580.35	90.75
580.561	103.75
580.772	97.75
580.982	83.75
581.193	94.75
581.403	95.75
581.614	90.75
581.825	94.75
582.035	88.75
582.246	86.75
582.456	98.75
582.667	94.75
582.877	87.75
583.087	89.75
583.298	78.75
583.508	101.75
583.719	87.75
583.929	88.75
584.139	95.75
584.35	97.75
584.56	93.75
584.77	85.75
584.981	99.75
585.191	67.75
585.401	86.75
585.611	84.75
585.821	85.75
586.032	72.75
586.242	80.75
586.452	80.75
586.662	87.75
586.872	80.75
587.082	75.75
587.292	82.75
587.502	75.75
587.713	84.75
587.923	100.75
588.133	94.75
588.343	77.75
588.553	80.75
588.762	94.75
588.972	90.75
589.182	81.75
589.392	80.75
589.602	104.75
589.812	97.75
590.022	105.75
590.232	91.75
590.441	94.75
590.651	89.75
590.861	69.75
591.071	97.75
591.281	81.75
591.49	106.75
591.7	92.75
591.91	85.75
592.119	69.75
592.329	81.75
592.539	89.75
592.748	86.75
592.958	86.75
593.167	103.75
593.377	88.75
593.587	99.75
593.796	84.75
594.006	94.75
594.215	86.75
594.424	86.75
594.634	93.75
594.843	90.75
595.053	92.75
595.262	91.75
595.472	85.75
595.681	90.75
595.89	85.75
596.1	97.75
596.309	105.75
596.518	89.75
596.727	83.75
596.937	84.75
597.146	99.75
597.355	92.75
597.564	73.75
597.774	81.75
597.983	85.75
598.192	89.75
598.401	86.75
598.61	82.75
598.819	90.75
599.028	74.75
599.237	92.75
599.446	87.75
599.655	91.75
599.864	98.75
600.073	83.75
600.282	89.75
600.491	93.75
600.7	80.75
600.909	69.75
601.118	71.75
601.327	86.75
601.536	86.75
601.745	81.75
601.953	90.75
602.162	84.75
602.371	83.75
602.58	83.75
602.789	110.75
602.997	90.75
603.206	85.75
603.415	78.75
603.623	99.75
603.832	92.75
604.041	91.75
604.249	77.75
604.458	83.75
604.666	89.75
604.875	90.75
605.084	92.75
605.292	88.75
605.501	92.75
605.709	92.75
605.918	85.75
606.126	84.75
606.334	91.75
606.543	92.75
606.751	104.75
606.96	96.75
607.168	92.75
607.376	106.75
607.585	100.75
607.793	79.75
608.001	78.75
608.21	82.75
608.418	90.75
608.626	84.75
608.834	80.75
609.043	93.75
609.251	88.75
609.459	84.75
609.667	98.75
609.875	88.75
610.083	88.75
610.291	92.75
610.499	85.75
610.707	88.75
610.916	95.75
611.124	85.75
611.332	86.75
611.54	96.75
611.748	84.75
611.955	82.75
612.163	98.75
612.371	85.75
612.579	95.75
612.787	88.75
612.995	86.75
613.203	89.75
613.411	72.75
613.618	83.75
613.826	93.75
614.034	78.75
614.242	93.75
614.449	99.75
614.657	87.75
614.865	97.75
615.072	88.75
615.28	83.75
615.488	70.75
615.695	86.75
615.903	96.75
616.111	100.75
616.318	101.75
616.526	89.75
616.733	93.75
616.941	93.75
617.148	88.75
617.356	77.75
617.563	77.75
617.771	86.75
617.978	96.75
618.185	82.75
618.393	81.75
618.6	79.75
618.807	81.75
619.015	91.75
619.222	85.75
619.429	80.75
619.637	88.75
619.844	80.75
620.051	91.75
620.258	97.75
620.466	91.75
620.673	85.75
620.88	86.75
621.087	92.75
621.294	95.75
621.501	93.75
621.708	89.75
621.915	87.75
622.122	89.75
622.329	72.75
622.536	80.75
622.743	84.75
622.95	91.75
623.157	83.75
623.364	74.75
623.571	80.75
623.778	89.75
623.985	92.75
624.192	67.75
624.399	83.75
624.606	88.75
624.812	79.75
625.019	97.75
625.226	89.75
625.433	90.75
625.639	89.75
625.846	93.75
626.053	89.75
626.259	93.75
626.466	88.75
626.673	72.75
626.879	88.75
627.086	105.75
627.293	82.75
627.499	86.75
627.706	80.75
627.912	89.75
628.119	83.75
628.325	87.75
628.532	85.75
628.738	82.75
628.945	82.75
629.151	84.75
629.357	78.75
629.564	79.75
629.77	94.75
629.976	96.75
630.183	92.75
630.389	85.75
630.595	72.75
630.802	87.75
631.008	77.75
631.214	85.75
631.42	82.75
631.627	72.75
631.833	82.75
632.039	83.75
632.245	86.75
632.451	85.75
632.657	83.75
632.863	83.75
633.069	90.75
633.275	88.75
633.481	72.75
633.688	104.75
633.893	77.75
634.099	81.75
634.305	80.75
634.511	101.75
634.717	77.75
634.923	89.75
635.129	83.75
635.335	67.75
635.541	78.75
635.747	85.75
635.952	85.75
636.158	85.75
636.364	69.75
636.57	73.75
636.775	78.75
636.981	88.75
637.187	84.75
637.392	69.75
637.598	83.75
637.804	86.75
638.009	79.75
638.215	79.75
638.421	87.75
638.626	70.75
638.832	85.75
639.037	87.75
639.243	88.75
639.448	89.75
639.654	82.75
639.859	89.75
640.065	80.75
640.27	90.75
640.475	79.75
640.681	83.75
640.886	84.75
641.091	78.75
641.297	80.75
641.502	89.75
641.707	69.75
641.913	75.75
642.118	88.75
642.323	81.75
642.528	76.75
642.733	82.75
642.939	74.75
643.144	87.75
643.349	84.75
643.554	97.75
643.759	86.75
643.964	88.75
644.169	80.75
644.374	88.75
644.579	82.75
644.784	91.75
644.989	91.75
645.194	91.75
645.399	83.75
645.604	86.75
645.809	97.75
646.014	90.75
646.219	84.75
646.423	89.75
646.628	94.75
646.833	81.75
647.038	82.75
647.243	99.75
647.447	81.75
647.652	86.75
647.857	86.75
648.062	78.75
648.266	85.75
648.471	82.75
648.676	89.75
648.88	95.75
649.085	87.75
649.289	84.75
649.494	98.75
649.698	144.75
649.903	93.75
650.107	88.75
650.312	88.75
650.516	79.75
650.721	79.75
650.925	88.75
651.13	81.75
651.334	88.75
651.539	85.75
651.743	78.75
651.947	92.75
652.152	93.75
652.356	77.75
652.56	90.75
652.764	98.75
652.969	85.75
653.173	86.75
653.377	92.75
653.581	89.75
653.785	71.75
653.99	89.75
654.194	78.75
654.398	93.75
654.602	89.75
654.806	93.75
655.01	108.75
655.214	81.75
655.418	91.75
655.622	88.75
655.826	88.75
656.03	91.75
656.234	91.75
656.438	95.75
656.642	92.75
656.846	80.75
657.049	88.75
657.253	84.75
657.457	91.75
657.661	84.75
657.865	86.75
658.068	68.75
658.272	88.75
658.476	84.75
658.68	89.75
658.883	77.75
659.087	83.75
659.291	90.75
659.494	79.75
659.698	88.75
659.901	67.75
660.105	83.75
660.309	87.75
660.512	82.75
660.716	79.75
660.919	93.75
661.123	82.75
661.326	82.75
661.53	85.75
661.733	99.75
661.936	76.75
662.14	77.75
662.343	83.75
662.546	78.75
662.75	83.75
662.953	78.75
663.156	84.75
663.36	84.75
663.563	86.75
663.766	90.75
663.969	89.75
664.173	80.75
664.376	85.75
664.579	73.75
664.782	80.75
664.985	82.75
665.188	80.75
665.391	80.75
665.594	96.75
665.797	99.75
666	79.75
666.203	84.75
666.406	68.75
666.609	80.75
666.812	71.75
667.015	83.75
667.218	90.75
667.421	77.75
667.624	80.75
667.827	97.75
668.03	72.75
668.232	64.75
668.435	80.75
668.638	77.75
668.841	88.75
669.043	65.75
669.246	71.75
669.449	73.75
669.651	82.75
669.854	83.75
670.057	65.75
670.259	82.75
670.462	75.75
670.665	85.75
670.867	85.75
671.07	81.75
671.272	74.75
671.475	95.75
671.677	90.75
671.88	80.75
672.082	76.75
672.284	89.75
672.487	92.75
672.689	75.75
672.892	77.75
