Data from HP_1_HRD10591_00035.txt Node
Date: Mon Jan 19 14:15:25 EST 2026
User: Yrep
Spectrometer: HR+D1059
Trigger mode: 1
Integration Time (sec): 1.000000E-1
Scans to average: 1
Electric dark correction enabled: true
Nonlinearity correction enabled: false
Boxcar width: 0
XAxis mode: Wavelengths
Number of Pixels in Spectrum: 2048
>>>>>Begin Spectral Data<<<<<
223.165	-22.62
223.4	-22.62
223.635	-22.62
223.869	-24.62
224.104	-9.62
224.338	-12.62
224.573	-6.62
224.808	-14.62
225.042	-12.62
225.277	-7.62
225.511	11.38
225.746	13.38
225.98	-2.62
226.215	10.38
226.449	20.38
226.683	13.38
226.918	15.38
227.152	29.38
227.387	47.38
227.621	49.38
227.856	44.38
228.09	39.38
228.324	57.38
228.559	63.38
228.793	60.38
229.027	57.38
229.262	52.38
229.496	61.38
229.73	59.38
229.964	72.38
230.199	76.38
230.433	65.38
230.667	73.38
230.901	75.38
231.136	94.38
231.37	66.38
231.604	73.38
231.838	70.38
232.072	72.38
232.306	74.38
232.541	76.38
232.775	81.38
233.009	72.38
233.243	83.38
233.477	81.38
233.711	80.38
233.945	96.38
234.179	74.38
234.413	95.38
234.647	77.38
234.881	70.38
235.115	88.38
235.349	68.38
235.583	75.38
235.817	84.38
236.051	80.38
236.285	77.38
236.519	71.38
236.753	87.38
236.987	81.38
237.221	72.38
237.455	81.38
237.689	74.38
237.922	77.38
238.156	75.38
238.39	82.38
238.624	74.38
238.858	63.38
239.091	81.38
239.325	75.38
239.559	78.38
239.793	66.38
240.027	68.38
240.26	67.38
240.494	83.38
240.728	73.38
240.961	65.38
241.195	76.38
241.429	80.38
241.662	82.38
241.896	78.38
242.13	71.38
242.363	75.38
242.597	74.38
242.83	73.38
243.064	74.38
243.298	91.38
243.531	75.38
243.765	69.38
243.998	83.38
244.232	85.38
244.465	81.38
244.699	77.38
244.932	87.38
245.166	75.38
245.399	75.38
245.633	88.38
245.866	64.38
246.099	85.38
246.333	92.38
246.566	71.38
246.8	67.38
247.033	75.38
247.266	77.38
247.5	64.38
247.733	77.38
247.966	63.38
248.2	95.38
248.433	80.38
248.666	74.38
248.899	89.38
249.133	85.38
249.366	75.38
249.599	83.38
249.832	83.38
250.066	83.38
250.299	80.38
250.532	78.38
250.765	77.38
250.998	78.38
251.231	72.38
251.465	87.38
251.698	74.38
251.931	83.38
252.164	84.38
252.397	69.38
252.63	71.38
252.863	71.38
253.096	76.38
253.329	91.38
253.562	71.38
253.795	84.38
254.028	97.38
254.261	74.38
254.494	81.38
254.727	73.38
254.96	78.38
255.193	83.38
255.426	85.38
255.659	78.38
255.892	86.38
256.124	77.38
256.357	67.38
256.59	74.38
256.823	88.38
257.056	77.38
257.289	83.38
257.521	91.38
257.754	70.38
257.987	73.38
258.22	92.38
258.452	92.38
258.685	85.38
258.918	75.38
259.151	67.38
259.383	69.38
259.616	89.38
259.849	95.38
260.081	85.38
260.314	90.38
260.547	70.38
260.779	75.38
261.012	73.38
261.244	83.38
261.477	104.38
261.71	83.38
261.942	69.38
262.175	75.38
262.407	83.38
262.64	69.38
262.872	67.38
263.105	89.38
263.337	59.38
263.57	76.38
263.802	83.38
264.035	76.38
264.267	86.38
264.499	76.38
264.732	64.38
264.964	76.38
265.197	85.38
265.429	63.38
265.661	71.38
265.894	78.38
266.126	82.38
266.358	88.38
266.591	93.38
266.823	75.38
267.055	85.38
267.287	80.38
267.52	83.38
267.752	89.38
267.984	79.38
268.216	82.38
268.448	67.38
268.681	72.38
268.913	66.38
269.145	97.38
269.377	76.38
269.609	95.38
269.841	81.38
270.073	77.38
270.306	90.38
270.538	89.38
270.77	78.38
271.002	80.38
271.234	85.38
271.466	87.38
271.698	82.38
271.93	78.38
272.162	73.38
272.394	95.38
272.626	93.38
272.858	70.38
273.09	66.38
273.322	87.38
273.553	73.38
273.785	75.38
274.017	79.38
274.249	87.38
274.481	81.38
274.713	82.38
274.945	81.38
275.176	70.38
275.408	91.38
275.64	77.38
275.872	60.38
276.104	89.38
276.335	89.38
276.567	84.38
276.799	92.38
277.031	83.38
277.262	81.38
277.494	91.38
277.726	80.38
277.957	88.38
278.189	88.38
278.421	74.38
278.652	78.38
278.884	74.38
279.115	72.38
279.347	89.38
279.579	74.38
279.81	77.38
280.042	86.38
280.273	90.38
280.505	96.38
280.736	85.38
280.968	80.38
281.199	84.38
281.431	97.38
281.662	71.38
281.894	97.38
282.125	83.38
282.356	81.38
282.588	93.38
282.819	92.38
283.051	89.38
283.282	85.38
283.513	105.38
283.745	80.38
283.976	86.38
284.207	88.38
284.439	81.38
284.67	69.38
284.901	74.38
285.132	88.38
285.364	90.38
285.595	85.38
285.826	93.38
286.057	87.38
286.288	84.38
286.52	86.38
286.751	76.38
286.982	75.38
287.213	76.38
287.444	88.38
287.675	73.38
287.906	88.38
288.138	80.38
288.369	91.38
288.6	89.38
288.831	87.38
289.062	69.38
289.293	83.38
289.524	85.38
289.755	91.38
289.986	90.38
290.217	80.38
290.448	87.38
290.679	93.38
290.91	90.38
291.141	75.38
291.371	90.38
291.602	102.38
291.833	98.38
292.064	87.38
292.295	71.38
292.526	96.38
292.757	83.38
292.987	91.38
293.218	83.38
293.449	71.38
293.68	95.38
293.91	86.38
294.141	72.38
294.372	89.38
294.603	86.38
294.833	97.38
295.064	72.38
295.295	70.38
295.525	92.38
295.756	80.38
295.987	82.38
296.217	86.38
296.448	90.38
296.679	93.38
296.909	81.38
297.14	96.38
297.37	96.38
297.601	83.38
297.831	91.38
298.062	83.38
298.292	74.38
298.523	90.38
298.753	76.38
298.984	86.38
299.214	79.38
299.445	82.38
299.675	73.38
299.905	84.38
300.136	92.38
300.366	85.38
300.597	76.38
300.827	86.38
301.057	99.38
301.288	85.38
301.518	75.38
301.748	95.38
301.979	90.38
302.209	96.38
302.439	97.38
302.669	95.38
302.9	88.38
303.13	79.38
303.36	84.38
303.59	91.38
303.82	84.38
304.051	97.38
304.281	92.38
304.511	83.38
304.741	82.38
304.971	79.38
305.201	83.38
305.431	82.38
305.661	74.38
305.891	82.38
306.121	88.38
306.352	88.38
306.582	101.38
306.812	77.38
307.042	89.38
307.272	83.38
307.502	87.38
307.731	97.38
307.961	88.38
308.191	89.38
308.421	83.38
308.651	85.38
308.881	80.38
309.111	89.38
309.341	95.38
309.571	84.38
309.8	73.38
310.03	75.38
310.26	81.38
310.49	83.38
310.72	76.38
310.949	85.38
311.179	91.38
311.409	88.38
311.639	86.38
311.868	91.38
312.098	92.38
312.328	103.38
312.557	88.38
312.787	77.38
313.017	90.38
313.246	67.38
313.476	73.38
313.706	95.38
313.935	93.38
314.165	85.38
314.394	97.38
314.624	74.38
314.853	93.38
315.083	80.38
315.312	73.38
315.542	95.38
315.771	86.38
316.001	91.38
316.23	83.38
316.46	87.38
316.689	90.38
316.919	80.38
317.148	71.38
317.377	84.38
317.607	82.38
317.836	90.38
318.065	85.38
318.295	88.38
318.524	89.38
318.753	92.38
318.983	84.38
319.212	85.38
319.441	84.38
319.67	77.38
319.9	89.38
320.129	78.38
320.358	78.38
320.587	95.38
320.816	88.38
321.046	82.38
321.275	99.38
321.504	87.38
321.733	84.38
321.962	95.38
322.191	85.38
322.42	72.38
322.649	79.38
322.878	88.38
323.108	82.38
323.337	94.38
323.566	94.38
323.795	84.38
324.024	79.38
324.253	83.38
324.482	76.38
324.71	87.38
324.939	97.38
325.168	90.38
325.397	76.38
325.626	87.38
325.855	74.38
326.084	80.38
326.313	83.38
326.542	66.38
326.77	90.38
326.999	91.38
327.228	86.38
327.457	95.38
327.686	89.38
327.914	83.38
328.143	82.38
328.372	85.38
328.6	82.38
328.829	85.38
329.058	75.38
329.287	85.38
329.515	96.38
329.744	91.38
329.972	77.38
330.201	91.38
330.43	83.38
330.658	83.38
330.887	84.38
331.115	90.38
331.344	80.38
331.572	93.38
331.801	94.38
332.03	73.38
332.258	87.38
332.486	72.38
332.715	76.38
332.943	75.38
333.172	79.38
333.4	91.38
333.629	97.38
333.857	74.38
334.085	95.38
334.314	95.38
334.542	96.38
334.771	79.38
334.999	81.38
335.227	82.38
335.455	77.38
335.684	84.38
335.912	87.38
336.14	82.38
336.369	96.38
336.597	89.38
336.825	92.38
337.053	79.38
337.281	100.38
337.51	85.38
337.738	85.38
337.966	85.38
338.194	82.38
338.422	97.38
338.65	91.38
338.878	85.38
339.106	86.38
339.334	88.38
339.562	96.38
339.79	95.38
340.018	83.38
340.246	66.38
340.474	76.38
340.702	79.38
340.93	79.38
341.158	80.38
341.386	81.38
341.614	87.38
341.842	82.38
342.07	87.38
342.298	78.38
342.526	91.38
342.754	80.38
342.981	84.38
343.209	84.38
343.437	104.38
343.665	91.38
343.893	88.38
344.12	91.38
344.348	77.38
344.576	84.38
344.804	81.38
345.031	106.38
345.259	88.38
345.487	102.38
345.714	80.38
345.942	76.38
346.17	84.38
346.397	75.38
346.625	92.38
346.853	77.38
347.08	81.38
347.308	94.38
347.535	71.38
347.763	86.38
347.99	85.38
348.218	73.38
348.445	79.38
348.673	79.38
348.9	78.38
349.128	88.38
349.355	88.38
349.583	87.38
349.81	83.38
350.037	89.38
350.265	81.38
350.492	88.38
350.72	76.38
350.947	92.38
351.174	74.38
351.402	73.38
351.629	65.38
351.856	76.38
352.083	84.38
352.311	78.38
352.538	71.38
352.765	98.38
352.992	92.38
353.22	98.38
353.447	86.38
353.674	77.38
353.901	84.38
354.128	83.38
354.355	85.38
354.583	96.38
354.81	85.38
355.037	72.38
355.264	80.38
355.491	86.38
355.718	84.38
355.945	77.38
356.172	88.38
356.399	84.38
356.626	95.38
356.853	81.38
357.08	94.38
357.307	79.38
357.534	100.38
357.761	90.38
357.988	95.38
358.215	103.38
358.441	73.38
358.668	85.38
358.895	92.38
359.122	90.38
359.349	77.38
359.576	80.38
359.802	83.38
360.029	88.38
360.256	91.38
360.483	87.38
360.709	77.38
360.936	90.38
361.163	81.38
361.39	76.38
361.616	75.38
361.843	71.38
362.07	90.38
362.296	83.38
362.523	92.38
362.749	87.38
362.976	88.38
363.203	96.38
363.429	76.38
363.656	86.38
363.882	81.38
364.109	84.38
364.335	92.38
364.562	92.38
364.788	78.38
365.015	82.38
365.241	76.38
365.468	73.38
365.694	81.38
365.92	76.38
366.147	82.38
366.373	73.38
366.599	85.38
366.826	91.38
367.052	78.38
367.278	88.38
367.505	92.38
367.731	83.38
367.957	76.38
368.184	87.38
368.41	84.38
368.636	75.38
368.862	87.38
369.089	75.38
369.315	69.38
369.541	80.38
369.767	83.38
369.993	86.38
370.219	89.38
370.445	78.38
370.672	83.38
370.898	77.38
371.124	83.38
371.35	96.38
371.576	84.38
371.802	74.38
372.028	86.38
372.254	76.38
372.48	99.38
372.706	83.38
372.932	91.38
373.158	88.38
373.384	99.38
373.61	100.38
373.835	92.38
374.061	75.38
374.287	77.38
374.513	67.38
374.739	89.38
374.965	92.38
375.191	93.38
375.416	92.38
375.642	89.38
375.868	88.38
376.094	82.38
376.319	85.38
376.545	79.38
376.771	88.38
376.997	85.38
377.222	84.38
377.448	94.38
377.674	86.38
377.899	86.38
378.125	85.38
378.35	100.38
378.576	83.38
378.802	74.38
379.027	76.38
379.253	90.38
379.478	76.38
379.704	86.38
379.929	82.38
380.155	95.38
380.38	95.38
380.606	81.38
380.831	84.38
381.057	93.38
381.282	82.38
381.507	85.38
381.733	101.38
381.958	88.38
382.184	84.38
382.409	72.38
382.634	80.38
382.86	61.38
383.085	91.38
383.31	83.38
383.535	93.38
383.761	101.38
383.986	81.38
384.211	92.38
384.436	87.38
384.662	88.38
384.887	75.38
385.112	80.38
385.337	82.38
385.562	75.38
385.787	91.38
386.013	87.38
386.238	82.38
386.463	89.38
386.688	107.38
386.913	87.38
387.138	84.38
387.363	74.38
387.588	86.38
387.813	85.38
388.038	93.38
388.263	85.38
388.488	78.38
388.713	78.38
388.938	78.38
389.163	77.38
389.387	81.38
389.612	80.38
389.837	95.38
390.062	91.38
390.287	81.38
390.512	77.38
390.736	74.38
390.961	70.38
391.186	80.38
391.411	78.38
391.636	93.38
391.86	67.38
392.085	87.38
392.31	96.38
392.534	88.38
392.759	90.38
392.984	106.38
393.208	208.38
393.433	281.38
393.658	225.38
393.882	121.38
394.107	79.38
394.331	90.38
394.556	96.38
394.78	99.38
395.005	82.38
395.229	94.38
395.454	87.38
395.678	90.38
395.903	86.38
396.127	91.38
396.352	111.38
396.576	131.38
396.801	214.38
397.025	243.38
397.249	129.38
397.474	95.38
397.698	97.38
397.922	84.38
398.147	84.38
398.371	83.38
398.595	94.38
398.82	85.38
399.044	80.38
399.268	89.38
399.492	88.38
399.717	89.38
399.941	72.38
400.165	75.38
400.389	83.38
400.613	84.38
400.837	76.38
401.062	69.38
401.286	75.38
401.51	98.38
401.734	83.38
401.958	94.38
402.182	81.38
402.406	77.38
402.63	77.38
402.854	82.38
403.078	75.38
403.302	100.38
403.526	98.38
403.75	106.38
403.974	78.38
404.198	100.38
404.422	77.38
404.645	102.38
404.869	71.38
405.093	85.38
405.317	87.38
405.541	81.38
405.765	80.38
405.988	86.38
406.212	73.38
406.436	83.38
406.66	80.38
406.883	95.38
407.107	73.38
407.331	76.38
407.555	88.38
407.778	95.38
408.002	91.38
408.226	89.38
408.449	93.38
408.673	87.38
408.896	78.38
409.12	82.38
409.344	80.38
409.567	79.38
409.791	80.38
410.014	84.38
410.238	83.38
410.461	79.38
410.685	85.38
410.908	68.38
411.132	89.38
411.355	79.38
411.578	91.38
411.802	85.38
412.025	85.38
412.249	93.38
412.472	85.38
412.695	68.38
412.919	85.38
413.142	78.38
413.365	77.38
413.589	83.38
413.812	70.38
414.035	82.38
414.258	77.38
414.482	87.38
414.705	74.38
414.928	77.38
415.151	100.38
415.374	72.38
415.597	75.38
415.821	84.38
416.044	68.38
416.267	89.38
416.49	87.38
416.713	87.38
416.936	73.38
417.159	84.38
417.382	88.38
417.605	72.38
417.828	74.38
418.051	74.38
418.274	80.38
418.497	56.38
418.72	80.38
418.943	83.38
419.166	81.38
419.389	88.38
419.611	76.38
419.834	74.38
420.057	89.38
420.28	69.38
420.503	88.38
420.726	76.38
420.948	94.38
421.171	77.38
421.394	96.38
421.617	100.38
421.839	108.38
422.062	76.38
422.285	97.38
422.507	135.38
422.73	198.38
422.953	188.38
423.175	103.38
423.398	78.38
423.621	95.38
423.843	93.38
424.066	65.38
424.288	86.38
424.511	72.38
424.733	88.38
424.956	92.38
425.178	82.38
425.401	81.38
425.623	76.38
425.846	69.38
426.068	75.38
426.291	81.38
426.513	86.38
426.735	82.38
426.958	69.38
427.18	83.38
427.402	77.38
427.625	86.38
427.847	83.38
428.069	84.38
428.292	105.38
428.514	116.38
428.736	79.38
428.958	87.38
429.181	91.38
429.403	80.38
429.625	77.38
429.847	104.38
430.069	100.38
430.292	128.38
430.514	96.38
430.736	75.38
430.958	92.38
431.18	73.38
431.402	82.38
431.624	81.38
431.846	93.38
432.068	94.38
432.29	78.38
432.512	81.38
432.734	84.38
432.956	71.38
433.178	79.38
433.4	69.38
433.622	80.38
433.844	80.38
434.066	80.38
434.287	91.38
434.509	82.38
434.731	88.38
434.953	78.38
435.175	82.38
435.397	89.38
435.618	80.38
435.84	78.38
436.062	77.38
436.284	87.38
436.505	91.38
436.727	74.38
436.949	87.38
437.17	88.38
437.392	81.38
437.614	88.38
437.835	85.38
438.057	83.38
438.278	95.38
438.5	97.38
438.721	78.38
438.943	77.38
439.165	74.38
439.386	72.38
439.608	82.38
439.829	86.38
440.05	70.38
440.272	87.38
440.493	75.38
440.715	63.38
440.936	83.38
441.158	82.38
441.379	74.38
441.6	84.38
441.822	90.38
442.043	88.38
442.264	83.38
442.486	90.38
442.707	85.38
442.928	83.38
443.149	104.38
443.371	106.38
443.592	121.38
443.813	98.38
444.034	111.38
444.255	81.38
444.476	87.38
444.698	81.38
444.919	81.38
445.14	168.38
445.361	131.38
445.582	121.38
445.803	123.38
446.024	87.38
446.245	86.38
446.466	85.38
446.687	74.38
446.908	91.38
447.129	71.38
447.35	77.38
447.571	75.38
447.792	81.38
448.013	79.38
448.234	85.38
448.455	70.38
448.675	61.38
448.896	78.38
449.117	82.38
449.338	93.38
449.559	82.38
449.779	74.38
450	90.38
450.221	86.38
450.442	78.38
450.662	81.38
450.883	89.38
451.104	76.38
451.324	86.38
451.545	73.38
451.766	85.38
451.986	67.38
452.207	82.38
452.428	75.38
452.648	82.38
452.869	71.38
453.089	81.38
453.31	70.38
453.53	89.38
453.751	79.38
453.971	82.38
454.192	84.38
454.412	77.38
454.633	86.38
454.853	87.38
455.073	83.38
455.294	68.38
455.514	79.38
455.734	79.38
455.955	88.38
456.175	88.38
456.395	75.38
456.616	76.38
456.836	88.38
457.056	76.38
457.276	82.38
457.497	80.38
457.717	71.38
457.937	90.38
458.157	84.38
458.377	83.38
458.598	82.38
458.818	67.38
459.038	81.38
459.258	87.38
459.478	82.38
459.698	91.38
459.918	71.38
460.138	78.38
460.358	79.38
460.578	92.38
460.798	85.38
461.018	91.38
461.238	83.38
461.458	90.38
461.678	70.38
461.898	74.38
462.118	72.38
462.338	69.38
462.558	79.38
462.777	79.38
462.997	81.38
463.217	84.38
463.437	89.38
463.657	75.38
463.876	91.38
464.096	73.38
464.316	75.38
464.536	85.38
464.755	89.38
464.975	84.38
465.195	83.38
465.414	61.38
465.634	58.38
465.854	79.38
466.073	82.38
466.293	87.38
466.512	85.38
466.732	95.38
466.951	101.38
467.171	85.38
467.391	78.38
467.61	75.38
467.829	83.38
468.049	73.38
468.268	77.38
468.488	88.38
468.707	89.38
468.927	72.38
469.146	85.38
469.365	79.38
469.585	77.38
469.804	83.38
470.023	74.38
470.243	79.38
470.462	93.38
470.681	87.38
470.901	89.38
471.12	72.38
471.339	73.38
471.558	84.38
471.777	76.38
471.997	87.38
472.216	89.38
472.435	89.38
472.654	89.38
472.873	81.38
473.092	91.38
473.311	83.38
473.53	69.38
473.749	70.38
473.968	78.38
474.187	76.38
474.406	83.38
474.625	77.38
474.844	82.38
475.063	61.38
475.282	66.38
475.501	79.38
475.72	84.38
475.939	57.38
476.158	78.38
476.377	94.38
476.596	83.38
476.814	89.38
477.033	92.38
477.252	84.38
477.471	87.38
477.69	90.38
477.908	81.38
478.127	85.38
478.346	87.38
478.564	91.38
478.783	84.38
479.002	82.38
479.22	91.38
479.439	95.38
479.658	82.38
479.876	76.38
480.095	86.38
480.313	77.38
480.532	85.38
480.751	87.38
480.969	89.38
481.188	84.38
481.406	76.38
481.624	73.38
481.843	81.38
482.061	74.38
482.28	83.38
482.498	77.38
482.717	64.38
482.935	80.38
483.153	82.38
483.372	80.38
483.59	83.38
483.808	73.38
484.027	96.38
484.245	75.38
484.463	86.38
484.681	89.38
484.9	73.38
485.118	74.38
485.336	78.38
485.554	71.38
485.772	71.38
485.99	85.38
486.209	77.38
486.427	69.38
486.645	86.38
486.863	91.38
487.081	81.38
487.299	88.38
487.517	87.38
487.735	86.38
487.953	84.38
488.171	89.38
488.389	75.38
488.607	77.38
488.825	86.38
489.043	69.38
489.261	81.38
489.479	80.38
489.696	66.38
489.914	95.38
490.132	70.38
490.35	84.38
490.568	76.38
490.786	95.38
491.003	84.38
491.221	76.38
491.439	83.38
491.657	74.38
491.874	84.38
492.092	90.38
492.31	69.38
492.527	67.38
492.745	83.38
492.963	98.38
493.18	88.38
493.398	74.38
493.615	70.38
493.833	96.38
494.05	83.38
494.268	71.38
494.485	81.38
494.703	91.38
494.92	84.38
495.138	75.38
495.355	83.38
495.573	73.38
495.79	82.38
496.008	88.38
496.225	74.38
496.442	88.38
496.66	90.38
496.877	71.38
497.094	83.38
497.312	67.38
497.529	86.38
497.746	76.38
497.963	100.38
498.181	87.38
498.398	85.38
498.615	84.38
498.832	85.38
499.049	77.38
499.267	81.38
499.484	84.38
499.701	82.38
499.918	84.38
500.135	78.38
500.352	97.38
500.569	79.38
500.786	90.38
501.003	85.38
501.22	80.38
501.437	87.38
501.654	72.38
501.871	87.38
502.088	70.38
502.305	68.38
502.522	81.38
502.739	74.38
502.956	78.38
503.172	81.38
503.389	88.38
503.606	78.38
503.823	82.38
504.04	84.38
504.256	83.38
504.473	95.38
504.69	77.38
504.907	95.38
505.123	85.38
505.34	89.38
505.557	82.38
505.773	73.38
505.99	77.38
506.207	70.38
506.423	73.38
506.64	83.38
506.856	83.38
507.073	87.38
507.289	92.38
507.506	72.38
507.722	86.38
507.939	75.38
508.155	84.38
508.372	71.38
508.588	65.38
508.805	68.38
509.021	96.38
509.238	84.38
509.454	84.38
509.67	76.38
509.887	72.38
510.103	77.38
510.319	88.38
510.536	78.38
510.752	87.38
510.968	88.38
511.184	78.38
511.401	79.38
511.617	68.38
511.833	86.38
512.049	89.38
512.265	89.38
512.481	87.38
512.698	86.38
512.914	87.38
513.13	90.38
513.346	97.38
513.562	77.38
513.778	84.38
513.994	75.38
514.21	75.38
514.426	88.38
514.642	90.38
514.858	89.38
515.074	84.38
515.29	93.38
515.506	75.38
515.721	92.38
515.937	70.38
516.153	75.38
516.369	77.38
516.585	86.38
516.801	81.38
517.016	92.38
517.232	73.38
517.448	89.38
517.664	104.38
517.879	83.38
518.095	81.38
518.311	86.38
518.527	85.38
518.742	95.38
518.958	91.38
519.173	87.38
519.389	87.38
519.605	85.38
519.82	87.38
520.036	81.38
520.251	67.38
520.467	85.38
520.682	90.38
520.898	89.38
521.113	81.38
521.329	77.38
521.544	85.38
521.76	78.38
521.975	78.38
522.19	81.38
522.406	92.38
522.621	73.38
522.836	82.38
523.052	92.38
523.267	84.38
523.482	92.38
523.698	87.38
523.913	79.38
524.128	74.38
524.343	85.38
524.559	77.38
524.774	88.38
524.989	90.38
525.204	78.38
525.419	77.38
525.634	87.38
525.849	82.38
526.064	91.38
526.28	108.38
526.495	104.38
526.71	124.38
526.925	111.38
527.14	116.38
527.355	120.38
527.57	78.38
527.785	90.38
527.999	88.38
528.214	86.38
528.429	95.38
528.644	86.38
528.859	86.38
529.074	73.38
529.289	87.38
529.503	92.38
529.718	87.38
529.933	73.38
530.148	70.38
530.363	94.38
530.577	76.38
530.792	80.38
531.007	87.38
531.221	83.38
531.436	80.38
531.651	78.38
531.865	84.38
532.08	86.38
532.295	77.38
532.509	67.38
532.724	86.38
532.938	79.38
533.153	84.38
533.367	76.38
533.582	72.38
533.796	87.38
534.011	91.38
534.225	92.38
534.44	84.38
534.654	96.38
534.868	85.38
535.083	78.38
535.297	74.38
535.511	82.38
535.726	85.38
535.94	75.38
536.154	86.38
536.369	91.38
536.583	90.38
536.797	83.38
537.011	77.38
537.225	72.38
537.44	88.38
537.654	82.38
537.868	77.38
538.082	79.38
538.296	74.38
538.51	113.38
538.724	79.38
538.938	81.38
539.153	88.38
539.367	73.38
539.581	85.38
539.795	83.38
540.009	75.38
540.222	87.38
540.436	79.38
540.65	81.38
540.864	90.38
541.078	81.38
541.292	78.38
541.506	81.38
541.72	100.38
541.934	79.38
542.147	85.38
542.361	83.38
542.575	95.38
542.789	92.38
543.002	77.38
543.216	92.38
543.43	87.38
543.644	82.38
543.857	95.38
544.071	91.38
544.285	89.38
544.498	95.38
544.712	88.38
544.925	96.38
545.139	85.38
545.352	76.38
545.566	84.38
545.779	87.38
545.993	82.38
546.206	87.38
546.42	92.38
546.633	84.38
546.847	85.38
547.06	86.38
547.274	96.38
547.487	92.38
547.7	89.38
547.914	87.38
548.127	89.38
548.34	96.38
548.554	93.38
548.767	88.38
548.98	102.38
549.193	93.38
549.407	82.38
549.62	104.38
549.833	106.38
550.046	93.38
550.259	98.38
550.473	88.38
550.686	93.38
550.899	100.38
551.112	106.38
551.325	104.38
551.538	101.38
551.751	105.38
551.964	104.38
552.177	92.38
552.39	105.38
552.603	93.38
552.816	101.38
553.029	93.38
553.242	92.38
553.455	89.38
553.667	93.38
553.88	93.38
554.093	92.38
554.306	92.38
554.519	91.38
554.732	90.38
554.944	96.38
555.157	87.38
555.37	92.38
555.583	91.38
555.795	89.38
556.008	98.38
556.221	87.38
556.433	95.38
556.646	88.38
556.859	69.38
557.071	89.38
557.284	76.38
557.496	78.38
557.709	92.38
557.921	97.38
558.134	94.38
558.346	97.38
558.559	90.38
558.771	81.38
558.984	128.38
559.196	136.38
559.409	104.38
559.621	137.38
559.833	104.38
560.046	111.38
560.258	93.38
560.47	111.38
560.683	91.38
560.895	92.38
561.107	82.38
561.32	92.38
561.532	95.38
561.744	95.38
561.956	81.38
562.168	83.38
562.381	82.38
562.593	85.38
562.805	87.38
563.017	88.38
563.229	93.38
563.441	87.38
563.653	88.38
563.865	89.38
564.077	84.38
564.289	83.38
564.501	72.38
564.713	74.38
564.925	105.38
565.137	88.38
565.349	92.38
565.561	93.38
565.773	76.38
565.985	75.38
566.197	73.38
566.408	66.38
566.62	78.38
566.832	69.38
567.044	87.38
567.255	88.38
567.467	91.38
567.679	82.38
567.891	108.38
568.102	78.38
568.314	86.38
568.526	84.38
568.737	82.38
568.949	91.38
569.161	75.38
569.372	91.38
569.584	81.38
569.795	81.38
570.007	84.38
570.218	87.38
570.43	84.38
570.641	99.38
570.853	96.38
571.064	77.38
571.276	99.38
571.487	84.38
571.698	91.38
571.91	80.38
572.121	76.38
572.333	66.38
572.544	88.38
572.755	92.38
572.966	78.38
573.178	83.38
573.389	92.38
573.6	79.38
573.811	83.38
574.023	76.38
574.234	85.38
574.445	81.38
574.656	81.38
574.867	81.38
575.078	70.38
575.289	92.38
575.501	82.38
575.712	71.38
575.923	87.38
576.134	93.38
576.345	97.38
576.556	95.38
576.767	92.38
576.978	86.38
577.188	76.38
577.399	93.38
577.61	77.38
577.821	83.38
578.032	103.38
578.243	97.38
578.454	89.38
578.665	90.38
578.875	91.38
579.086	79.38
579.297	85.38
579.508	95.38
579.718	63.38
579.929	78.38
580.14	89.38
580.35	83.38
580.561	82.38
580.772	74.38
580.982	82.38
581.193	87.38
581.403	88.38
581.614	81.38
581.825	100.38
582.035	81.38
582.246	88.38
582.456	85.38
582.667	83.38
582.877	97.38
583.087	97.38
583.298	84.38
583.508	67.38
583.719	77.38
583.929	80.38
584.139	86.38
584.35	90.38
584.56	85.38
584.77	78.38
584.981	77.38
585.191	96.38
585.401	93.38
585.611	90.38
585.821	98.38
586.032	119.38
586.242	107.38
586.452	88.38
586.662	95.38
586.872	84.38
587.082	85.38
587.292	77.38
587.502	85.38
587.713	82.38
587.923	93.38
588.133	87.38
588.343	92.38
588.553	82.38
588.762	101.38
588.972	125.38
589.182	278.38
589.392	175.38
589.602	136.38
589.812	223.38
590.022	139.38
590.232	98.38
590.441	92.38
590.651	91.38
590.861	90.38
591.071	73.38
591.281	96.38
591.49	77.38
591.7	85.38
591.91	87.38
592.119	88.38
592.329	90.38
592.539	90.38
592.748	90.38
592.958	89.38
593.167	83.38
593.377	72.38
593.587	101.38
593.796	95.38
594.006	89.38
594.215	79.38
594.424	91.38
594.634	84.38
594.843	75.38
595.053	95.38
595.262	95.38
595.472	92.38
595.681	95.38
595.89	98.38
596.1	94.38
596.309	101.38
596.518	88.38
596.727	93.38
596.937	89.38
597.146	88.38
597.355	86.38
597.564	85.38
597.774	113.38
597.983	97.38
598.192	89.38
598.401	98.38
598.61	89.38
598.819	99.38
599.028	96.38
599.237	92.38
599.446	103.38
599.655	93.38
599.864	87.38
600.073	96.38
600.282	91.38
600.491	95.38
600.7	101.38
600.909	81.38
601.118	89.38
601.327	79.38
601.536	81.38
601.745	91.38
601.953	109.38
602.162	90.38
602.371	99.38
602.58	103.38
602.789	81.38
602.997	92.38
603.206	105.38
603.415	89.38
603.623	106.38
603.832	87.38
604.041	96.38
604.249	89.38
604.458	91.38
604.666	72.38
604.875	91.38
605.084	86.38
605.292	85.38
605.501	87.38
605.709	103.38
605.918	82.38
606.126	99.38
606.334	93.38
606.543	93.38
606.751	105.38
606.96	99.38
607.168	93.38
607.376	87.38
607.585	112.38
607.793	83.38
608.001	100.38
608.21	85.38
608.418	91.38
608.626	90.38
608.834	89.38
609.043	82.38
609.251	91.38
609.459	106.38
609.667	104.38
609.875	105.38
610.083	106.38
610.291	106.38
610.499	115.38
610.707	105.38
610.916	99.38
611.124	101.38
611.332	84.38
611.54	95.38
611.748	112.38
611.955	109.38
612.163	101.38
612.371	148.38
612.579	127.38
612.787	107.38
612.995	92.38
613.203	96.38
613.411	97.38
613.618	112.38
613.826	104.38
614.034	107.38
614.242	104.38
614.449	103.38
614.657	88.38
614.865	103.38
615.072	111.38
615.28	91.38
615.488	99.38
615.695	101.38
615.903	92.38
616.111	104.38
616.318	146.38
616.526	147.38
616.733	120.38
616.941	107.38
617.148	120.38
617.356	107.38
617.563	118.38
617.771	99.38
617.978	95.38
618.185	98.38
618.393	94.38
618.6	89.38
618.807	101.38
619.015	83.38
619.222	95.38
619.429	114.38
619.637	95.38
619.844	95.38
620.051	82.38
620.258	97.38
620.466	80.38
620.673	93.38
620.88	91.38
621.087	95.38
621.294	98.38
621.501	101.38
621.708	89.38
621.915	87.38
622.122	96.38
622.329	83.38
622.536	85.38
622.743	95.38
622.95	88.38
623.157	91.38
623.364	88.38
623.571	96.38
623.778	93.38
623.985	91.38
624.192	94.38
624.399	100.38
624.606	105.38
624.812	101.38
625.019	99.38
625.226	89.38
625.433	99.38
625.639	87.38
625.846	100.38
626.053	93.38
626.259	88.38
626.466	92.38
626.673	93.38
626.879	89.38
627.086	87.38
627.293	98.38
627.499	87.38
627.706	87.38
627.912	80.38
628.119	96.38
628.325	86.38
628.532	92.38
628.738	86.38
628.945	91.38
629.151	74.38
629.357	99.38
629.564	75.38
629.77	70.38
629.976	84.38
630.183	86.38
630.389	85.38
630.595	83.38
630.802	96.38
631.008	87.38
631.214	73.38
631.42	79.38
631.627	92.38
631.833	72.38
632.039	82.38
632.245	87.38
632.451	94.38
632.657	94.38
632.863	75.38
633.069	77.38
633.275	82.38
633.481	69.38
633.688	79.38
633.893	92.38
634.099	90.38
634.305	94.38
634.511	75.38
634.717	96.38
634.923	88.38
635.129	85.38
635.335	82.38
635.541	83.38
635.747	76.38
635.952	77.38
636.158	76.38
636.364	80.38
636.57	76.38
636.775	81.38
636.981	89.38
637.187	90.38
637.392	94.38
637.598	96.38
637.804	86.38
638.009	95.38
638.215	78.38
638.421	93.38
638.626	76.38
638.832	76.38
639.037	85.38
639.243	92.38
639.448	72.38
639.654	98.38
639.859	85.38
640.065	102.38
640.27	77.38
640.475	59.38
640.681	84.38
640.886	71.38
641.091	75.38
641.297	96.38
641.502	86.38
641.707	85.38
641.913	98.38
642.118	78.38
642.323	85.38
642.528	95.38
642.733	95.38
642.939	92.38
643.144	93.38
643.349	87.38
643.554	91.38
643.759	89.38
643.964	98.38
644.169	105.38
644.374	76.38
644.579	84.38
644.784	81.38
644.989	95.38
645.194	78.38
645.399	97.38
645.604	86.38
645.809	83.38
646.014	83.38
646.219	100.38
646.423	102.38
646.628	107.38
646.833	89.38
647.038	85.38
647.243	90.38
647.447	89.38
647.652	90.38
647.857	75.38
648.062	92.38
648.266	89.38
648.471	85.38
648.676	89.38
648.88	86.38
649.085	95.38
649.289	67.38
649.494	86.38
649.698	73.38
649.903	90.38
650.107	88.38
650.312	87.38
650.516	87.38
650.721	78.38
650.925	103.38
651.13	88.38
651.334	79.38
651.539	83.38
651.743	75.38
651.947	81.38
652.152	75.38
652.356	79.38
652.56	89.38
652.764	84.38
652.969	82.38
653.173	85.38
653.377	68.38
653.581	87.38
653.785	77.38
653.99	98.38
654.194	86.38
654.398	85.38
654.602	77.38
654.806	106.38
655.01	82.38
655.214	83.38
655.418	86.38
655.622	75.38
655.826	69.38
656.03	85.38
656.234	83.38
656.438	74.38
656.642	84.38
656.846	81.38
657.049	72.38
657.253	81.38
657.457	97.38
657.661	79.38
657.865	79.38
658.068	78.38
658.272	77.38
658.476	84.38
658.68	78.38
658.883	90.38
659.087	76.38
659.291	68.38
659.494	83.38
659.698	74.38
659.901	80.38
660.105	89.38
660.309	83.38
660.512	73.38
660.716	81.38
660.919	80.38
661.123	89.38
661.326	88.38
661.53	76.38
661.733	85.38
661.936	78.38
662.14	71.38
662.343	92.38
662.546	90.38
662.75	80.38
662.953	83.38
663.156	85.38
663.36	89.38
663.563	80.38
663.766	72.38
663.969	80.38
664.173	84.38
664.376	90.38
664.579	87.38
664.782	76.38
664.985	77.38
665.188	67.38
665.391	98.38
665.594	83.38
665.797	83.38
666	89.38
666.203	82.38
666.406	93.38
666.609	63.38
666.812	84.38
667.015	62.38
667.218	75.38
667.421	86.38
667.624	82.38
667.827	72.38
668.03	83.38
668.232	77.38
668.435	84.38
668.638	78.38
668.841	89.38
669.043	81.38
669.246	82.38
669.449	79.38
669.651	69.38
669.854	70.38
670.057	71.38
670.259	72.38
670.462	81.38
670.665	93.38
670.867	95.38
671.07	80.38
671.272	84.38
671.475	87.38
671.677	91.38
671.88	66.38
672.082	83.38
672.284	85.38
672.487	67.38
672.689	83.38
672.892	74.38
