Data from HP_1_HRD10591_00045.txt Node
Date: Mon Jan 19 14:15:30 EST 2026
User: Yrep
Spectrometer: HR+D1059
Trigger mode: 1
Integration Time (sec): 1.000000E-1
Scans to average: 1
Electric dark correction enabled: true
Nonlinearity correction enabled: false
Boxcar width: 0
XAxis mode: Wavelengths
Number of Pixels in Spectrum: 2048
>>>>>Begin Spectral Data<<<<<
223.165	-10.25
223.4	-10.25
223.635	-10.25
223.869	-34.25
224.104	-18.25
224.338	-13.25
224.573	-12.25
224.808	-21.25
225.042	-5.25
225.277	-3.25
225.511	-0.25
225.746	7.75
225.98	-1.25
226.215	15.75
226.449	8.75
226.683	29.75
226.918	24.75
227.152	32.75
227.387	43.75
227.621	46.75
227.856	37.75
228.09	59.75
228.324	76.75
228.559	56.75
228.793	73.75
229.027	53.75
229.262	64.75
229.496	64.75
229.73	71.75
229.964	79.75
230.199	74.75
230.433	78.75
230.667	77.75
230.901	80.75
231.136	85.75
231.37	76.75
231.604	88.75
231.838	86.75
232.072	86.75
232.306	89.75
232.541	86.75
232.775	86.75
233.009	103.75
233.243	79.75
233.477	84.75
233.711	84.75
233.945	86.75
234.179	84.75
234.413	93.75
234.647	86.75
234.881	99.75
235.115	74.75
235.349	74.75
235.583	79.75
235.817	78.75
236.051	67.75
236.285	75.75
236.519	82.75
236.753	94.75
236.987	84.75
237.221	72.75
237.455	88.75
237.689	75.75
237.922	87.75
238.156	81.75
238.39	84.75
238.624	81.75
238.858	74.75
239.091	80.75
239.325	81.75
239.559	80.75
239.793	100.75
240.027	85.75
240.26	63.75
240.494	77.75
240.728	76.75
240.961	58.75
241.195	85.75
241.429	90.75
241.662	76.75
241.896	79.75
242.13	83.75
242.363	79.75
242.597	65.75
242.83	88.75
243.064	89.75
243.298	90.75
243.531	77.75
243.765	90.75
243.998	90.75
244.232	97.75
244.465	70.75
244.699	88.75
244.932	89.75
245.166	92.75
245.399	80.75
245.633	72.75
245.866	79.75
246.099	76.75
246.333	82.75
246.566	79.75
246.8	75.75
247.033	84.75
247.266	83.75
247.5	79.75
247.733	71.75
247.966	83.75
248.2	80.75
248.433	72.75
248.666	81.75
248.899	76.75
249.133	77.75
249.366	78.75
249.599	80.75
249.832	75.75
250.066	88.75
250.299	75.75
250.532	84.75
250.765	72.75
250.998	74.75
251.231	62.75
251.465	71.75
251.698	81.75
251.931	85.75
252.164	82.75
252.397	74.75
252.63	69.75
252.863	81.75
253.096	89.75
253.329	100.75
253.562	88.75
253.795	79.75
254.028	101.75
254.261	76.75
254.494	94.75
254.727	78.75
254.96	68.75
255.193	77.75
255.426	91.75
255.659	81.75
255.892	92.75
256.124	75.75
256.357	99.75
256.59	88.75
256.823	87.75
257.056	85.75
257.289	76.75
257.521	76.75
257.754	77.75
257.987	87.75
258.22	86.75
258.452	90.75
258.685	81.75
258.918	82.75
259.151	85.75
259.383	76.75
259.616	78.75
259.849	97.75
260.081	90.75
260.314	88.75
260.547	100.75
260.779	90.75
261.012	71.75
261.244	100.75
261.477	91.75
261.71	79.75
261.942	90.75
262.175	90.75
262.407	92.75
262.64	80.75
262.872	88.75
263.105	88.75
263.337	90.75
263.57	93.75
263.802	86.75
264.035	78.75
264.267	82.75
264.499	78.75
264.732	93.75
264.964	86.75
265.197	70.75
265.429	86.75
265.661	79.75
265.894	86.75
266.126	91.75
266.358	86.75
266.591	86.75
266.823	75.75
267.055	78.75
267.287	73.75
267.52	75.75
267.752	82.75
267.984	82.75
268.216	96.75
268.448	86.75
268.681	75.75
268.913	96.75
269.145	100.75
269.377	95.75
269.609	78.75
269.841	84.75
270.073	84.75
270.306	81.75
270.538	100.75
270.77	74.75
271.002	91.75
271.234	88.75
271.466	97.75
271.698	90.75
271.93	79.75
272.162	88.75
272.394	85.75
272.626	76.75
272.858	70.75
273.09	92.75
273.322	84.75
273.553	89.75
273.785	78.75
274.017	81.75
274.249	72.75
274.481	89.75
274.713	78.75
274.945	90.75
275.176	73.75
275.408	88.75
275.64	79.75
275.872	93.75
276.104	80.75
276.335	74.75
276.567	93.75
276.799	96.75
277.031	78.75
277.262	92.75
277.494	111.75
277.726	93.75
277.957	76.75
278.189	86.75
278.421	86.75
278.652	76.75
278.884	97.75
279.115	70.75
279.347	96.75
279.579	93.75
279.81	94.75
280.042	88.75
280.273	99.75
280.505	90.75
280.736	80.75
280.968	91.75
281.199	88.75
281.431	77.75
281.662	86.75
281.894	86.75
282.125	95.75
282.356	87.75
282.588	83.75
282.819	88.75
283.051	90.75
283.282	93.75
283.513	77.75
283.745	92.75
283.976	83.75
284.207	88.75
284.439	81.75
284.67	88.75
284.901	90.75
285.132	94.75
285.364	98.75
285.595	86.75
285.826	79.75
286.057	89.75
286.288	84.75
286.52	81.75
286.751	86.75
286.982	79.75
287.213	88.75
287.444	92.75
287.675	71.75
287.906	91.75
288.138	90.75
288.369	77.75
288.6	86.75
288.831	87.75
289.062	71.75
289.293	96.75
289.524	103.75
289.755	76.75
289.986	88.75
290.217	88.75
290.448	95.75
290.679	81.75
290.91	103.75
291.141	84.75
291.371	88.75
291.602	86.75
291.833	91.75
292.064	82.75
292.295	92.75
292.526	96.75
292.757	95.75
292.987	83.75
293.218	92.75
293.449	88.75
293.68	80.75
293.91	86.75
294.141	94.75
294.372	89.75
294.603	97.75
294.833	89.75
295.064	100.75
295.295	83.75
295.525	90.75
295.756	89.75
295.987	84.75
296.217	98.75
296.448	64.75
296.679	91.75
296.909	82.75
297.14	98.75
297.37	89.75
297.601	91.75
297.831	84.75
298.062	94.75
298.292	94.75
298.523	84.75
298.753	84.75
298.984	73.75
299.214	90.75
299.445	79.75
299.675	72.75
299.905	84.75
300.136	91.75
300.366	95.75
300.597	83.75
300.827	78.75
301.057	88.75
301.288	90.75
301.518	104.75
301.748	89.75
301.979	98.75
302.209	82.75
302.439	95.75
302.669	82.75
302.9	86.75
303.13	79.75
303.36	102.75
303.59	79.75
303.82	94.75
304.051	75.75
304.281	77.75
304.511	91.75
304.741	96.75
304.971	75.75
305.201	77.75
305.431	88.75
305.661	79.75
305.891	83.75
306.121	80.75
306.352	78.75
306.582	86.75
306.812	95.75
307.042	93.75
307.272	81.75
307.502	95.75
307.731	88.75
307.961	85.75
308.191	88.75
308.421	98.75
308.651	93.75
308.881	100.75
309.111	107.75
309.341	75.75
309.571	92.75
309.8	78.75
310.03	86.75
310.26	92.75
310.49	81.75
310.72	66.75
310.949	95.75
311.179	87.75
311.409	101.75
311.639	92.75
311.868	86.75
312.098	84.75
312.328	91.75
312.557	86.75
312.787	79.75
313.017	90.75
313.246	75.75
313.476	82.75
313.706	82.75
313.935	81.75
314.165	92.75
314.394	82.75
314.624	85.75
314.853	87.75
315.083	95.75
315.312	75.75
315.542	93.75
315.771	86.75
316.001	84.75
316.23	86.75
316.46	97.75
316.689	79.75
316.919	93.75
317.148	85.75
317.377	91.75
317.607	92.75
317.836	107.75
318.065	91.75
318.295	90.75
318.524	82.75
318.753	90.75
318.983	94.75
319.212	80.75
319.441	90.75
319.67	94.75
319.9	97.75
320.129	96.75
320.358	93.75
320.587	83.75
320.816	82.75
321.046	79.75
321.275	91.75
321.504	81.75
321.733	76.75
321.962	102.75
322.191	86.75
322.42	76.75
322.649	106.75
322.878	104.75
323.108	82.75
323.337	88.75
323.566	85.75
323.795	104.75
324.024	94.75
324.253	70.75
324.482	85.75
324.71	81.75
324.939	74.75
325.168	88.75
325.397	87.75
325.626	90.75
325.855	91.75
326.084	78.75
326.313	71.75
326.542	91.75
326.77	90.75
326.999	72.75
327.228	88.75
327.457	81.75
327.686	86.75
327.914	80.75
328.143	94.75
328.372	90.75
328.6	80.75
328.829	89.75
329.058	107.75
329.287	88.75
329.515	73.75
329.744	72.75
329.972	108.75
330.201	80.75
330.43	78.75
330.658	91.75
330.887	98.75
331.115	66.75
331.344	75.75
331.572	87.75
331.801	93.75
332.03	110.75
332.258	90.75
332.486	88.75
332.715	89.75
332.943	92.75
333.172	78.75
333.4	81.75
333.629	93.75
333.857	90.75
334.085	92.75
334.314	87.75
334.542	80.75
334.771	75.75
334.999	90.75
335.227	72.75
335.455	88.75
335.684	96.75
335.912	87.75
336.14	87.75
336.369	72.75
336.597	78.75
336.825	90.75
337.053	80.75
337.281	77.75
337.51	80.75
337.738	93.75
337.966	94.75
338.194	95.75
338.422	93.75
338.65	90.75
338.878	90.75
339.106	80.75
339.334	85.75
339.562	73.75
339.79	93.75
340.018	79.75
340.246	93.75
340.474	84.75
340.702	91.75
340.93	85.75
341.158	81.75
341.386	95.75
341.614	80.75
341.842	98.75
342.07	72.75
342.298	88.75
342.526	99.75
342.754	88.75
342.981	88.75
343.209	78.75
343.437	86.75
343.665	83.75
343.893	82.75
344.12	84.75
344.348	82.75
344.576	91.75
344.804	79.75
345.031	91.75
345.259	95.75
345.487	90.75
345.714	88.75
345.942	102.75
346.17	98.75
346.397	76.75
346.625	94.75
346.853	83.75
347.08	75.75
347.308	83.75
347.535	84.75
347.763	87.75
347.99	86.75
348.218	96.75
348.445	88.75
348.673	81.75
348.9	94.75
349.128	79.75
349.355	86.75
349.583	78.75
349.81	73.75
350.037	86.75
350.265	89.75
350.492	90.75
350.72	84.75
350.947	99.75
351.174	81.75
351.402	80.75
351.629	93.75
351.856	80.75
352.083	82.75
352.311	90.75
352.538	85.75
352.765	84.75
352.992	102.75
353.22	90.75
353.447	92.75
353.674	91.75
353.901	97.75
354.128	83.75
354.355	86.75
354.583	78.75
354.81	76.75
355.037	88.75
355.264	80.75
355.491	92.75
355.718	90.75
355.945	90.75
356.172	94.75
356.399	86.75
356.626	87.75
356.853	98.75
357.08	96.75
357.307	94.75
357.534	84.75
357.761	98.75
357.988	84.75
358.215	80.75
358.441	89.75
358.668	86.75
358.895	84.75
359.122	85.75
359.349	97.75
359.576	89.75
359.802	82.75
360.029	100.75
360.256	101.75
360.483	86.75
360.709	77.75
360.936	87.75
361.163	75.75
361.39	82.75
361.616	79.75
361.843	102.75
362.07	85.75
362.296	74.75
362.523	80.75
362.749	77.75
362.976	95.75
363.203	95.75
363.429	86.75
363.656	84.75
363.882	89.75
364.109	98.75
364.335	98.75
364.562	87.75
364.788	88.75
365.015	90.75
365.241	98.75
365.468	74.75
365.694	85.75
365.92	86.75
366.147	88.75
366.373	84.75
366.599	92.75
366.826	73.75
367.052	99.75
367.278	84.75
367.505	98.75
367.731	80.75
367.957	80.75
368.184	92.75
368.41	89.75
368.636	71.75
368.862	78.75
369.089	78.75
369.315	72.75
369.541	72.75
369.767	98.75
369.993	79.75
370.219	86.75
370.445	86.75
370.672	69.75
370.898	77.75
371.124	79.75
371.35	80.75
371.576	98.75
371.802	76.75
372.028	85.75
372.254	88.75
372.48	82.75
372.706	87.75
372.932	89.75
373.158	91.75
373.384	91.75
373.61	95.75
373.835	80.75
374.061	83.75
374.287	97.75
374.513	79.75
374.739	89.75
374.965	88.75
375.191	90.75
375.416	87.75
375.642	87.75
375.868	86.75
376.094	88.75
376.319	86.75
376.545	79.75
376.771	70.75
376.997	90.75
377.222	92.75
377.448	85.75
377.674	82.75
377.899	95.75
378.125	88.75
378.35	78.75
378.576	92.75
378.802	83.75
379.027	75.75
379.253	78.75
379.478	89.75
379.704	79.75
379.929	71.75
380.155	86.75
380.38	84.75
380.606	86.75
380.831	86.75
381.057	91.75
381.282	79.75
381.507	88.75
381.733	89.75
381.958	88.75
382.184	90.75
382.409	88.75
382.634	90.75
382.86	98.75
383.085	83.75
383.31	70.75
383.535	94.75
383.761	86.75
383.986	98.75
384.211	82.75
384.436	76.75
384.662	92.75
384.887	90.75
385.112	88.75
385.337	77.75
385.562	86.75
385.787	90.75
386.013	98.75
386.238	93.75
386.463	98.75
386.688	86.75
386.913	80.75
387.138	77.75
387.363	92.75
387.588	94.75
387.813	95.75
388.038	75.75
388.263	78.75
388.488	84.75
388.713	82.75
388.938	86.75
389.163	77.75
389.387	76.75
389.612	77.75
389.837	89.75
390.062	74.75
390.287	94.75
390.512	81.75
390.736	85.75
390.961	70.75
391.186	88.75
391.411	73.75
391.636	90.75
391.86	72.75
392.085	80.75
392.31	96.75
392.534	78.75
392.759	88.75
392.984	101.75
393.208	114.75
393.433	141.75
393.658	123.75
393.882	80.75
394.107	89.75
394.331	89.75
394.556	90.75
394.78	87.75
395.005	66.75
395.229	83.75
395.454	95.75
395.678	102.75
395.903	82.75
396.127	95.75
396.352	98.75
396.576	96.75
396.801	128.75
397.025	139.75
397.249	99.75
397.474	79.75
397.698	75.75
397.922	81.75
398.147	79.75
398.371	94.75
398.595	78.75
398.82	88.75
399.044	81.75
399.268	76.75
399.492	74.75
399.717	81.75
399.941	91.75
400.165	85.75
400.389	96.75
400.613	73.75
400.837	85.75
401.062	86.75
401.286	86.75
401.51	78.75
401.734	90.75
401.958	76.75
402.182	87.75
402.406	81.75
402.63	79.75
402.854	99.75
403.078	98.75
403.302	91.75
403.526	77.75
403.75	77.75
403.974	82.75
404.198	86.75
404.422	104.75
404.645	99.75
404.869	100.75
405.093	84.75
405.317	87.75
405.541	82.75
405.765	91.75
405.988	74.75
406.212	95.75
406.436	93.75
406.66	79.75
406.883	78.75
407.107	71.75
407.331	79.75
407.555	80.75
407.778	89.75
408.002	72.75
408.226	86.75
408.449	77.75
408.673	98.75
408.896	96.75
409.12	88.75
409.344	83.75
409.567	73.75
409.791	80.75
410.014	96.75
410.238	98.75
410.461	96.75
410.685	70.75
410.908	87.75
411.132	92.75
411.355	88.75
411.578	88.75
411.802	78.75
412.025	72.75
412.249	95.75
412.472	88.75
412.695	74.75
412.919	107.75
413.142	70.75
413.365	95.75
413.589	86.75
413.812	90.75
414.035	86.75
414.258	86.75
414.482	75.75
414.705	94.75
414.928	93.75
415.151	89.75
415.374	78.75
415.597	89.75
415.821	80.75
416.044	76.75
416.267	81.75
416.49	84.75
416.713	77.75
416.936	89.75
417.159	83.75
417.382	87.75
417.605	84.75
417.828	88.75
418.051	76.75
418.274	79.75
418.497	72.75
418.72	87.75
418.943	98.75
419.166	90.75
419.389	93.75
419.611	91.75
419.834	77.75
420.057	85.75
420.28	96.75
420.503	77.75
420.726	86.75
420.948	86.75
421.171	79.75
421.394	98.75
421.617	98.75
421.839	86.75
422.062	86.75
422.285	88.75
422.507	119.75
422.73	150.75
422.953	157.75
423.175	106.75
423.398	81.75
423.621	70.75
423.843	58.75
424.066	85.75
424.288	72.75
424.511	79.75
424.733	86.75
424.956	90.75
425.178	74.75
425.401	90.75
425.623	89.75
425.846	77.75
426.068	88.75
426.291	87.75
426.513	77.75
426.735	86.75
426.958	78.75
427.18	65.75
427.402	91.75
427.625	93.75
427.847	91.75
428.069	68.75
428.292	81.75
428.514	100.75
428.736	73.75
428.958	89.75
429.181	89.75
429.403	82.75
429.625	79.75
429.847	98.75
430.069	90.75
430.292	103.75
430.514	106.75
430.736	107.75
430.958	99.75
431.18	100.75
431.402	71.75
431.624	90.75
431.846	86.75
432.068	79.75
432.29	102.75
432.512	71.75
432.734	71.75
432.956	72.75
433.178	80.75
433.4	89.75
433.622	84.75
433.844	86.75
434.066	86.75
434.287	92.75
434.509	82.75
434.731	91.75
434.953	81.75
435.175	88.75
435.397	92.75
435.618	86.75
435.84	68.75
436.062	84.75
436.284	78.75
436.505	78.75
436.727	87.75
436.949	74.75
437.17	90.75
437.392	92.75
437.614	95.75
437.835	91.75
438.057	87.75
438.278	72.75
438.5	88.75
438.721	87.75
438.943	95.75
439.165	84.75
439.386	88.75
439.608	84.75
439.829	72.75
440.05	80.75
440.272	69.75
440.493	76.75
440.715	88.75
440.936	91.75
441.158	85.75
441.379	92.75
441.6	81.75
441.822	83.75
442.043	92.75
442.264	95.75
442.486	73.75
442.707	91.75
442.928	86.75
443.149	88.75
443.371	98.75
443.592	108.75
443.813	102.75
444.034	89.75
444.255	87.75
444.476	88.75
444.698	73.75
444.919	92.75
445.14	158.75
445.361	151.75
445.582	119.75
445.803	120.75
446.024	96.75
446.245	81.75
446.466	72.75
446.687	90.75
446.908	78.75
447.129	88.75
447.35	89.75
447.571	86.75
447.792	77.75
448.013	72.75
448.234	63.75
448.455	86.75
448.675	98.75
448.896	88.75
449.117	91.75
449.338	80.75
449.559	99.75
449.779	80.75
450	64.75
450.221	68.75
450.442	69.75
450.662	87.75
450.883	92.75
451.104	88.75
451.324	94.75
451.545	80.75
451.766	94.75
451.986	89.75
452.207	88.75
452.428	84.75
452.648	80.75
452.869	71.75
453.089	90.75
453.31	88.75
453.53	82.75
453.751	78.75
453.971	85.75
454.192	77.75
454.412	92.75
454.633	96.75
454.853	80.75
455.073	76.75
455.294	73.75
455.514	91.75
455.734	87.75
455.955	94.75
456.175	91.75
456.395	68.75
456.616	84.75
456.836	82.75
457.056	94.75
457.276	75.75
457.497	86.75
457.717	91.75
457.937	87.75
458.157	80.75
458.377	87.75
458.598	69.75
458.818	80.75
459.038	87.75
459.258	80.75
459.478	87.75
459.698	84.75
459.918	86.75
460.138	85.75
460.358	97.75
460.578	78.75
460.798	80.75
461.018	100.75
461.238	76.75
461.458	95.75
461.678	90.75
461.898	80.75
462.118	84.75
462.338	84.75
462.558	93.75
462.777	85.75
462.997	95.75
463.217	85.75
463.437	93.75
463.657	81.75
463.876	72.75
464.096	88.75
464.316	90.75
464.536	87.75
464.755	89.75
464.975	85.75
465.195	90.75
465.414	91.75
465.634	94.75
465.854	60.75
466.073	83.75
466.293	87.75
466.512	79.75
466.732	79.75
466.951	74.75
467.171	99.75
467.391	77.75
467.61	85.75
467.829	90.75
468.049	76.75
468.268	85.75
468.488	82.75
468.707	88.75
468.927	81.75
469.146	93.75
469.365	94.75
469.585	86.75
469.804	72.75
470.023	64.75
470.243	90.75
470.462	76.75
470.681	87.75
470.901	77.75
471.12	72.75
471.339	87.75
471.558	92.75
471.777	82.75
471.997	84.75
472.216	75.75
472.435	82.75
472.654	74.75
472.873	110.75
473.092	77.75
473.311	92.75
473.53	94.75
473.749	67.75
473.968	93.75
474.187	64.75
474.406	90.75
474.625	80.75
474.844	91.75
475.063	80.75
475.282	83.75
475.501	83.75
475.72	83.75
475.939	88.75
476.158	81.75
476.377	92.75
476.596	97.75
476.814	94.75
477.033	85.75
477.252	86.75
477.471	74.75
477.69	100.75
477.908	88.75
478.127	92.75
478.346	84.75
478.564	88.75
478.783	82.75
479.002	77.75
479.22	85.75
479.439	92.75
479.658	71.75
479.876	83.75
480.095	79.75
480.313	88.75
480.532	98.75
480.751	95.75
480.969	89.75
481.188	81.75
481.406	87.75
481.624	84.75
481.843	85.75
482.061	89.75
482.28	87.75
482.498	70.75
482.717	92.75
482.935	71.75
483.153	78.75
483.372	98.75
483.59	77.75
483.808	90.75
484.027	81.75
484.245	83.75
484.463	92.75
484.681	81.75
484.9	94.75
485.118	109.75
485.336	95.75
485.554	75.75
485.772	98.75
485.99	86.75
486.209	90.75
486.427	90.75
486.645	80.75
486.863	84.75
487.081	86.75
487.299	99.75
487.517	79.75
487.735	118.75
487.953	90.75
488.171	92.75
488.389	88.75
488.607	90.75
488.825	90.75
489.043	87.75
489.261	96.75
489.479	89.75
489.696	94.75
489.914	79.75
490.132	85.75
490.35	90.75
490.568	84.75
490.786	74.75
491.003	82.75
491.221	106.75
491.439	101.75
491.657	86.75
491.874	94.75
492.092	78.75
492.31	85.75
492.527	73.75
492.745	89.75
492.963	84.75
493.18	78.75
493.398	84.75
493.615	97.75
493.833	90.75
494.05	82.75
494.268	94.75
494.485	88.75
494.703	94.75
494.92	81.75
495.138	87.75
495.355	85.75
495.573	85.75
495.79	77.75
496.008	80.75
496.225	90.75
496.442	90.75
496.66	85.75
496.877	99.75
497.094	79.75
497.312	92.75
497.529	78.75
497.746	79.75
497.963	90.75
498.181	81.75
498.398	83.75
498.615	72.75
498.832	86.75
499.049	90.75
499.267	81.75
499.484	90.75
499.701	92.75
499.918	80.75
500.135	80.75
500.352	80.75
500.569	90.75
500.786	91.75
501.003	91.75
501.22	84.75
501.437	96.75
501.654	81.75
501.871	78.75
502.088	88.75
502.305	77.75
502.522	82.75
502.739	86.75
502.956	82.75
503.172	97.75
503.389	97.75
503.606	84.75
503.823	93.75
504.04	95.75
504.256	99.75
504.473	86.75
504.69	88.75
504.907	95.75
505.123	76.75
505.34	90.75
505.557	101.75
505.773	92.75
505.99	96.75
506.207	94.75
506.423	89.75
506.64	98.75
506.856	88.75
507.073	85.75
507.289	77.75
507.506	84.75
507.722	62.75
507.939	79.75
508.155	78.75
508.372	74.75
508.588	70.75
508.805	84.75
509.021	102.75
509.238	106.75
509.454	96.75
509.67	75.75
509.887	80.75
510.103	96.75
510.319	87.75
510.536	95.75
510.752	87.75
510.968	72.75
511.184	85.75
511.401	73.75
511.617	86.75
511.833	97.75
512.049	76.75
512.265	98.75
512.481	84.75
512.698	76.75
512.914	82.75
513.13	90.75
513.346	95.75
513.562	92.75
513.778	95.75
513.994	72.75
514.21	73.75
514.426	86.75
514.642	100.75
514.858	84.75
515.074	97.75
515.29	79.75
515.506	90.75
515.721	90.75
515.937	84.75
516.153	96.75
516.369	85.75
516.585	81.75
516.801	90.75
517.016	91.75
517.232	86.75
517.448	90.75
517.664	77.75
517.879	69.75
518.095	97.75
518.311	85.75
518.527	91.75
518.742	93.75
518.958	82.75
519.173	93.75
519.389	84.75
519.605	91.75
519.82	76.75
520.036	87.75
520.251	90.75
520.467	98.75
520.682	81.75
520.898	72.75
521.113	86.75
521.329	92.75
521.544	95.75
521.76	74.75
521.975	81.75
522.19	94.75
522.406	81.75
522.621	88.75
522.836	80.75
523.052	99.75
523.267	89.75
523.482	78.75
523.698	91.75
523.913	106.75
524.128	77.75
524.343	84.75
524.559	100.75
524.774	91.75
524.989	90.75
525.204	103.75
525.419	108.75
525.634	87.75
525.849	100.75
526.064	90.75
526.28	108.75
526.495	102.75
526.71	105.75
526.925	90.75
527.14	97.75
527.355	94.75
527.57	95.75
527.785	66.75
527.999	84.75
528.214	86.75
528.429	90.75
528.644	92.75
528.859	84.75
529.074	99.75
529.289	88.75
529.503	86.75
529.718	96.75
529.933	95.75
530.148	79.75
530.363	81.75
530.577	102.75
530.792	104.75
531.007	85.75
531.221	90.75
531.436	88.75
531.651	86.75
531.865	80.75
532.08	68.75
532.295	78.75
532.509	84.75
532.724	82.75
532.938	100.75
533.153	100.75
533.367	106.75
533.582	80.75
533.796	79.75
534.011	86.75
534.225	95.75
534.44	90.75
534.654	86.75
534.868	95.75
535.083	95.75
535.297	89.75
535.511	88.75
535.726	77.75
535.94	82.75
536.154	81.75
536.369	80.75
536.583	86.75
536.797	92.75
537.011	85.75
537.225	87.75
537.44	92.75
537.654	91.75
537.868	87.75
538.082	77.75
538.296	87.75
538.51	77.75
538.724	99.75
538.938	101.75
539.153	93.75
539.367	81.75
539.581	104.75
539.795	100.75
540.009	90.75
540.222	92.75
540.436	83.75
540.65	85.75
540.864	90.75
541.078	89.75
541.292	97.75
541.506	88.75
541.72	90.75
541.934	94.75
542.147	80.75
542.361	88.75
542.575	94.75
542.789	87.75
543.002	81.75
543.216	90.75
543.43	84.75
543.644	88.75
543.857	86.75
544.071	81.75
544.285	91.75
544.498	95.75
544.712	94.75
544.925	91.75
545.139	81.75
545.352	82.75
545.566	91.75
545.779	86.75
545.993	92.75
546.206	95.75
546.42	89.75
546.633	85.75
546.847	98.75
547.06	86.75
547.274	92.75
547.487	102.75
547.7	90.75
547.914	90.75
548.127	96.75
548.34	94.75
548.554	81.75
548.767	86.75
548.98	104.75
549.193	100.75
549.407	91.75
549.62	82.75
549.833	94.75
550.046	98.75
550.259	85.75
550.473	106.75
550.686	100.75
550.899	83.75
551.112	114.75
551.325	80.75
551.538	94.75
551.751	82.75
551.964	95.75
552.177	88.75
552.39	109.75
552.603	88.75
552.816	100.75
553.029	78.75
553.242	98.75
553.455	87.75
553.667	91.75
553.88	101.75
554.093	107.75
554.306	89.75
554.519	103.75
554.732	96.75
554.944	95.75
555.157	98.75
555.37	96.75
555.583	96.75
555.795	87.75
556.008	85.75
556.221	83.75
556.433	92.75
556.646	79.75
556.859	86.75
557.071	88.75
557.284	94.75
557.496	88.75
557.709	87.75
557.921	83.75
558.134	102.75
558.346	102.75
558.559	87.75
558.771	101.75
558.984	108.75
559.196	123.75
559.409	95.75
559.621	122.75
559.833	81.75
560.046	118.75
560.258	108.75
560.47	100.75
560.683	92.75
560.895	99.75
561.107	74.75
561.32	94.75
561.532	84.75
561.744	86.75
561.956	102.75
562.168	90.75
562.381	74.75
562.593	89.75
562.805	88.75
563.017	86.75
563.229	93.75
563.441	88.75
563.653	80.75
563.865	86.75
564.077	102.75
564.289	105.75
564.501	79.75
564.713	85.75
564.925	91.75
565.137	106.75
565.349	91.75
565.561	102.75
565.773	95.75
565.985	91.75
566.197	87.75
566.408	94.75
566.62	84.75
566.832	81.75
567.044	89.75
567.255	82.75
567.467	87.75
567.679	98.75
567.891	94.75
568.102	102.75
568.314	85.75
568.526	101.75
568.737	79.75
568.949	85.75
569.161	86.75
569.372	98.75
569.584	87.75
569.795	92.75
570.007	87.75
570.218	94.75
570.43	79.75
570.641	76.75
570.853	86.75
571.064	96.75
571.276	76.75
571.487	92.75
571.698	84.75
571.91	89.75
572.121	74.75
572.333	83.75
572.544	88.75
572.755	93.75
572.966	78.75
573.178	90.75
573.389	95.75
573.6	82.75
573.811	85.75
574.023	106.75
574.234	90.75
574.445	88.75
574.656	75.75
574.867	99.75
575.078	84.75
575.289	93.75
575.501	80.75
575.712	72.75
575.923	79.75
576.134	84.75
576.345	92.75
576.556	91.75
576.767	93.75
576.978	86.75
577.188	106.75
577.399	94.75
577.61	84.75
577.821	99.75
578.032	78.75
578.243	82.75
578.454	86.75
578.665	98.75
578.875	85.75
579.086	75.75
579.297	94.75
579.508	84.75
579.718	91.75
579.929	87.75
580.14	94.75
580.35	99.75
580.561	80.75
580.772	95.75
580.982	84.75
581.193	77.75
581.403	85.75
581.614	104.75
581.825	82.75
582.035	75.75
582.246	82.75
582.456	79.75
582.667	80.75
582.877	82.75
583.087	85.75
583.298	89.75
583.508	94.75
583.719	106.75
583.929	80.75
584.139	83.75
584.35	84.75
584.56	85.75
584.77	88.75
584.981	98.75
585.191	86.75
585.401	100.75
585.611	78.75
585.821	92.75
586.032	103.75
586.242	86.75
586.452	91.75
586.662	88.75
586.872	101.75
587.082	102.75
587.292	89.75
587.502	94.75
587.713	99.75
587.923	100.75
588.133	93.75
588.343	94.75
588.553	101.75
588.762	106.75
588.972	107.75
589.182	244.75
589.392	164.75
589.602	130.75
589.812	216.75
590.022	132.75
590.232	94.75
590.441	89.75
590.651	105.75
590.861	95.75
591.071	94.75
591.281	82.75
591.49	94.75
591.7	92.75
591.91	72.75
592.119	82.75
592.329	90.75
592.539	93.75
592.748	98.75
592.958	88.75
593.167	85.75
593.377	75.75
593.587	98.75
593.796	92.75
594.006	90.75
594.215	88.75
594.424	100.75
594.634	97.75
594.843	92.75
595.053	88.75
595.262	71.75
595.472	86.75
595.681	77.75
595.89	91.75
596.1	92.75
596.309	92.75
596.518	88.75
596.727	88.75
596.937	69.75
597.146	81.75
597.355	98.75
597.564	85.75
597.774	83.75
597.983	82.75
598.192	92.75
598.401	95.75
598.61	102.75
598.819	90.75
599.028	88.75
599.237	88.75
599.446	87.75
599.655	108.75
599.864	96.75
600.073	97.75
600.282	87.75
600.491	87.75
600.7	101.75
600.909	119.75
601.118	90.75
601.327	79.75
601.536	90.75
601.745	78.75
601.953	90.75
602.162	103.75
602.371	82.75
602.58	91.75
602.789	100.75
602.997	88.75
603.206	86.75
603.415	84.75
603.623	95.75
603.832	86.75
604.041	90.75
604.249	84.75
604.458	100.75
604.666	99.75
604.875	95.75
605.084	98.75
605.292	109.75
605.501	89.75
605.709	89.75
605.918	105.75
606.126	100.75
606.334	94.75
606.543	83.75
606.751	91.75
606.96	96.75
607.168	84.75
607.376	84.75
607.585	94.75
607.793	94.75
608.001	102.75
608.21	104.75
608.418	99.75
608.626	93.75
608.834	87.75
609.043	86.75
609.251	88.75
609.459	91.75
609.667	108.75
609.875	92.75
610.083	85.75
610.291	102.75
610.499	98.75
610.707	88.75
610.916	99.75
611.124	93.75
611.332	96.75
611.54	102.75
611.748	110.75
611.955	95.75
612.163	94.75
612.371	117.75
612.579	103.75
612.787	91.75
612.995	89.75
613.203	100.75
613.411	86.75
613.618	94.75
613.826	96.75
614.034	99.75
614.242	101.75
614.449	93.75
614.657	115.75
614.865	95.75
615.072	95.75
615.28	98.75
615.488	95.75
615.695	87.75
615.903	89.75
616.111	89.75
616.318	127.75
616.526	132.75
616.733	100.75
616.941	95.75
617.148	108.75
617.356	102.75
617.563	86.75
617.771	95.75
617.978	90.75
618.185	97.75
618.393	94.75
618.6	97.75
618.807	92.75
619.015	91.75
619.222	84.75
619.429	95.75
619.637	87.75
619.844	97.75
620.051	89.75
620.258	78.75
620.466	96.75
620.673	95.75
620.88	90.75
621.087	103.75
621.294	94.75
621.501	85.75
621.708	101.75
621.915	98.75
622.122	85.75
622.329	100.75
622.536	84.75
622.743	101.75
622.95	90.75
623.157	95.75
623.364	97.75
623.571	94.75
623.778	88.75
623.985	92.75
624.192	94.75
624.399	90.75
624.606	89.75
624.812	85.75
625.019	89.75
625.226	94.75
625.433	82.75
625.639	88.75
625.846	86.75
626.053	96.75
626.259	84.75
626.466	92.75
626.673	105.75
626.879	82.75
627.086	109.75
627.293	86.75
627.499	98.75
627.706	88.75
627.912	84.75
628.119	88.75
628.325	90.75
628.532	95.75
628.738	86.75
628.945	91.75
629.151	103.75
629.357	102.75
629.564	88.75
629.77	86.75
629.976	87.75
630.183	76.75
630.389	103.75
630.595	78.75
630.802	79.75
631.008	77.75
631.214	103.75
631.42	86.75
631.627	89.75
631.833	90.75
632.039	74.75
632.245	78.75
632.451	73.75
632.657	80.75
632.863	80.75
633.069	80.75
633.275	77.75
633.481	74.75
633.688	78.75
633.893	78.75
634.099	88.75
634.305	93.75
634.511	84.75
634.717	78.75
634.923	72.75
635.129	90.75
635.335	86.75
635.541	96.75
635.747	85.75
635.952	80.75
636.158	94.75
636.364	90.75
636.57	96.75
636.775	82.75
636.981	86.75
637.187	73.75
637.392	85.75
637.598	89.75
637.804	80.75
638.009	84.75
638.215	94.75
638.421	80.75
638.626	94.75
638.832	88.75
639.037	83.75
639.243	73.75
639.448	102.75
639.654	83.75
639.859	88.75
640.065	92.75
640.27	91.75
640.475	91.75
640.681	91.75
640.886	79.75
641.091	88.75
641.297	90.75
641.502	86.75
641.707	86.75
641.913	95.75
642.118	83.75
642.323	96.75
642.528	92.75
642.733	85.75
642.939	90.75
643.144	84.75
643.349	81.75
643.554	97.75
643.759	92.75
643.964	101.75
644.169	104.75
644.374	81.75
644.579	67.75
644.784	97.75
644.989	92.75
645.194	86.75
645.399	86.75
645.604	89.75
645.809	89.75
646.014	97.75
646.219	78.75
646.423	89.75
646.628	92.75
646.833	89.75
647.038	80.75
647.243	88.75
647.447	87.75
647.652	74.75
647.857	86.75
648.062	87.75
648.266	78.75
648.471	70.75
648.676	77.75
648.88	85.75
649.085	87.75
649.289	89.75
649.494	96.75
649.698	109.75
649.903	100.75
650.107	96.75
650.312	90.75
650.516	82.75
650.721	93.75
650.925	94.75
651.13	103.75
651.334	86.75
651.539	87.75
651.743	83.75
651.947	86.75
652.152	91.75
652.356	76.75
652.56	80.75
652.764	83.75
652.969	68.75
653.173	70.75
653.377	85.75
653.581	98.75
653.785	81.75
653.99	97.75
654.194	84.75
654.398	78.75
654.602	77.75
654.806	81.75
655.01	89.75
655.214	89.75
655.418	82.75
655.622	89.75
655.826	84.75
656.03	80.75
656.234	75.75
656.438	87.75
656.642	77.75
656.846	84.75
657.049	85.75
657.253	92.75
657.457	91.75
657.661	90.75
657.865	82.75
658.068	84.75
658.272	86.75
658.476	80.75
658.68	92.75
658.883	88.75
659.087	93.75
659.291	78.75
659.494	90.75
659.698	74.75
659.901	85.75
660.105	94.75
660.309	84.75
660.512	74.75
660.716	79.75
660.919	92.75
661.123	84.75
661.326	103.75
661.53	70.75
661.733	80.75
661.936	86.75
662.14	90.75
662.343	80.75
662.546	78.75
662.75	74.75
662.953	76.75
663.156	91.75
663.36	86.75
663.563	98.75
663.766	94.75
663.969	90.75
664.173	103.75
664.376	78.75
664.579	84.75
664.782	84.75
664.985	76.75
665.188	78.75
665.391	75.75
665.594	88.75
665.797	83.75
666	93.75
666.203	85.75
666.406	77.75
666.609	79.75
666.812	88.75
667.015	81.75
667.218	84.75
667.421	85.75
667.624	83.75
667.827	82.75
668.03	89.75
668.232	79.75
668.435	76.75
668.638	68.75
668.841	92.75
669.043	74.75
669.246	84.75
669.449	82.75
669.651	98.75
669.854	76.75
670.057	73.75
670.259	88.75
670.462	81.75
670.665	95.75
670.867	86.75
671.07	94.75
671.272	81.75
671.475	98.75
671.677	97.75
671.88	81.75
672.082	82.75
672.284	85.75
672.487	84.75
672.689	86.75
672.892	83.75
