Data from Circ_1995_H10_HRD10591_00085.txt Node
Date: Wed Jan 03 11:37:03 EST 2024
User: Yrep
Spectrometer: HR+D1059
Trigger mode: 1
Integration Time (sec): 1.000000E-1
Scans to average: 1
Electric dark correction enabled: true
Nonlinearity correction enabled: false
Boxcar width: 0
XAxis mode: Wavelengths
Number of Pixels in Spectrum: 2048
>>>>>Begin Spectral Data<<<<<
223.165	3.19
223.4	3.19
223.635	3.19
223.869	-19.81
224.104	-14.81
224.338	-22.81
224.573	-19.81
224.808	-16.81
225.042	-5.81
225.277	-10.81
225.511	-2.81
225.746	-8.81
225.98	14.19
226.215	10.19
226.449	19.19
226.683	13.19
226.918	36.19
227.152	26.19
227.387	27.19
227.621	30.19
227.856	44.19
228.09	44.19
228.324	47.19
228.559	44.19
228.793	49.19
229.027	65.19
229.262	72.19
229.496	76.19
229.73	114.19
229.964	96.19
230.199	70.19
230.433	76.19
230.667	81.19
230.901	77.19
231.136	89.19
231.37	75.19
231.604	66.19
231.838	62.19
232.072	79.19
232.306	73.19
232.541	70.19
232.775	79.19
233.009	75.19
233.243	73.19
233.477	76.19
233.711	86.19
233.945	80.19
234.179	85.19
234.413	74.19
234.647	82.19
234.881	80.19
235.115	79.19
235.349	76.19
235.583	77.19
235.817	84.19
236.051	91.19
236.285	76.19
236.519	82.19
236.753	88.19
236.987	91.19
237.221	85.19
237.455	97.19
237.689	80.19
237.922	81.19
238.156	79.19
238.39	82.19
238.624	90.19
238.858	87.19
239.091	93.19
239.325	91.19
239.559	96.19
239.793	78.19
240.027	76.19
240.26	80.19
240.494	76.19
240.728	94.19
240.961	91.19
241.195	82.19
241.429	74.19
241.662	64.19
241.896	84.19
242.13	78.19
242.363	85.19
242.597	83.19
242.83	72.19
243.064	76.19
243.298	83.19
243.531	88.19
243.765	77.19
243.998	83.19
244.232	90.19
244.465	85.19
244.699	88.19
244.932	77.19
245.166	81.19
245.399	84.19
245.633	77.19
245.866	74.19
246.099	78.19
246.333	83.19
246.566	93.19
246.8	86.19
247.033	74.19
247.266	79.19
247.5	75.19
247.733	76.19
247.966	84.19
248.2	83.19
248.433	96.19
248.666	93.19
248.899	80.19
249.133	96.19
249.366	116.19
249.599	109.19
249.832	91.19
250.066	81.19
250.299	96.19
250.532	97.19
250.765	92.19
250.998	86.19
251.231	92.19
251.465	81.19
251.698	83.19
251.931	93.19
252.164	98.19
252.397	93.19
252.63	77.19
252.863	81.19
253.096	79.19
253.329	81.19
253.562	97.19
253.795	80.19
254.028	85.19
254.261	67.19
254.494	83.19
254.727	89.19
254.96	87.19
255.193	86.19
255.426	65.19
255.659	92.19
255.892	106.19
256.124	98.19
256.357	101.19
256.59	91.19
256.823	89.19
257.056	97.19
257.289	101.19
257.521	96.19
257.754	78.19
257.987	96.19
258.22	112.19
258.452	129.19
258.685	115.19
258.918	98.19
259.151	82.19
259.383	89.19
259.616	79.19
259.849	90.19
260.081	68.19
260.314	92.19
260.547	94.19
260.779	117.19
261.012	129.19
261.244	125.19
261.477	106.19
261.71	115.19
261.942	165.19
262.175	173.19
262.407	104.19
262.64	95.19
262.872	82.19
263.105	101.19
263.337	102.19
263.57	77.19
263.802	84.19
264.035	81.19
264.267	88.19
264.499	87.19
264.732	103.19
264.964	85.19
265.197	80.19
265.429	96.19
265.661	82.19
265.894	99.19
266.126	96.19
266.358	83.19
266.591	96.19
266.823	77.19
267.055	90.19
267.287	96.19
267.52	94.19
267.752	91.19
267.984	85.19
268.216	80.19
268.448	96.19
268.681	89.19
268.913	96.19
269.145	84.19
269.377	74.19
269.609	78.19
269.841	108.19
270.073	92.19
270.306	98.19
270.538	93.19
270.77	77.19
271.002	100.19
271.234	105.19
271.466	117.19
271.698	107.19
271.93	107.19
272.162	86.19
272.394	97.19
272.626	96.19
272.858	84.19
273.09	97.19
273.322	92.19
273.553	89.19
273.785	81.19
274.017	84.19
274.249	101.19
274.481	100.19
274.713	98.19
274.945	98.19
275.176	114.19
275.408	113.19
275.64	148.19
275.872	159.19
276.104	127.19
276.335	133.19
276.567	150.19
276.799	207.19
277.031	258.19
277.262	316.19
277.494	219.19
277.726	130.19
277.957	106.19
278.189	98.19
278.421	107.19
278.652	99.19
278.884	83.19
279.115	100.19
279.347	106.19
279.579	125.19
279.81	173.19
280.042	302.19
280.273	451.19
280.505	289.19
280.736	140.19
280.968	92.19
281.199	89.19
281.431	92.19
281.662	93.19
281.894	99.19
282.125	117.19
282.356	160.19
282.588	197.19
282.819	157.19
283.051	97.19
283.282	86.19
283.513	91.19
283.745	87.19
283.976	97.19
284.207	95.19
284.439	90.19
284.67	98.19
284.901	86.19
285.132	92.19
285.364	88.19
285.595	98.19
285.826	87.19
286.057	93.19
286.288	102.19
286.52	103.19
286.751	84.19
286.982	98.19
287.213	85.19
287.444	81.19
287.675	93.19
287.906	100.19
288.138	89.19
288.369	111.19
288.6	107.19
288.831	102.19
289.062	90.19
289.293	89.19
289.524	91.19
289.755	87.19
289.986	80.19
290.217	94.19
290.448	99.19
290.679	95.19
290.91	85.19
291.141	92.19
291.371	100.19
291.602	86.19
291.833	100.19
292.064	92.19
292.295	94.19
292.526	91.19
292.757	111.19
292.987	99.19
293.218	95.19
293.449	95.19
293.68	84.19
293.91	98.19
294.141	100.19
294.372	106.19
294.603	103.19
294.833	106.19
295.064	98.19
295.295	93.19
295.525	98.19
295.756	108.19
295.987	143.19
296.217	206.19
296.448	174.19
296.679	106.19
296.909	92.19
297.14	89.19
297.37	87.19
297.601	89.19
297.831	99.19
298.062	98.19
298.292	114.19
298.523	109.19
298.753	80.19
298.984	96.19
299.214	100.19
299.445	88.19
299.675	106.19
299.905	109.19
300.136	110.19
300.366	94.19
300.597	100.19
300.827	115.19
301.057	119.19
301.288	139.19
301.518	125.19
301.748	101.19
301.979	122.19
302.209	127.19
302.439	109.19
302.669	95.19
302.9	88.19
303.13	102.19
303.36	132.19
303.59	174.19
303.82	202.19
304.051	121.19
304.281	97.19
304.511	95.19
304.741	122.19
304.971	100.19
305.201	103.19
305.431	96.19
305.661	96.19
305.891	102.19
306.121	106.19
306.352	128.19
306.582	136.19
306.812	136.19
307.042	172.19
307.272	221.19
307.502	253.19
307.731	225.19
307.961	153.19
308.191	96.19
308.421	104.19
308.651	101.19
308.881	89.19
309.111	98.19
309.341	100.19
309.571	100.19
309.8	100.19
310.03	124.19
310.26	113.19
310.49	104.19
310.72	106.19
310.949	127.19
311.179	140.19
311.409	109.19
311.639	116.19
311.868	101.19
312.098	113.19
312.328	109.19
312.557	124.19
312.787	153.19
313.017	126.19
313.246	94.19
313.476	102.19
313.706	104.19
313.935	100.19
314.165	138.19
314.394	122.19
314.624	117.19
314.853	122.19
315.083	120.19
315.312	104.19
315.542	99.19
315.771	93.19
316.001	97.19
316.23	93.19
316.46	92.19
316.689	110.19
316.919	109.19
317.148	116.19
317.377	104.19
317.607	128.19
317.836	111.19
318.065	109.19
318.295	102.19
318.524	88.19
318.753	111.19
318.983	92.19
319.212	122.19
319.441	131.19
319.67	131.19
319.9	109.19
320.129	100.19
320.358	99.19
320.587	111.19
320.816	111.19
321.046	121.19
321.275	105.19
321.504	108.19
321.733	102.19
321.962	107.19
322.191	102.19
322.42	120.19
322.649	163.19
322.878	154.19
323.108	138.19
323.337	173.19
323.566	186.19
323.795	226.19
324.024	289.19
324.253	574.19
324.482	1248.19
324.71	2617.19
324.939	3495.19
325.168	1269.19
325.397	365.19
325.626	200.19
325.855	168.19
326.084	158.19
326.313	170.19
326.542	214.19
326.77	315.19
326.999	612.19
327.228	1298.19
327.457	2421.19
327.686	1974.19
327.914	763.19
328.143	887.19
328.372	1178.19
328.6	626.19
328.829	272.19
329.058	262.19
329.287	270.19
329.515	249.19
329.744	367.19
329.972	821.19
330.201	1781.19
330.43	2673.19
330.658	1119.19
330.887	459.19
331.115	278.19
331.344	148.19
331.572	162.19
331.801	159.19
332.03	148.19
332.258	131.19
332.486	133.19
332.715	138.19
332.943	124.19
333.172	152.19
333.4	180.19
333.629	219.19
333.857	326.19
334.085	714.19
334.314	1578.19
334.542	3234.19
334.771	3005.19
334.999	712.19
335.227	261.19
335.455	169.19
335.684	137.19
335.912	118.19
336.14	117.19
336.369	108.19
336.597	140.19
336.825	133.19
337.053	107.19
337.281	110.19
337.51	91.19
337.738	117.19
337.966	110.19
338.194	122.19
338.422	124.19
338.65	97.19
338.878	121.19
339.106	95.19
339.334	106.19
339.562	108.19
339.79	100.19
340.018	109.19
340.246	108.19
340.474	123.19
340.702	116.19
340.93	109.19
341.158	119.19
341.386	119.19
341.614	125.19
341.842	115.19
342.07	96.19
342.298	117.19
342.526	87.19
342.754	104.19
342.981	99.19
343.209	93.19
343.437	104.19
343.665	108.19
343.893	89.19
344.12	83.19
344.348	106.19
344.576	75.19
344.804	97.19
345.031	122.19
345.259	117.19
345.487	106.19
345.714	116.19
345.942	96.19
346.17	102.19
346.397	97.19
346.625	101.19
346.853	111.19
347.08	117.19
347.308	110.19
347.535	107.19
347.763	113.19
347.99	132.19
348.218	116.19
348.445	129.19
348.673	123.19
348.9	96.19
349.128	105.19
349.355	112.19
349.583	113.19
349.81	101.19
350.037	98.19
350.265	97.19
350.492	99.19
350.72	113.19
350.947	136.19
351.174	144.19
351.402	135.19
351.629	132.19
351.856	124.19
352.083	136.19
352.311	139.19
352.538	157.19
352.765	136.19
352.992	125.19
353.22	148.19
353.447	122.19
353.674	124.19
353.901	101.19
354.128	110.19
354.355	96.19
354.583	111.19
354.81	102.19
355.037	92.19
355.264	84.19
355.491	96.19
355.718	93.19
355.945	89.19
356.172	106.19
356.399	92.19
356.626	103.19
356.853	102.19
357.08	93.19
357.307	77.19
357.534	96.19
357.761	86.19
357.988	106.19
358.215	97.19
358.441	82.19
358.668	104.19
358.895	90.19
359.122	91.19
359.349	101.19
359.576	115.19
359.802	138.19
360.029	172.19
360.256	172.19
360.483	148.19
360.709	97.19
360.936	105.19
361.163	104.19
361.39	110.19
361.616	120.19
361.843	95.19
362.07	108.19
362.296	129.19
362.523	122.19
362.749	110.19
362.976	112.19
363.203	94.19
363.429	99.19
363.656	110.19
363.882	105.19
364.109	82.19
364.335	107.19
364.562	93.19
364.788	107.19
365.015	116.19
365.241	122.19
365.468	155.19
365.694	136.19
365.92	116.19
366.147	107.19
366.373	97.19
366.599	110.19
366.826	112.19
367.052	94.19
367.278	100.19
367.505	92.19
367.731	99.19
367.957	102.19
368.184	95.19
368.41	127.19
368.636	145.19
368.862	138.19
369.089	130.19
369.315	119.19
369.541	116.19
369.767	112.19
369.993	109.19
370.219	89.19
370.445	104.19
370.672	90.19
370.898	98.19
371.124	86.19
371.35	94.19
371.576	97.19
371.802	91.19
372.028	94.19
372.254	100.19
372.48	99.19
372.706	97.19
372.932	98.19
373.158	101.19
373.384	96.19
373.61	109.19
373.835	110.19
374.061	99.19
374.287	91.19
374.513	94.19
374.739	96.19
374.965	94.19
375.191	92.19
375.416	101.19
375.642	90.19
375.868	96.19
376.094	89.19
376.319	100.19
376.545	89.19
376.771	106.19
376.997	90.19
377.222	91.19
377.448	95.19
377.674	86.19
377.899	97.19
378.125	92.19
378.35	88.19
378.576	94.19
378.802	97.19
379.027	98.19
379.253	104.19
379.478	88.19
379.704	92.19
379.929	104.19
380.155	110.19
380.38	98.19
380.606	96.19
380.831	99.19
381.057	92.19
381.282	93.19
381.507	97.19
381.733	105.19
381.958	101.19
382.184	102.19
382.409	102.19
382.634	99.19
382.86	108.19
383.085	111.19
383.31	105.19
383.535	98.19
383.761	94.19
383.986	114.19
384.211	105.19
384.436	98.19
384.662	99.19
384.887	99.19
385.112	101.19
385.337	99.19
385.562	116.19
385.787	107.19
386.013	134.19
386.238	127.19
386.463	117.19
386.688	112.19
386.913	101.19
387.138	92.19
387.363	97.19
387.588	105.19
387.813	101.19
388.038	98.19
388.263	116.19
388.488	114.19
388.713	103.19
388.938	96.19
389.163	101.19
389.387	89.19
389.612	92.19
389.837	90.19
390.062	92.19
390.287	106.19
390.512	100.19
390.736	88.19
390.961	94.19
391.186	105.19
391.411	91.19
391.636	90.19
391.86	76.19
392.085	95.19
392.31	90.19
392.534	97.19
392.759	82.19
392.984	100.19
393.208	85.19
393.433	94.19
393.658	101.19
393.882	90.19
394.107	92.19
394.331	80.19
394.556	84.19
394.78	93.19
395.005	96.19
395.229	91.19
395.454	74.19
395.678	91.19
395.903	97.19
396.127	96.19
396.352	93.19
396.576	89.19
396.801	89.19
397.025	87.19
397.249	93.19
397.474	96.19
397.698	89.19
397.922	94.19
398.147	106.19
398.371	77.19
398.595	96.19
398.82	74.19
399.044	82.19
399.268	91.19
399.492	90.19
399.717	88.19
399.941	89.19
400.165	100.19
400.389	94.19
400.613	101.19
400.837	90.19
401.062	98.19
401.286	109.19
401.51	96.19
401.734	103.19
401.958	128.19
402.182	180.19
402.406	245.19
402.63	186.19
402.854	129.19
403.078	106.19
403.302	82.19
403.526	102.19
403.75	109.19
403.974	83.19
404.198	98.19
404.422	101.19
404.645	102.19
404.869	109.19
405.093	135.19
405.317	156.19
405.541	164.19
405.765	137.19
405.988	174.19
406.212	274.19
406.436	436.19
406.66	267.19
406.883	145.19
407.107	128.19
407.331	108.19
407.555	137.19
407.778	109.19
408.002	107.19
408.226	99.19
408.449	88.19
408.673	97.19
408.896	105.19
409.12	101.19
409.344	103.19
409.567	86.19
409.791	81.19
410.014	84.19
410.238	91.19
410.461	101.19
410.685	94.19
410.908	102.19
411.132	99.19
411.355	109.19
411.578	92.19
411.802	86.19
412.025	98.19
412.249	122.19
412.472	143.19
412.695	166.19
412.919	117.19
413.142	106.19
413.365	98.19
413.589	85.19
413.812	106.19
414.035	81.19
414.258	104.19
414.482	97.19
414.705	88.19
414.928	88.19
415.151	88.19
415.374	95.19
415.597	112.19
415.821	93.19
416.044	115.19
416.267	90.19
416.49	95.19
416.713	114.19
416.936	96.19
417.159	100.19
417.382	112.19
417.605	129.19
417.828	139.19
418.051	112.19
418.274	94.19
418.497	86.19
418.72	89.19
418.943	85.19
419.166	84.19
419.389	90.19
419.611	101.19
419.834	112.19
420.057	102.19
420.28	105.19
420.503	104.19
420.726	104.19
420.948	99.19
421.171	126.19
421.394	122.19
421.617	101.19
421.839	94.19
422.062	98.19
422.285	104.19
422.507	104.19
422.73	130.19
422.953	107.19
423.175	104.19
423.398	90.19
423.621	105.19
423.843	84.19
424.066	97.19
424.288	110.19
424.511	98.19
424.733	102.19
424.956	149.19
425.178	123.19
425.401	110.19
425.623	114.19
425.846	107.19
426.068	113.19
426.291	117.19
426.513	114.19
426.735	109.19
426.958	130.19
427.18	143.19
427.402	210.19
427.625	348.19
427.847	328.19
428.069	278.19
428.292	159.19
428.514	100.19
428.736	97.19
428.958	103.19
429.181	96.19
429.403	79.19
429.625	90.19
429.847	103.19
430.069	132.19
430.292	98.19
430.514	91.19
430.736	81.19
430.958	96.19
431.18	93.19
431.402	91.19
431.624	88.19
431.846	88.19
432.068	97.19
432.29	91.19
432.512	95.19
432.734	87.19
432.956	101.19
433.178	109.19
433.4	121.19
433.622	102.19
433.844	90.19
434.066	105.19
434.287	97.19
434.509	90.19
434.731	111.19
434.953	96.19
435.175	93.19
435.397	91.19
435.618	114.19
435.84	128.19
436.062	169.19
436.284	145.19
436.505	118.19
436.727	112.19
436.949	93.19
437.17	102.19
437.392	100.19
437.614	114.19
437.835	140.19
438.057	179.19
438.278	141.19
438.5	140.19
438.721	148.19
438.943	113.19
439.165	101.19
439.386	116.19
439.608	111.19
439.829	131.19
440.05	183.19
440.272	234.19
440.493	130.19
440.715	92.19
440.936	97.19
441.158	93.19
441.379	94.19
441.6	118.19
441.822	118.19
442.043	115.19
442.264	122.19
442.486	118.19
442.707	95.19
442.928	152.19
443.149	217.19
443.371	228.19
443.592	156.19
443.813	147.19
444.034	120.19
444.255	89.19
444.476	95.19
444.698	101.19
444.919	101.19
445.14	145.19
445.361	146.19
445.582	151.19
445.803	233.19
446.024	210.19
446.245	198.19
446.466	146.19
446.687	105.19
446.908	92.19
447.129	87.19
447.35	98.19
447.571	96.19
447.792	97.19
448.013	124.19
448.234	125.19
448.455	123.19
448.675	130.19
448.896	134.19
449.117	124.19
449.338	117.19
449.559	153.19
449.779	182.19
450	118.19
450.221	105.19
450.442	96.19
450.662	120.19
450.883	150.19
451.104	164.19
451.324	119.19
451.545	100.19
451.766	67.19
451.986	99.19
452.207	99.19
452.428	102.19
452.648	115.19
452.869	147.19
453.089	162.19
453.31	176.19
453.53	115.19
453.751	123.19
453.971	137.19
454.192	164.19
454.412	123.19
454.633	95.19
454.853	111.19
455.073	93.19
455.294	115.19
455.514	122.19
455.734	103.19
455.955	83.19
456.175	101.19
456.395	81.19
456.616	80.19
456.836	86.19
457.056	97.19
457.276	100.19
457.497	95.19
457.717	93.19
457.937	93.19
458.157	92.19
458.377	118.19
458.598	148.19
458.818	275.19
459.038	315.19
459.258	189.19
459.478	107.19
459.698	103.19
459.918	86.19
460.138	89.19
460.358	95.19
460.578	104.19
460.798	101.19
461.018	105.19
461.238	80.19
461.458	94.19
461.678	85.19
461.898	112.19
462.118	92.19
462.338	99.19
462.558	90.19
462.777	100.19
462.997	112.19
463.217	149.19
463.437	116.19
463.657	114.19
463.876	101.19
464.096	102.19
464.316	106.19
464.536	114.19
464.755	109.19
464.975	145.19
465.195	327.19
465.414	342.19
465.634	121.19
465.854	102.19
466.073	110.19
466.293	93.19
466.512	88.19
466.732	106.19
466.951	95.19
467.171	113.19
467.391	147.19
467.61	201.19
467.829	322.19
468.049	1018.19
468.268	1598.19
468.488	357.19
468.707	146.19
468.927	118.19
469.146	105.19
469.365	111.19
469.585	113.19
469.804	121.19
470.023	154.19
470.243	129.19
470.462	154.19
470.681	189.19
470.901	122.19
471.12	116.19
471.339	136.19
471.558	153.19
471.777	210.19
471.997	453.19
472.216	1924.19
472.435	4580.19
472.654	988.19
472.873	230.19
473.092	144.19
473.311	109.19
473.53	103.19
473.749	92.19
473.968	111.19
474.187	156.19
474.406	117.19
474.625	106.19
474.844	98.19
475.063	101.19
475.282	90.19
475.501	102.19
475.72	81.19
475.939	106.19
476.158	99.19
476.377	88.19
476.596	99.19
476.814	114.19
477.033	110.19
477.252	106.19
477.471	99.19
477.69	98.19
477.908	116.19
478.127	117.19
478.346	106.19
478.564	114.19
478.783	124.19
479.002	110.19
479.22	120.19
479.439	155.19
479.658	174.19
479.876	176.19
480.095	157.19
480.313	176.19
480.532	235.19
480.751	440.19
480.969	1676.19
481.188	7621.19
481.406	4236.19
481.624	568.19
481.843	179.19
482.061	140.19
482.28	125.19
482.498	117.19
482.717	97.19
482.935	108.19
483.153	112.19
483.372	101.19
483.59	100.19
483.808	89.19
484.027	82.19
484.245	111.19
484.463	92.19
484.681	102.19
484.9	100.19
485.118	112.19
485.336	101.19
485.554	119.19
485.772	114.19
485.99	109.19
486.209	117.19
486.427	128.19
486.645	123.19
486.863	146.19
487.081	124.19
487.299	122.19
487.517	103.19
487.735	92.19
487.953	111.19
488.171	105.19
488.389	92.19
488.607	113.19
488.825	94.19
489.043	96.19
489.261	101.19
489.479	84.19
489.696	95.19
489.914	101.19
490.132	96.19
490.35	115.19
490.568	93.19
490.786	94.19
491.003	86.19
491.221	100.19
491.439	114.19
491.657	103.19
491.874	109.19
492.092	100.19
492.31	94.19
492.527	97.19
492.745	117.19
492.963	91.19
493.18	103.19
493.398	105.19
493.615	102.19
493.833	102.19
494.05	90.19
494.268	102.19
494.485	98.19
494.703	114.19
494.92	96.19
495.138	99.19
495.355	99.19
495.573	94.19
495.79	91.19
496.008	98.19
496.225	91.19
496.442	87.19
496.66	106.19
496.877	89.19
497.094	106.19
497.312	98.19
497.529	96.19
497.746	94.19
497.963	102.19
498.181	86.19
498.398	112.19
498.615	127.19
498.832	108.19
499.049	107.19
499.267	87.19
499.484	92.19
499.701	95.19
499.918	88.19
500.135	96.19
500.352	86.19
500.569	108.19
500.786	108.19
501.003	100.19
501.22	91.19
501.437	109.19
501.654	109.19
501.871	161.19
502.088	116.19
502.305	121.19
502.522	91.19
502.739	112.19
502.956	98.19
503.172	95.19
503.389	131.19
503.606	137.19
503.823	124.19
504.04	93.19
504.256	101.19
504.473	89.19
504.69	112.19
504.907	101.19
505.123	95.19
505.34	95.19
505.557	94.19
505.773	110.19
505.99	100.19
506.207	106.19
506.423	92.19
506.64	96.19
506.856	101.19
507.073	92.19
507.289	110.19
507.506	120.19
507.722	156.19
507.939	152.19
508.155	109.19
508.372	102.19
508.588	110.19
508.805	94.19
509.021	129.19
509.238	109.19
509.454	105.19
509.67	110.19
509.887	142.19
510.103	164.19
510.319	311.19
510.536	1194.19
510.752	4262.19
510.968	1098.19
511.184	220.19
511.401	148.19
511.617	113.19
511.833	124.19
512.049	101.19
512.265	105.19
512.481	105.19
512.698	99.19
512.914	90.19
513.13	110.19
513.346	105.19
513.562	100.19
513.778	113.19
513.994	118.19
514.21	129.19
514.426	182.19
514.642	218.19
514.858	201.19
515.074	320.19
515.29	1056.19
515.506	3844.19
515.721	1306.19
515.937	276.19
516.153	185.19
516.369	134.19
516.585	120.19
516.801	125.19
517.016	122.19
517.232	108.19
517.448	104.19
517.664	123.19
517.879	110.19
518.095	111.19
518.311	115.19
518.527	129.19
518.742	99.19
518.958	96.19
519.173	112.19
519.389	118.19
519.605	105.19
519.82	107.19
520.036	125.19
520.251	181.19
520.467	170.19
520.682	147.19
520.898	154.19
521.113	158.19
521.329	244.19
521.544	426.19
521.76	1349.19
521.975	6536.19
522.19	3771.19
522.406	712.19
522.621	212.19
522.836	147.19
523.052	121.19
523.267	115.19
523.482	106.19
523.698	116.19
523.913	170.19
524.128	128.19
524.343	108.19
524.559	92.19
524.774	104.19
524.989	129.19
525.204	154.19
525.419	131.19
525.634	106.19
525.849	107.19
526.064	102.19
526.28	91.19
526.495	101.19
526.71	95.19
526.925	85.19
527.14	103.19
527.355	89.19
527.57	102.19
527.785	84.19
527.999	82.19
528.214	89.19
528.429	91.19
528.644	103.19
528.859	100.19
529.074	111.19
529.289	179.19
529.503	385.19
529.718	156.19
529.933	94.19
530.148	94.19
530.363	105.19
530.577	96.19
530.792	106.19
531.007	92.19
531.221	94.19
531.436	100.19
531.651	81.19
531.865	107.19
532.08	106.19
532.295	100.19
532.509	101.19
532.724	90.19
532.938	100.19
533.153	94.19
533.367	96.19
533.582	117.19
533.796	106.19
534.011	95.19
534.225	98.19
534.44	91.19
534.654	99.19
534.868	101.19
535.083	98.19
535.297	86.19
535.511	125.19
535.726	137.19
535.94	116.19
536.154	112.19
536.369	108.19
536.583	83.19
536.797	88.19
537.011	104.19
537.225	91.19
537.44	89.19
537.654	88.19
537.868	100.19
538.082	107.19
538.296	94.19
538.51	91.19
538.724	103.19
538.938	98.19
539.153	115.19
539.367	127.19
539.581	108.19
539.795	91.19
540.009	92.19
540.222	99.19
540.436	108.19
540.65	99.19
540.864	99.19
541.078	110.19
541.292	97.19
541.506	95.19
541.72	78.19
541.934	94.19
542.147	93.19
542.361	108.19
542.575	116.19
542.789	94.19
543.002	90.19
543.216	104.19
543.43	108.19
543.644	101.19
543.857	90.19
544.071	94.19
544.285	107.19
544.498	99.19
544.712	90.19
544.925	84.19
545.139	105.19
545.352	88.19
545.566	93.19
545.779	95.19
545.993	89.19
546.206	86.19
546.42	76.19
546.633	99.19
546.847	101.19
547.06	87.19
547.274	94.19
547.487	94.19
547.7	97.19
547.914	98.19
548.127	90.19
548.34	93.19
548.554	97.19
548.767	99.19
548.98	106.19
549.193	92.19
549.407	95.19
549.62	94.19
549.833	92.19
550.046	89.19
550.259	90.19
550.473	90.19
550.686	91.19
550.899	92.19
551.112	94.19
551.325	95.19
551.538	123.19
551.751	115.19
551.964	102.19
552.177	104.19
552.39	84.19
552.603	98.19
552.816	96.19
553.029	100.19
553.242	105.19
553.455	122.19
553.667	120.19
553.88	137.19
554.093	111.19
554.306	120.19
554.519	154.19
554.732	102.19
554.944	108.19
555.157	99.19
555.37	97.19
555.583	93.19
555.795	117.19
556.008	77.19
556.221	83.19
556.433	101.19
556.646	92.19
556.859	101.19
557.071	105.19
557.284	102.19
557.496	92.19
557.709	93.19
557.921	88.19
558.134	90.19
558.346	85.19
558.559	85.19
558.771	82.19
558.984	104.19
559.196	101.19
559.409	88.19
559.621	89.19
559.833	101.19
560.046	95.19
560.258	128.19
560.47	174.19
560.683	131.19
560.895	94.19
561.107	89.19
561.32	106.19
561.532	110.19
561.744	84.19
561.956	95.19
562.168	92.19
562.381	101.19
562.593	87.19
562.805	96.19
563.017	89.19
563.229	81.19
563.441	98.19
563.653	76.19
563.865	69.19
564.077	77.19
564.289	100.19
564.501	79.19
564.713	91.19
564.925	99.19
565.137	120.19
565.349	109.19
565.561	92.19
565.773	88.19
565.985	84.19
566.197	86.19
566.408	81.19
566.62	97.19
566.832	86.19
567.044	82.19
567.255	104.19
567.467	89.19
567.679	90.19
567.891	95.19
568.102	83.19
568.314	88.19
568.526	93.19
568.737	105.19
568.949	88.19
569.161	78.19
569.372	93.19
569.584	106.19
569.795	112.19
570.007	135.19
570.218	385.19
570.43	185.19
570.641	95.19
570.853	96.19
571.064	102.19
571.276	85.19
571.487	110.19
571.698	103.19
571.91	106.19
572.121	83.19
572.333	87.19
572.544	82.19
572.755	92.19
572.966	85.19
573.178	90.19
573.389	98.19
573.6	93.19
573.811	97.19
574.023	91.19
574.234	107.19
574.445	92.19
574.656	82.19
574.867	99.19
575.078	95.19
575.289	88.19
575.501	94.19
575.712	93.19
575.923	98.19
576.134	97.19
576.345	79.19
576.556	90.19
576.767	86.19
576.978	97.19
577.188	106.19
577.399	103.19
577.61	104.19
577.821	110.19
578.032	149.19
578.243	397.19
578.454	1350.19
578.665	330.19
578.875	114.19
579.086	102.19
579.297	101.19
579.508	101.19
579.718	94.19
579.929	86.19
580.14	99.19
580.35	93.19
580.561	76.19
580.772	90.19
580.982	77.19
581.193	93.19
581.403	97.19
581.614	74.19
581.825	91.19
582.035	82.19
582.246	83.19
582.456	91.19
582.667	100.19
582.877	100.19
583.087	85.19
583.298	97.19
583.508	90.19
583.719	87.19
583.929	88.19
584.139	94.19
584.35	88.19
584.56	97.19
584.77	86.19
584.981	98.19
585.191	82.19
585.401	97.19
585.611	85.19
585.821	97.19
586.032	90.19
586.242	91.19
586.452	88.19
586.662	85.19
586.872	72.19
587.082	85.19
587.292	90.19
587.502	87.19
587.713	91.19
587.923	80.19
588.133	97.19
588.343	81.19
588.553	82.19
588.762	93.19
588.972	97.19
589.182	129.19
589.392	94.19
589.602	106.19
589.812	106.19
590.022	99.19
590.232	92.19
590.441	99.19
590.651	89.19
590.861	87.19
591.071	88.19
591.281	90.19
591.49	91.19
591.7	107.19
591.91	91.19
592.119	86.19
592.329	113.19
592.539	113.19
592.748	94.19
592.958	85.19
593.167	71.19
593.377	90.19
593.587	90.19
593.796	87.19
594.006	81.19
594.215	98.19
594.424	82.19
594.634	82.19
594.843	96.19
595.053	88.19
595.262	101.19
595.472	85.19
595.681	97.19
595.89	89.19
596.1	84.19
596.309	86.19
596.518	82.19
596.727	93.19
596.937	109.19
597.146	91.19
597.355	95.19
597.564	81.19
597.774	81.19
597.983	91.19
598.192	94.19
598.401	75.19
598.61	96.19
598.819	87.19
599.028	74.19
599.237	82.19
599.446	89.19
599.655	95.19
599.864	102.19
600.073	83.19
600.282	75.19
600.491	88.19
600.7	102.19
600.909	88.19
601.118	90.19
601.327	102.19
601.536	89.19
601.745	87.19
601.953	78.19
602.162	88.19
602.371	101.19
602.58	80.19
602.789	95.19
602.997	94.19
603.206	74.19
603.415	82.19
603.623	93.19
603.832	86.19
604.041	95.19
604.249	90.19
604.458	100.19
604.666	77.19
604.875	88.19
605.084	88.19
605.292	104.19
605.501	89.19
605.709	90.19
605.918	104.19
606.126	100.19
606.334	84.19
606.543	84.19
606.751	86.19
606.96	82.19
607.168	88.19
607.376	101.19
607.585	83.19
607.793	77.19
608.001	73.19
608.21	78.19
608.418	81.19
608.626	99.19
608.834	96.19
609.043	96.19
609.251	97.19
609.459	83.19
609.667	102.19
609.875	84.19
610.083	100.19
610.291	85.19
610.499	89.19
610.707	93.19
610.916	94.19
611.124	93.19
611.332	91.19
611.54	84.19
611.748	76.19
611.955	100.19
612.163	90.19
612.371	93.19
612.579	83.19
612.787	88.19
612.995	79.19
613.203	75.19
613.411	80.19
613.618	90.19
613.826	88.19
614.034	88.19
614.242	89.19
614.449	100.19
614.657	97.19
614.865	84.19
615.072	88.19
615.28	89.19
615.488	84.19
615.695	100.19
615.903	105.19
616.111	100.19
616.318	96.19
616.526	95.19
616.733	100.19
616.941	92.19
617.148	97.19
617.356	80.19
617.563	93.19
617.771	94.19
617.978	99.19
618.185	85.19
618.393	88.19
618.6	90.19
618.807	91.19
619.015	85.19
619.222	78.19
619.429	76.19
619.637	107.19
619.844	80.19
620.051	85.19
620.258	84.19
620.466	88.19
620.673	82.19
620.88	101.19
621.087	82.19
621.294	93.19
621.501	90.19
621.708	97.19
621.915	94.19
622.122	99.19
622.329	92.19
622.536	85.19
622.743	101.19
622.95	100.19
623.157	89.19
623.364	88.19
623.571	69.19
623.778	85.19
623.985	92.19
624.192	93.19
624.399	97.19
624.606	102.19
624.812	98.19
625.019	93.19
625.226	81.19
625.433	80.19
625.639	88.19
625.846	89.19
626.053	81.19
626.259	90.19
626.466	88.19
626.673	85.19
626.879	99.19
627.086	96.19
627.293	85.19
627.499	89.19
627.706	86.19
627.912	87.19
628.119	88.19
628.325	91.19
628.532	88.19
628.738	78.19
628.945	86.19
629.151	103.19
629.357	88.19
629.564	90.19
629.77	82.19
629.976	92.19
630.183	92.19
630.389	100.19
630.595	85.19
630.802	97.19
631.008	90.19
631.214	83.19
631.42	89.19
631.627	91.19
631.833	93.19
632.039	83.19
632.245	104.19
632.451	102.19
632.657	97.19
632.863	94.19
633.069	79.19
633.275	71.19
633.481	93.19
633.688	93.19
633.893	92.19
634.099	89.19
634.305	81.19
634.511	76.19
634.717	96.19
634.923	94.19
635.129	93.19
635.335	97.19
635.541	93.19
635.747	110.19
635.952	115.19
636.158	186.19
636.364	678.19
636.57	579.19
636.775	205.19
636.981	122.19
637.187	94.19
637.392	96.19
637.598	84.19
637.804	93.19
638.009	68.19
638.215	84.19
638.421	92.19
638.626	77.19
638.832	92.19
639.037	96.19
639.243	89.19
639.448	92.19
639.654	87.19
639.859	86.19
640.065	84.19
640.27	93.19
640.475	88.19
640.681	80.19
640.886	95.19
641.091	74.19
641.297	94.19
641.502	93.19
641.707	93.19
641.913	108.19
642.118	96.19
642.323	84.19
642.528	93.19
642.733	84.19
642.939	96.19
643.144	77.19
643.349	84.19
643.554	80.19
643.759	92.19
643.964	84.19
644.169	67.19
644.374	90.19
644.579	101.19
644.784	102.19
644.989	78.19
645.194	76.19
645.399	87.19
645.604	97.19
645.809	96.19
646.014	97.19
646.219	91.19
646.423	89.19
646.628	96.19
646.833	75.19
647.038	84.19
647.243	89.19
647.447	85.19
647.652	76.19
647.857	90.19
648.062	89.19
648.266	94.19
648.471	91.19
648.676	84.19
648.88	88.19
649.085	93.19
649.289	82.19
649.494	106.19
649.698	161.19
649.903	109.19
650.107	95.19
650.312	81.19
650.516	84.19
650.721	90.19
650.925	88.19
651.13	83.19
651.334	92.19
651.539	85.19
651.743	81.19
651.947	96.19
652.152	88.19
652.356	84.19
652.56	90.19
652.764	81.19
652.969	80.19
653.173	86.19
653.377	88.19
653.581	93.19
653.785	84.19
653.99	83.19
654.194	94.19
654.398	79.19
654.602	94.19
654.806	84.19
655.01	120.19
655.214	100.19
655.418	93.19
655.622	83.19
655.826	98.19
656.03	85.19
656.234	96.19
656.438	106.19
656.642	110.19
656.846	91.19
657.049	83.19
657.253	85.19
657.457	84.19
657.661	94.19
657.865	94.19
658.068	84.19
658.272	88.19
658.476	98.19
658.68	88.19
658.883	78.19
659.087	81.19
659.291	84.19
659.494	90.19
659.698	81.19
659.901	93.19
660.105	80.19
660.309	85.19
660.512	81.19
660.716	93.19
660.919	92.19
661.123	89.19
661.326	94.19
661.53	88.19
661.733	68.19
661.936	80.19
662.14	80.19
662.343	77.19
662.546	90.19
662.75	90.19
662.953	94.19
663.156	80.19
663.36	80.19
663.563	61.19
663.766	66.19
663.969	80.19
664.173	88.19
664.376	88.19
664.579	79.19
664.782	111.19
664.985	92.19
665.188	90.19
665.391	76.19
665.594	77.19
665.797	78.19
666	88.19
666.203	75.19
666.406	73.19
666.609	91.19
666.812	84.19
667.015	86.19
667.218	89.19
667.421	90.19
667.624	65.19
667.827	90.19
668.03	94.19
668.232	80.19
668.435	94.19
668.638	80.19
668.841	75.19
669.043	78.19
669.246	74.19
669.449	88.19
669.651	92.19
669.854	77.19
670.057	82.19
670.259	94.19
670.462	77.19
670.665	83.19
670.867	83.19
671.07	78.19
671.272	84.19
671.475	77.19
671.677	73.19
671.88	75.19
672.082	78.19
672.284	77.19
672.487	71.19
672.689	84.19
672.892	68.19
