Data from Circ_1995_H10_HRD10591_00003.txt Node
Date: Wed Jan 03 11:36:47 EST 2024
User: Yrep
Spectrometer: HR+D1059
Trigger mode: 1
Integration Time (sec): 1.000000E-1
Scans to average: 1
Electric dark correction enabled: true
Nonlinearity correction enabled: false
Boxcar width: 0
XAxis mode: Wavelengths
Number of Pixels in Spectrum: 2048
>>>>>Begin Spectral Data<<<<<
223.165	-8.94
223.4	-8.94
223.635	-8.94
223.869	-17.94
224.104	-20.94
224.338	-19.94
224.573	-11.94
224.808	-10.94
225.042	-4.94
225.277	-20.94
225.511	-3.94
225.746	3.06
225.98	9.06
226.215	6.06
226.449	21.06
226.683	19.06
226.918	23.06
227.152	39.06
227.387	34.06
227.621	31.06
227.856	37.06
228.09	50.06
228.324	68.06
228.559	50.06
228.793	54.06
229.027	63.06
229.262	69.06
229.496	83.06
229.73	98.06
229.964	90.06
230.199	75.06
230.433	77.06
230.667	79.06
230.901	86.06
231.136	67.06
231.37	80.06
231.604	86.06
231.838	80.06
232.072	99.06
232.306	87.06
232.541	70.06
232.775	84.06
233.009	91.06
233.243	84.06
233.477	89.06
233.711	81.06
233.945	85.06
234.179	82.06
234.413	75.06
234.647	86.06
234.881	82.06
235.115	85.06
235.349	82.06
235.583	78.06
235.817	81.06
236.051	81.06
236.285	91.06
236.519	78.06
236.753	95.06
236.987	108.06
237.221	83.06
237.455	95.06
237.689	77.06
237.922	91.06
238.156	66.06
238.39	68.06
238.624	82.06
238.858	92.06
239.091	88.06
239.325	97.06
239.559	76.06
239.793	79.06
240.027	107.06
240.26	92.06
240.494	70.06
240.728	82.06
240.961	84.06
241.195	89.06
241.429	82.06
241.662	80.06
241.896	74.06
242.13	67.06
242.363	74.06
242.597	88.06
242.83	77.06
243.064	74.06
243.298	91.06
243.531	75.06
243.765	81.06
243.998	84.06
244.232	85.06
244.465	87.06
244.699	90.06
244.932	85.06
245.166	95.06
245.399	83.06
245.633	94.06
245.866	86.06
246.099	75.06
246.333	81.06
246.566	90.06
246.8	78.06
247.033	80.06
247.266	91.06
247.5	73.06
247.733	90.06
247.966	92.06
248.2	78.06
248.433	87.06
248.666	95.06
248.899	82.06
249.133	112.06
249.366	108.06
249.599	108.06
249.832	73.06
250.066	85.06
250.299	87.06
250.532	80.06
250.765	86.06
250.998	90.06
251.231	84.06
251.465	77.06
251.698	83.06
251.931	102.06
252.164	70.06
252.397	92.06
252.63	68.06
252.863	86.06
253.096	81.06
253.329	79.06
253.562	82.06
253.795	91.06
254.028	84.06
254.261	96.06
254.494	87.06
254.727	86.06
254.96	81.06
255.193	94.06
255.426	87.06
255.659	98.06
255.892	99.06
256.124	95.06
256.357	85.06
256.59	92.06
256.823	87.06
257.056	91.06
257.289	92.06
257.521	83.06
257.754	98.06
257.987	87.06
258.22	90.06
258.452	95.06
258.685	94.06
258.918	75.06
259.151	88.06
259.383	88.06
259.616	100.06
259.849	91.06
260.081	84.06
260.314	68.06
260.547	70.06
260.779	91.06
261.012	111.06
261.244	103.06
261.477	101.06
261.71	101.06
261.942	122.06
262.175	132.06
262.407	103.06
262.64	89.06
262.872	92.06
263.105	96.06
263.337	82.06
263.57	82.06
263.802	98.06
264.035	79.06
264.267	85.06
264.499	84.06
264.732	89.06
264.964	90.06
265.197	92.06
265.429	93.06
265.661	103.06
265.894	78.06
266.126	89.06
266.358	101.06
266.591	97.06
266.823	83.06
267.055	81.06
267.287	100.06
267.52	110.06
267.752	103.06
267.984	94.06
268.216	95.06
268.448	85.06
268.681	93.06
268.913	78.06
269.145	79.06
269.377	90.06
269.609	98.06
269.841	86.06
270.073	84.06
270.306	89.06
270.538	92.06
270.77	78.06
271.002	82.06
271.234	84.06
271.466	98.06
271.698	94.06
271.93	80.06
272.162	90.06
272.394	96.06
272.626	81.06
272.858	86.06
273.09	85.06
273.322	91.06
273.553	90.06
273.785	93.06
274.017	92.06
274.249	100.06
274.481	92.06
274.713	97.06
274.945	90.06
275.176	101.06
275.408	103.06
275.64	124.06
275.872	108.06
276.104	102.06
276.335	110.06
276.567	113.06
276.799	146.06
277.031	165.06
277.262	178.06
277.494	141.06
277.726	106.06
277.957	110.06
278.189	83.06
278.421	89.06
278.652	82.06
278.884	78.06
279.115	99.06
279.347	85.06
279.579	103.06
279.81	126.06
280.042	165.06
280.273	217.06
280.505	167.06
280.736	92.06
280.968	93.06
281.199	98.06
281.431	94.06
281.662	89.06
281.894	87.06
282.125	108.06
282.356	117.06
282.588	160.06
282.819	145.06
283.051	87.06
283.282	100.06
283.513	93.06
283.745	93.06
283.976	97.06
284.207	75.06
284.439	92.06
284.67	91.06
284.901	89.06
285.132	94.06
285.364	88.06
285.595	82.06
285.826	105.06
286.057	89.06
286.288	81.06
286.52	79.06
286.751	96.06
286.982	92.06
287.213	100.06
287.444	96.06
287.675	100.06
287.906	107.06
288.138	87.06
288.369	101.06
288.6	99.06
288.831	96.06
289.062	87.06
289.293	94.06
289.524	83.06
289.755	93.06
289.986	86.06
290.217	88.06
290.448	81.06
290.679	82.06
290.91	92.06
291.141	80.06
291.371	96.06
291.602	85.06
291.833	100.06
292.064	96.06
292.295	93.06
292.526	74.06
292.757	86.06
292.987	84.06
293.218	89.06
293.449	103.06
293.68	91.06
293.91	87.06
294.141	90.06
294.372	84.06
294.603	101.06
294.833	86.06
295.064	74.06
295.295	95.06
295.525	109.06
295.756	113.06
295.987	130.06
296.217	172.06
296.448	145.06
296.679	99.06
296.909	92.06
297.14	85.06
297.37	99.06
297.601	87.06
297.831	97.06
298.062	91.06
298.292	79.06
298.523	86.06
298.753	94.06
298.984	93.06
299.214	98.06
299.445	92.06
299.675	95.06
299.905	94.06
300.136	93.06
300.366	85.06
300.597	101.06
300.827	94.06
301.057	118.06
301.288	109.06
301.518	111.06
301.748	114.06
301.979	128.06
302.209	111.06
302.439	106.06
302.669	101.06
302.9	97.06
303.13	101.06
303.36	111.06
303.59	130.06
303.82	138.06
304.051	121.06
304.281	99.06
304.511	101.06
304.741	102.06
304.971	91.06
305.201	86.06
305.431	96.06
305.661	101.06
305.891	95.06
306.121	104.06
306.352	119.06
306.582	110.06
306.812	92.06
307.042	121.06
307.272	134.06
307.502	161.06
307.731	144.06
307.961	121.06
308.191	95.06
308.421	89.06
308.651	100.06
308.881	90.06
309.111	100.06
309.341	118.06
309.571	106.06
309.8	117.06
310.03	106.06
310.26	106.06
310.49	106.06
310.72	98.06
310.949	115.06
311.179	120.06
311.409	103.06
311.639	106.06
311.868	106.06
312.098	103.06
312.328	108.06
312.557	105.06
312.787	118.06
313.017	111.06
313.246	89.06
313.476	110.06
313.706	115.06
313.935	89.06
314.165	110.06
314.394	105.06
314.624	118.06
314.853	111.06
315.083	111.06
315.312	109.06
315.542	90.06
315.771	100.06
316.001	97.06
316.23	100.06
316.46	89.06
316.689	86.06
316.919	103.06
317.148	92.06
317.377	111.06
317.607	104.06
317.836	84.06
318.065	104.06
318.295	96.06
318.524	91.06
318.753	91.06
318.983	109.06
319.212	100.06
319.441	106.06
319.67	117.06
319.9	101.06
320.129	101.06
320.358	99.06
320.587	108.06
320.816	88.06
321.046	84.06
321.275	94.06
321.504	87.06
321.733	86.06
321.962	108.06
322.191	110.06
322.42	119.06
322.649	121.06
322.878	111.06
323.108	129.06
323.337	131.06
323.566	146.06
323.795	170.06
324.024	214.06
324.253	426.06
324.482	895.06
324.71	1841.06
324.939	2523.06
325.168	899.06
325.397	293.06
325.626	172.06
325.855	134.06
326.084	131.06
326.313	140.06
326.542	177.06
326.77	232.06
326.999	448.06
327.228	962.06
327.457	1793.06
327.686	1452.06
327.914	501.06
328.143	425.06
328.372	546.06
328.6	325.06
328.829	175.06
329.058	179.06
329.287	201.06
329.515	164.06
329.744	210.06
329.972	395.06
330.201	762.06
330.43	1158.06
330.658	531.06
330.887	257.06
331.115	189.06
331.344	125.06
331.572	115.06
331.801	121.06
332.03	118.06
332.258	120.06
332.486	109.06
332.715	108.06
332.943	110.06
333.172	106.06
333.4	132.06
333.629	150.06
333.857	203.06
334.085	356.06
334.314	686.06
334.542	1369.06
334.771	1333.06
334.999	356.06
335.227	154.06
335.455	127.06
335.684	101.06
335.912	111.06
336.14	122.06
336.369	109.06
336.597	123.06
336.825	111.06
337.053	110.06
337.281	109.06
337.51	108.06
337.738	104.06
337.966	90.06
338.194	109.06
338.422	111.06
338.65	89.06
338.878	89.06
339.106	102.06
339.334	99.06
339.562	106.06
339.79	95.06
340.018	98.06
340.246	93.06
340.474	111.06
340.702	101.06
340.93	93.06
341.158	102.06
341.386	92.06
341.614	105.06
341.842	119.06
342.07	104.06
342.298	112.06
342.526	106.06
342.754	94.06
342.981	99.06
343.209	91.06
343.437	95.06
343.665	84.06
343.893	104.06
344.12	100.06
344.348	77.06
344.576	90.06
344.804	90.06
345.031	110.06
345.259	106.06
345.487	100.06
345.714	114.06
345.942	103.06
346.17	94.06
346.397	99.06
346.625	97.06
346.853	99.06
347.08	119.06
347.308	101.06
347.535	88.06
347.763	118.06
347.99	100.06
348.218	100.06
348.445	114.06
348.673	106.06
348.9	103.06
349.128	99.06
349.355	89.06
349.583	94.06
349.81	106.06
350.037	83.06
350.265	108.06
350.492	113.06
350.72	103.06
350.947	103.06
351.174	120.06
351.402	119.06
351.629	96.06
351.856	101.06
352.083	114.06
352.311	121.06
352.538	112.06
352.765	125.06
352.992	117.06
353.22	115.06
353.447	97.06
353.674	96.06
353.901	93.06
354.128	83.06
354.355	100.06
354.583	89.06
354.81	106.06
355.037	106.06
355.264	101.06
355.491	101.06
355.718	94.06
355.945	99.06
356.172	92.06
356.399	102.06
356.626	108.06
356.853	85.06
357.08	96.06
357.307	102.06
357.534	97.06
357.761	90.06
357.988	98.06
358.215	112.06
358.441	119.06
358.668	110.06
358.895	101.06
359.122	91.06
359.349	112.06
359.576	113.06
359.802	111.06
360.029	138.06
360.256	146.06
360.483	124.06
360.709	110.06
360.936	115.06
361.163	101.06
361.39	104.06
361.616	98.06
361.843	93.06
362.07	97.06
362.296	108.06
362.523	111.06
362.749	113.06
362.976	97.06
363.203	96.06
363.429	97.06
363.656	101.06
363.882	102.06
364.109	100.06
364.335	86.06
364.562	99.06
364.788	93.06
365.015	94.06
365.241	101.06
365.468	114.06
365.694	118.06
365.92	134.06
366.147	86.06
366.373	92.06
366.599	97.06
366.826	99.06
367.052	89.06
367.278	98.06
367.505	90.06
367.731	98.06
367.957	84.06
368.184	104.06
368.41	118.06
368.636	124.06
368.862	132.06
369.089	114.06
369.315	97.06
369.541	102.06
369.767	102.06
369.993	99.06
370.219	107.06
370.445	99.06
370.672	80.06
370.898	77.06
371.124	94.06
371.35	99.06
371.576	88.06
371.802	105.06
372.028	91.06
372.254	78.06
372.48	103.06
372.706	87.06
372.932	107.06
373.158	87.06
373.384	100.06
373.61	89.06
373.835	95.06
374.061	81.06
374.287	97.06
374.513	90.06
374.739	81.06
374.965	85.06
375.191	101.06
375.416	94.06
375.642	94.06
375.868	97.06
376.094	100.06
376.319	96.06
376.545	98.06
376.771	92.06
376.997	79.06
377.222	86.06
377.448	92.06
377.674	100.06
377.899	96.06
378.125	97.06
378.35	94.06
378.576	88.06
378.802	98.06
379.027	109.06
379.253	94.06
379.478	95.06
379.704	111.06
379.929	101.06
380.155	97.06
380.38	96.06
380.606	104.06
380.831	111.06
381.057	106.06
381.282	100.06
381.507	128.06
381.733	103.06
381.958	114.06
382.184	109.06
382.409	115.06
382.634	117.06
382.86	111.06
383.085	109.06
383.31	124.06
383.535	112.06
383.761	107.06
383.986	114.06
384.211	118.06
384.436	109.06
384.662	108.06
384.887	134.06
385.112	136.06
385.337	127.06
385.562	133.06
385.787	130.06
386.013	142.06
386.238	150.06
386.463	152.06
386.688	124.06
386.913	137.06
387.138	129.06
387.363	135.06
387.588	119.06
387.813	122.06
388.038	145.06
388.263	141.06
388.488	133.06
388.713	91.06
388.938	85.06
389.163	89.06
389.387	111.06
389.612	104.06
389.837	83.06
390.062	92.06
390.287	102.06
390.512	102.06
390.736	89.06
390.961	107.06
391.186	102.06
391.411	95.06
391.636	91.06
391.86	73.06
392.085	82.06
392.31	81.06
392.534	85.06
392.759	82.06
392.984	86.06
393.208	95.06
393.433	88.06
393.658	88.06
393.882	107.06
394.107	98.06
394.331	90.06
394.556	94.06
394.78	109.06
395.005	80.06
395.229	90.06
395.454	77.06
395.678	71.06
395.903	99.06
396.127	87.06
396.352	91.06
396.576	89.06
396.801	82.06
397.025	96.06
397.249	89.06
397.474	94.06
397.698	92.06
397.922	97.06
398.147	89.06
398.371	96.06
398.595	83.06
398.82	90.06
399.044	78.06
399.268	85.06
399.492	79.06
399.717	95.06
399.941	88.06
400.165	99.06
400.389	91.06
400.613	94.06
400.837	87.06
401.062	80.06
401.286	105.06
401.51	118.06
401.734	101.06
401.958	108.06
402.182	144.06
402.406	186.06
402.63	137.06
402.854	109.06
403.078	105.06
403.302	98.06
403.526	97.06
403.75	84.06
403.974	86.06
404.198	81.06
404.422	109.06
404.645	91.06
404.869	98.06
405.093	118.06
405.317	137.06
405.541	130.06
405.765	115.06
405.988	126.06
406.212	222.06
406.436	298.06
406.66	196.06
406.883	124.06
407.107	103.06
407.331	100.06
407.555	103.06
407.778	100.06
408.002	97.06
408.226	86.06
408.449	93.06
408.673	86.06
408.896	93.06
409.12	110.06
409.344	95.06
409.567	83.06
409.791	89.06
410.014	95.06
410.238	94.06
410.461	86.06
410.685	85.06
410.908	102.06
411.132	103.06
411.355	120.06
411.578	99.06
411.802	92.06
412.025	99.06
412.249	108.06
412.472	119.06
412.695	118.06
412.919	95.06
413.142	103.06
413.365	97.06
413.589	100.06
413.812	102.06
414.035	99.06
414.258	105.06
414.482	98.06
414.705	99.06
414.928	117.06
415.151	105.06
415.374	105.06
415.597	110.06
415.821	94.06
416.044	84.06
416.267	89.06
416.49	85.06
416.713	97.06
416.936	87.06
417.159	89.06
417.382	91.06
417.605	96.06
417.828	110.06
418.051	114.06
418.274	119.06
418.497	93.06
418.72	94.06
418.943	85.06
419.166	93.06
419.389	98.06
419.611	95.06
419.834	89.06
420.057	91.06
420.28	91.06
420.503	81.06
420.726	103.06
420.948	105.06
421.171	90.06
421.394	100.06
421.617	91.06
421.839	81.06
422.062	102.06
422.285	104.06
422.507	102.06
422.73	106.06
422.953	109.06
423.175	87.06
423.398	100.06
423.621	93.06
423.843	86.06
424.066	91.06
424.288	95.06
424.511	115.06
424.733	105.06
424.956	115.06
425.178	100.06
425.401	116.06
425.623	105.06
425.846	93.06
426.068	103.06
426.291	104.06
426.513	76.06
426.735	92.06
426.958	114.06
427.18	115.06
427.402	171.06
427.625	237.06
427.847	223.06
428.069	196.06
428.292	133.06
428.514	105.06
428.736	97.06
428.958	83.06
429.181	94.06
429.403	77.06
429.625	88.06
429.847	89.06
430.069	102.06
430.292	96.06
430.514	102.06
430.736	93.06
430.958	89.06
431.18	95.06
431.402	86.06
431.624	92.06
431.846	90.06
432.068	85.06
432.29	90.06
432.512	103.06
432.734	105.06
432.956	100.06
433.178	106.06
433.4	84.06
433.622	98.06
433.844	101.06
434.066	97.06
434.287	90.06
434.509	85.06
434.731	93.06
434.953	86.06
435.175	97.06
435.397	86.06
435.618	92.06
435.84	103.06
436.062	126.06
436.284	126.06
436.505	105.06
436.727	101.06
436.949	93.06
437.17	98.06
437.392	89.06
437.614	97.06
437.835	114.06
438.057	125.06
438.278	123.06
438.5	111.06
438.721	133.06
438.943	112.06
439.165	73.06
439.386	102.06
439.608	79.06
439.829	105.06
440.05	133.06
440.272	165.06
440.493	131.06
440.715	90.06
440.936	94.06
441.158	97.06
441.379	94.06
441.6	103.06
441.822	99.06
442.043	94.06
442.264	107.06
442.486	120.06
442.707	102.06
442.928	117.06
443.149	186.06
443.371	189.06
443.592	120.06
443.813	124.06
444.034	122.06
444.255	96.06
444.476	100.06
444.698	89.06
444.919	104.06
445.14	143.06
445.361	123.06
445.582	140.06
445.803	169.06
446.024	165.06
446.245	154.06
446.466	112.06
446.687	102.06
446.908	95.06
447.129	100.06
447.35	104.06
447.571	98.06
447.792	101.06
448.013	100.06
448.234	112.06
448.455	122.06
448.675	120.06
448.896	124.06
449.117	112.06
449.338	101.06
449.559	138.06
449.779	153.06
450	87.06
450.221	93.06
450.442	107.06
450.662	105.06
450.883	125.06
451.104	132.06
451.324	99.06
451.545	94.06
451.766	82.06
451.986	91.06
452.207	97.06
452.428	111.06
452.648	118.06
452.869	130.06
453.089	122.06
453.31	149.06
453.53	123.06
453.751	111.06
453.971	117.06
454.192	119.06
454.412	103.06
454.633	97.06
454.853	85.06
455.073	93.06
455.294	87.06
455.514	103.06
455.734	98.06
455.955	82.06
456.175	82.06
456.395	87.06
456.616	87.06
456.836	92.06
457.056	86.06
457.276	74.06
457.497	85.06
457.717	81.06
457.937	94.06
458.157	96.06
458.377	105.06
458.598	125.06
458.818	196.06
459.038	209.06
459.258	137.06
459.478	99.06
459.698	97.06
459.918	83.06
460.138	95.06
460.358	89.06
460.578	87.06
460.798	97.06
461.018	95.06
461.238	87.06
461.458	89.06
461.678	83.06
461.898	83.06
462.118	99.06
462.338	83.06
462.558	93.06
462.777	91.06
462.997	98.06
463.217	99.06
463.437	100.06
463.657	102.06
463.876	95.06
464.096	97.06
464.316	100.06
464.536	106.06
464.755	104.06
464.975	119.06
465.195	230.06
465.414	228.06
465.634	117.06
465.854	93.06
466.073	82.06
466.293	91.06
466.512	98.06
466.732	98.06
466.951	101.06
467.171	99.06
467.391	122.06
467.61	139.06
467.829	190.06
468.049	455.06
468.268	692.06
468.488	199.06
468.707	109.06
468.927	99.06
469.146	100.06
469.365	105.06
469.585	97.06
469.804	122.06
470.023	114.06
470.243	112.06
470.462	107.06
470.681	133.06
470.901	90.06
471.12	86.06
471.339	108.06
471.558	123.06
471.777	125.06
471.997	262.06
472.216	860.06
472.435	2025.06
472.654	483.06
472.873	153.06
473.092	126.06
473.311	106.06
473.53	95.06
473.749	99.06
473.968	100.06
474.187	121.06
474.406	112.06
474.625	100.06
474.844	82.06
475.063	99.06
475.282	94.06
475.501	83.06
475.72	95.06
475.939	95.06
476.158	90.06
476.377	109.06
476.596	105.06
476.814	96.06
477.033	121.06
477.252	107.06
477.471	94.06
477.69	97.06
477.908	91.06
478.127	85.06
478.346	104.06
478.564	103.06
478.783	113.06
479.002	106.06
479.22	106.06
479.439	117.06
479.658	132.06
479.876	121.06
480.095	127.06
480.313	124.06
480.532	136.06
480.751	247.06
480.969	770.06
481.188	3378.06
481.406	2027.06
481.624	303.06
481.843	125.06
482.061	114.06
482.28	93.06
482.498	99.06
482.717	114.06
482.935	79.06
483.153	88.06
483.372	97.06
483.59	90.06
483.808	104.06
484.027	101.06
484.245	87.06
484.463	102.06
484.681	98.06
484.9	85.06
485.118	100.06
485.336	98.06
485.554	109.06
485.772	108.06
485.99	130.06
486.209	106.06
486.427	118.06
486.645	152.06
486.863	131.06
487.081	106.06
487.299	103.06
487.517	108.06
487.735	90.06
487.953	89.06
488.171	97.06
488.389	103.06
488.607	98.06
488.825	93.06
489.043	94.06
489.261	92.06
489.479	100.06
489.696	90.06
489.914	110.06
490.132	79.06
490.35	100.06
490.568	93.06
490.786	92.06
491.003	99.06
491.221	105.06
491.439	89.06
491.657	99.06
491.874	97.06
492.092	88.06
492.31	92.06
492.527	99.06
492.745	88.06
492.963	91.06
493.18	91.06
493.398	99.06
493.615	102.06
493.833	86.06
494.05	95.06
494.268	98.06
494.485	89.06
494.703	82.06
494.92	98.06
495.138	93.06
495.355	92.06
495.573	101.06
495.79	95.06
496.008	107.06
496.225	88.06
496.442	95.06
496.66	97.06
496.877	97.06
497.094	103.06
497.312	97.06
497.529	90.06
497.746	86.06
497.963	96.06
498.181	103.06
498.398	106.06
498.615	107.06
498.832	118.06
499.049	104.06
499.267	96.06
499.484	104.06
499.701	91.06
499.918	109.06
500.135	97.06
500.352	90.06
500.569	95.06
500.786	97.06
501.003	84.06
501.22	95.06
501.437	104.06
501.654	91.06
501.871	118.06
502.088	89.06
502.305	94.06
502.522	103.06
502.739	92.06
502.956	86.06
503.172	90.06
503.389	97.06
503.606	121.06
503.823	109.06
504.04	101.06
504.256	96.06
504.473	96.06
504.69	80.06
504.907	99.06
505.123	103.06
505.34	93.06
505.557	106.06
505.773	102.06
505.99	98.06
506.207	81.06
506.423	93.06
506.64	101.06
506.856	101.06
507.073	115.06
507.289	98.06
507.506	101.06
507.722	127.06
507.939	121.06
508.155	96.06
508.372	110.06
508.588	99.06
508.805	91.06
509.021	102.06
509.238	98.06
509.454	99.06
509.67	107.06
509.887	106.06
510.103	153.06
510.319	243.06
510.536	871.06
510.752	3028.06
510.968	846.06
511.184	179.06
511.401	131.06
511.617	122.06
511.833	108.06
512.049	99.06
512.265	82.06
512.481	101.06
512.698	101.06
512.914	94.06
513.13	100.06
513.346	108.06
513.562	101.06
513.778	95.06
513.994	101.06
514.21	124.06
514.426	146.06
514.642	181.06
514.858	144.06
515.074	201.06
515.29	657.06
515.506	2456.06
515.721	838.06
515.937	204.06
516.153	130.06
516.369	116.06
516.585	114.06
516.801	116.06
517.016	118.06
517.232	108.06
517.448	103.06
517.664	95.06
517.879	97.06
518.095	106.06
518.311	92.06
518.527	117.06
518.742	84.06
518.958	106.06
519.173	110.06
519.389	92.06
519.605	103.06
519.82	99.06
520.036	122.06
520.251	138.06
520.467	134.06
520.682	113.06
520.898	129.06
521.113	130.06
521.329	164.06
521.544	289.06
521.76	853.06
521.975	4026.06
522.19	2444.06
522.406	475.06
522.621	151.06
522.836	121.06
523.052	112.06
523.267	116.06
523.482	97.06
523.698	108.06
523.913	138.06
524.128	122.06
524.343	90.06
524.559	93.06
524.774	95.06
524.989	108.06
525.204	101.06
525.419	111.06
525.634	95.06
525.849	92.06
526.064	114.06
526.28	106.06
526.495	94.06
526.71	98.06
526.925	98.06
527.14	91.06
527.355	84.06
527.57	87.06
527.785	89.06
527.999	96.06
528.214	90.06
528.429	93.06
528.644	91.06
528.859	111.06
529.074	116.06
529.289	144.06
529.503	254.06
529.718	114.06
529.933	86.06
530.148	94.06
530.363	100.06
530.577	79.06
530.792	85.06
531.007	105.06
531.221	95.06
531.436	100.06
531.651	86.06
531.865	98.06
532.08	94.06
532.295	108.06
532.509	93.06
532.724	95.06
532.938	94.06
533.153	94.06
533.367	100.06
533.582	85.06
533.796	87.06
534.011	97.06
534.225	95.06
534.44	101.06
534.654	103.06
534.868	93.06
535.083	100.06
535.297	96.06
535.511	117.06
535.726	117.06
535.94	107.06
536.154	92.06
536.369	105.06
536.583	77.06
536.797	90.06
537.011	93.06
537.225	92.06
537.44	94.06
537.654	101.06
537.868	92.06
538.082	95.06
538.296	86.06
538.51	101.06
538.724	96.06
538.938	99.06
539.153	108.06
539.367	122.06
539.581	100.06
539.795	86.06
540.009	88.06
540.222	104.06
540.436	91.06
540.65	80.06
540.864	93.06
541.078	95.06
541.292	103.06
541.506	101.06
541.72	99.06
541.934	69.06
542.147	97.06
542.361	93.06
542.575	85.06
542.789	112.06
543.002	107.06
543.216	92.06
543.43	116.06
543.644	96.06
543.857	92.06
544.071	82.06
544.285	84.06
544.498	113.06
544.712	91.06
544.925	90.06
545.139	101.06
545.352	99.06
545.566	88.06
545.779	96.06
545.993	95.06
546.206	93.06
546.42	103.06
546.633	102.06
546.847	117.06
547.06	97.06
547.274	73.06
547.487	80.06
547.7	89.06
547.914	94.06
548.127	91.06
548.34	104.06
548.554	70.06
548.767	89.06
548.98	83.06
549.193	87.06
549.407	100.06
549.62	90.06
549.833	107.06
550.046	89.06
550.259	98.06
550.473	100.06
550.686	92.06
550.899	85.06
551.112	94.06
551.325	106.06
551.538	109.06
551.751	99.06
551.964	92.06
552.177	78.06
552.39	91.06
552.603	99.06
552.816	96.06
553.029	94.06
553.242	101.06
553.455	115.06
553.667	105.06
553.88	112.06
554.093	107.06
554.306	101.06
554.519	119.06
554.732	91.06
554.944	105.06
555.157	92.06
555.37	99.06
555.583	90.06
555.795	94.06
556.008	113.06
556.221	99.06
556.433	103.06
556.646	87.06
556.859	102.06
557.071	113.06
557.284	87.06
557.496	87.06
557.709	97.06
557.921	94.06
558.134	90.06
558.346	85.06
558.559	91.06
558.771	100.06
558.984	105.06
559.196	97.06
559.409	87.06
559.621	89.06
559.833	104.06
560.046	109.06
560.258	115.06
560.47	144.06
560.683	111.06
560.895	89.06
561.107	94.06
561.32	81.06
561.532	78.06
561.744	113.06
561.956	102.06
562.168	86.06
562.381	100.06
562.593	97.06
562.805	99.06
563.017	101.06
563.229	86.06
563.441	92.06
563.653	83.06
563.865	79.06
564.077	90.06
564.289	93.06
564.501	78.06
564.713	94.06
564.925	98.06
565.137	110.06
565.349	92.06
565.561	91.06
565.773	91.06
565.985	92.06
566.197	91.06
566.408	102.06
566.62	82.06
566.832	78.06
567.044	91.06
567.255	89.06
567.467	91.06
567.679	98.06
567.891	89.06
568.102	75.06
568.314	78.06
568.526	82.06
568.737	102.06
568.949	84.06
569.161	81.06
569.372	95.06
569.584	89.06
569.795	90.06
570.007	119.06
570.218	289.06
570.43	151.06
570.641	90.06
570.853	79.06
571.064	99.06
571.276	85.06
571.487	90.06
571.698	95.06
571.91	103.06
572.121	87.06
572.333	99.06
572.544	85.06
572.755	91.06
572.966	95.06
573.178	93.06
573.389	85.06
573.6	82.06
573.811	101.06
574.023	101.06
574.234	97.06
574.445	102.06
574.656	86.06
574.867	76.06
575.078	86.06
575.289	85.06
575.501	97.06
575.712	83.06
575.923	81.06
576.134	84.06
576.345	82.06
576.556	95.06
576.767	94.06
576.978	94.06
577.188	105.06
577.399	109.06
577.61	91.06
577.821	101.06
578.032	130.06
578.243	326.06
578.454	952.06
578.665	240.06
578.875	115.06
579.086	100.06
579.297	93.06
579.508	88.06
579.718	92.06
579.929	92.06
580.14	87.06
580.35	89.06
580.561	77.06
580.772	98.06
580.982	81.06
581.193	81.06
581.403	95.06
581.614	83.06
581.825	80.06
582.035	79.06
582.246	82.06
582.456	85.06
582.667	83.06
582.877	75.06
583.087	94.06
583.298	101.06
583.508	93.06
583.719	91.06
583.929	91.06
584.139	105.06
584.35	81.06
584.56	95.06
584.77	93.06
584.981	83.06
585.191	87.06
585.401	86.06
585.611	99.06
585.821	91.06
586.032	90.06
586.242	99.06
586.452	93.06
586.662	94.06
586.872	97.06
587.082	100.06
587.292	98.06
587.502	85.06
587.713	83.06
587.923	92.06
588.133	85.06
588.343	101.06
588.553	107.06
588.762	106.06
588.972	106.06
589.182	265.06
589.392	155.06
589.602	128.06
589.812	189.06
590.022	117.06
590.232	86.06
590.441	90.06
590.651	91.06
590.861	89.06
591.071	94.06
591.281	103.06
591.49	99.06
591.7	91.06
591.91	85.06
592.119	93.06
592.329	94.06
592.539	97.06
592.748	97.06
592.958	74.06
593.167	78.06
593.377	89.06
593.587	98.06
593.796	95.06
594.006	86.06
594.215	90.06
594.424	92.06
594.634	80.06
594.843	98.06
595.053	83.06
595.262	108.06
595.472	89.06
595.681	96.06
595.89	89.06
596.1	90.06
596.309	76.06
596.518	94.06
596.727	94.06
596.937	99.06
597.146	98.06
597.355	93.06
597.564	91.06
597.774	82.06
597.983	89.06
598.192	92.06
598.401	93.06
598.61	96.06
598.819	101.06
599.028	84.06
599.237	79.06
599.446	88.06
599.655	94.06
599.864	81.06
600.073	91.06
600.282	97.06
600.491	86.06
600.7	93.06
600.909	94.06
601.118	82.06
601.327	83.06
601.536	88.06
601.745	87.06
601.953	76.06
602.162	97.06
602.371	97.06
602.58	93.06
602.789	85.06
602.997	91.06
603.206	95.06
603.415	93.06
603.623	89.06
603.832	97.06
604.041	86.06
604.249	76.06
604.458	100.06
604.666	79.06
604.875	99.06
605.084	79.06
605.292	91.06
605.501	98.06
605.709	83.06
605.918	90.06
606.126	87.06
606.334	87.06
606.543	81.06
606.751	82.06
606.96	94.06
607.168	80.06
607.376	76.06
607.585	83.06
607.793	82.06
608.001	85.06
608.21	101.06
608.418	94.06
608.626	101.06
608.834	101.06
609.043	93.06
609.251	84.06
609.459	102.06
609.667	84.06
609.875	91.06
610.083	75.06
610.291	89.06
610.499	98.06
610.707	82.06
610.916	77.06
611.124	77.06
611.332	96.06
611.54	79.06
611.748	87.06
611.955	90.06
612.163	83.06
612.371	85.06
612.579	81.06
612.787	87.06
612.995	109.06
613.203	83.06
613.411	82.06
613.618	89.06
613.826	92.06
614.034	83.06
614.242	97.06
614.449	79.06
614.657	90.06
614.865	84.06
615.072	93.06
615.28	98.06
615.488	83.06
615.695	89.06
615.903	94.06
616.111	98.06
616.318	113.06
616.526	92.06
616.733	84.06
616.941	93.06
617.148	94.06
617.356	81.06
617.563	80.06
617.771	79.06
617.978	89.06
618.185	105.06
618.393	95.06
618.6	93.06
618.807	91.06
619.015	80.06
619.222	84.06
619.429	76.06
619.637	99.06
619.844	85.06
620.051	92.06
620.258	90.06
620.466	81.06
620.673	75.06
620.88	76.06
621.087	84.06
621.294	86.06
621.501	78.06
621.708	85.06
621.915	89.06
622.122	98.06
622.329	92.06
622.536	91.06
622.743	87.06
622.95	69.06
623.157	97.06
623.364	89.06
623.571	88.06
623.778	78.06
623.985	81.06
624.192	89.06
624.399	86.06
624.606	99.06
624.812	90.06
625.019	91.06
625.226	84.06
625.433	89.06
625.639	99.06
625.846	101.06
626.053	101.06
626.259	91.06
626.466	89.06
626.673	82.06
626.879	91.06
627.086	97.06
627.293	67.06
627.499	98.06
627.706	93.06
627.912	83.06
628.119	78.06
628.325	93.06
628.532	88.06
628.738	87.06
628.945	84.06
629.151	97.06
629.357	77.06
629.564	97.06
629.77	94.06
629.976	80.06
630.183	92.06
630.389	92.06
630.595	89.06
630.802	90.06
631.008	82.06
631.214	75.06
631.42	77.06
631.627	90.06
631.833	83.06
632.039	94.06
632.245	86.06
632.451	91.06
632.657	82.06
632.863	89.06
633.069	85.06
633.275	88.06
633.481	88.06
633.688	82.06
633.893	75.06
634.099	80.06
634.305	79.06
634.511	106.06
634.717	96.06
634.923	87.06
635.129	79.06
635.335	85.06
635.541	80.06
635.747	97.06
635.952	90.06
636.158	134.06
636.364	319.06
636.57	275.06
636.775	107.06
636.981	89.06
637.187	91.06
637.392	82.06
637.598	87.06
637.804	85.06
638.009	95.06
638.215	83.06
638.421	94.06
638.626	83.06
638.832	82.06
639.037	98.06
639.243	93.06
639.448	84.06
639.654	95.06
639.859	86.06
640.065	91.06
640.27	98.06
640.475	83.06
640.681	86.06
640.886	90.06
641.091	86.06
641.297	85.06
641.502	99.06
641.707	92.06
641.913	84.06
642.118	82.06
642.323	79.06
642.528	90.06
642.733	98.06
642.939	89.06
643.144	97.06
643.349	92.06
643.554	95.06
643.759	99.06
643.964	87.06
644.169	97.06
644.374	77.06
644.579	98.06
644.784	89.06
644.989	86.06
645.194	86.06
645.399	88.06
645.604	86.06
645.809	100.06
646.014	90.06
646.219	83.06
646.423	88.06
646.628	86.06
646.833	98.06
647.038	85.06
647.243	94.06
647.447	107.06
647.652	87.06
647.857	87.06
648.062	82.06
648.266	91.06
648.471	85.06
648.676	93.06
648.88	99.06
649.085	91.06
649.289	102.06
649.494	111.06
649.698	148.06
649.903	111.06
650.107	91.06
650.312	96.06
650.516	94.06
650.721	80.06
650.925	102.06
651.13	83.06
651.334	89.06
651.539	85.06
651.743	77.06
651.947	94.06
652.152	86.06
652.356	91.06
652.56	85.06
652.764	85.06
652.969	79.06
653.173	83.06
653.377	89.06
653.581	83.06
653.785	74.06
653.99	90.06
654.194	78.06
654.398	90.06
654.602	83.06
654.806	81.06
655.01	96.06
655.214	92.06
655.418	89.06
655.622	85.06
655.826	91.06
656.03	95.06
656.234	91.06
656.438	115.06
656.642	101.06
656.846	89.06
657.049	86.06
657.253	81.06
657.457	73.06
657.661	88.06
657.865	89.06
658.068	91.06
658.272	87.06
658.476	88.06
658.68	63.06
658.883	75.06
659.087	94.06
659.291	88.06
659.494	75.06
659.698	94.06
659.901	78.06
660.105	89.06
660.309	86.06
660.512	77.06
660.716	93.06
660.919	79.06
661.123	91.06
661.326	93.06
661.53	79.06
661.733	86.06
661.936	84.06
662.14	89.06
662.343	89.06
662.546	80.06
662.75	95.06
662.953	88.06
663.156	75.06
663.36	96.06
663.563	71.06
663.766	93.06
663.969	78.06
664.173	70.06
664.376	76.06
664.579	80.06
664.782	79.06
664.985	63.06
665.188	101.06
665.391	76.06
665.594	81.06
665.797	85.06
666	86.06
666.203	63.06
666.406	85.06
666.609	87.06
666.812	95.06
667.015	95.06
667.218	95.06
667.421	82.06
667.624	77.06
667.827	74.06
668.03	73.06
668.232	83.06
668.435	84.06
668.638	80.06
668.841	93.06
669.043	78.06
669.246	80.06
669.449	93.06
669.651	79.06
669.854	77.06
670.057	80.06
670.259	84.06
670.462	98.06
670.665	85.06
670.867	75.06
671.07	86.06
671.272	75.06
671.475	99.06
671.677	85.06
671.88	73.06
672.082	67.06
672.284	90.06
672.487	88.06
672.689	71.06
672.892	72.06
