Data from Uncirc_1999_H10_HRD10591_00072.txt Node
Date: Wed Jan 03 11:22:19 EST 2024
User: Yrep
Spectrometer: HR+D1059
Trigger mode: 1
Integration Time (sec): 1.000000E-1
Scans to average: 1
Electric dark correction enabled: true
Nonlinearity correction enabled: false
Boxcar width: 0
XAxis mode: Wavelengths
Number of Pixels in Spectrum: 2048
>>>>>Begin Spectral Data<<<<<
223.165	-26.12
223.4	-26.12
223.635	-26.12
223.869	-21.12
224.104	-15.12
224.338	-19.12
224.573	-11.12
224.808	-11.12
225.042	-10.12
225.277	-8.12
225.511	-3.12
225.746	4.88
225.98	-0.12
226.215	21.88
226.449	19.88
226.683	9.88
226.918	37.88
227.152	30.88
227.387	51.88
227.621	37.88
227.856	41.88
228.09	59.88
228.324	47.88
228.559	55.88
228.793	72.88
229.027	62.88
229.262	73.88
229.496	69.88
229.73	84.88
229.964	100.88
230.199	72.88
230.433	81.88
230.667	78.88
230.901	72.88
231.136	88.88
231.37	75.88
231.604	77.88
231.838	81.88
232.072	72.88
232.306	88.88
232.541	92.88
232.775	76.88
233.009	71.88
233.243	70.88
233.477	81.88
233.711	75.88
233.945	79.88
234.179	84.88
234.413	82.88
234.647	68.88
234.881	84.88
235.115	72.88
235.349	80.88
235.583	73.88
235.817	75.88
236.051	71.88
236.285	76.88
236.519	79.88
236.753	75.88
236.987	78.88
237.221	83.88
237.455	80.88
237.689	84.88
237.922	65.88
238.156	72.88
238.39	88.88
238.624	82.88
238.858	69.88
239.091	72.88
239.325	84.88
239.559	77.88
239.793	69.88
240.027	80.88
240.26	74.88
240.494	77.88
240.728	69.88
240.961	84.88
241.195	75.88
241.429	76.88
241.662	78.88
241.896	77.88
242.13	73.88
242.363	85.88
242.597	59.88
242.83	75.88
243.064	80.88
243.298	82.88
243.531	66.88
243.765	93.88
243.998	72.88
244.232	83.88
244.465	74.88
244.699	67.88
244.932	77.88
245.166	64.88
245.399	70.88
245.633	70.88
245.866	76.88
246.099	86.88
246.333	72.88
246.566	72.88
246.8	77.88
247.033	75.88
247.266	69.88
247.5	88.88
247.733	70.88
247.966	71.88
248.2	80.88
248.433	71.88
248.666	75.88
248.899	72.88
249.133	99.88
249.366	106.88
249.599	76.88
249.832	70.88
250.066	80.88
250.299	68.88
250.532	70.88
250.765	89.88
250.998	74.88
251.231	88.88
251.465	65.88
251.698	83.88
251.931	77.88
252.164	70.88
252.397	81.88
252.63	78.88
252.863	81.88
253.096	77.88
253.329	62.88
253.562	87.88
253.795	67.88
254.028	75.88
254.261	74.88
254.494	76.88
254.727	80.88
254.96	76.88
255.193	70.88
255.426	85.88
255.659	85.88
255.892	83.88
256.124	87.88
256.357	93.88
256.59	82.88
256.823	84.88
257.056	73.88
257.289	78.88
257.521	91.88
257.754	83.88
257.987	80.88
258.22	82.88
258.452	92.88
258.685	69.88
258.918	77.88
259.151	90.88
259.383	84.88
259.616	85.88
259.849	64.88
260.081	85.88
260.314	79.88
260.547	74.88
260.779	77.88
261.012	92.88
261.244	88.88
261.477	91.88
261.71	92.88
261.942	113.88
262.175	111.88
262.407	84.88
262.64	71.88
262.872	71.88
263.105	66.88
263.337	92.88
263.57	81.88
263.802	70.88
264.035	71.88
264.267	78.88
264.499	84.88
264.732	81.88
264.964	89.88
265.197	84.88
265.429	86.88
265.661	79.88
265.894	77.88
266.126	85.88
266.358	68.88
266.591	85.88
266.823	89.88
267.055	79.88
267.287	77.88
267.52	90.88
267.752	73.88
267.984	79.88
268.216	64.88
268.448	68.88
268.681	76.88
268.913	75.88
269.145	86.88
269.377	92.88
269.609	74.88
269.841	87.88
270.073	75.88
270.306	77.88
270.538	85.88
270.77	90.88
271.002	88.88
271.234	90.88
271.466	79.88
271.698	77.88
271.93	90.88
272.162	90.88
272.394	95.88
272.626	80.88
272.858	86.88
273.09	78.88
273.322	94.88
273.553	83.88
273.785	84.88
274.017	75.88
274.249	79.88
274.481	70.88
274.713	82.88
274.945	70.88
275.176	80.88
275.408	93.88
275.64	84.88
275.872	96.88
276.104	93.88
276.335	91.88
276.567	96.88
276.799	120.88
277.031	101.88
277.262	92.88
277.494	73.88
277.726	85.88
277.957	78.88
278.189	81.88
278.421	73.88
278.652	90.88
278.884	83.88
279.115	87.88
279.347	79.88
279.579	82.88
279.81	87.88
280.042	78.88
280.273	87.88
280.505	97.88
280.736	92.88
280.968	87.88
281.199	87.88
281.431	77.88
281.662	89.88
281.894	91.88
282.125	105.88
282.356	97.88
282.588	132.88
282.819	106.88
283.051	96.88
283.282	92.88
283.513	87.88
283.745	71.88
283.976	91.88
284.207	73.88
284.439	88.88
284.67	83.88
284.901	79.88
285.132	82.88
285.364	82.88
285.595	76.88
285.826	74.88
286.057	89.88
286.288	84.88
286.52	87.88
286.751	96.88
286.982	81.88
287.213	79.88
287.444	81.88
287.675	78.88
287.906	99.88
288.138	76.88
288.369	101.88
288.6	78.88
288.831	84.88
289.062	88.88
289.293	79.88
289.524	88.88
289.755	95.88
289.986	92.88
290.217	82.88
290.448	83.88
290.679	87.88
290.91	79.88
291.141	91.88
291.371	86.88
291.602	86.88
291.833	88.88
292.064	82.88
292.295	78.88
292.526	88.88
292.757	96.88
292.987	91.88
293.218	79.88
293.449	86.88
293.68	73.88
293.91	90.88
294.141	84.88
294.372	87.88
294.603	80.88
294.833	78.88
295.064	85.88
295.295	81.88
295.525	93.88
295.756	92.88
295.987	115.88
296.217	132.88
296.448	111.88
296.679	83.88
296.909	85.88
297.14	90.88
297.37	90.88
297.601	95.88
297.831	85.88
298.062	75.88
298.292	86.88
298.523	80.88
298.753	74.88
298.984	84.88
299.214	91.88
299.445	88.88
299.675	75.88
299.905	104.88
300.136	92.88
300.366	94.88
300.597	87.88
300.827	98.88
301.057	96.88
301.288	96.88
301.518	93.88
301.748	87.88
301.979	102.88
302.209	85.88
302.439	67.88
302.669	77.88
302.9	86.88
303.13	80.88
303.36	85.88
303.59	97.88
303.82	112.88
304.051	85.88
304.281	96.88
304.511	83.88
304.741	81.88
304.971	95.88
305.201	93.88
305.431	87.88
305.661	92.88
305.891	91.88
306.121	89.88
306.352	95.88
306.582	105.88
306.812	88.88
307.042	89.88
307.272	89.88
307.502	102.88
307.731	95.88
307.961	82.88
308.191	80.88
308.421	80.88
308.651	93.88
308.881	92.88
309.111	79.88
309.341	77.88
309.571	95.88
309.8	87.88
310.03	93.88
310.26	103.88
310.49	89.88
310.72	101.88
310.949	86.88
311.179	86.88
311.409	85.88
311.639	85.88
311.868	100.88
312.098	93.88
312.328	94.88
312.557	94.88
312.787	105.88
313.017	95.88
313.246	101.88
313.476	81.88
313.706	89.88
313.935	107.88
314.165	85.88
314.394	104.88
314.624	90.88
314.853	99.88
315.083	99.88
315.312	84.88
315.542	93.88
315.771	97.88
316.001	77.88
316.23	94.88
316.46	93.88
316.689	97.88
316.919	89.88
317.148	85.88
317.377	96.88
317.607	95.88
317.836	92.88
318.065	90.88
318.295	82.88
318.524	86.88
318.753	93.88
318.983	93.88
319.212	95.88
319.441	107.88
319.67	106.88
319.9	102.88
320.129	91.88
320.358	83.88
320.587	97.88
320.816	96.88
321.046	99.88
321.275	86.88
321.504	87.88
321.733	94.88
321.962	105.88
322.191	97.88
322.42	95.88
322.649	118.88
322.878	89.88
323.108	101.88
323.337	116.88
323.566	133.88
323.795	150.88
324.024	208.88
324.253	425.88
324.482	885.88
324.71	1815.88
324.939	2348.88
325.168	857.88
325.397	267.88
325.626	147.88
325.855	135.88
326.084	116.88
326.313	125.88
326.542	161.88
326.77	242.88
326.999	489.88
327.228	1027.88
327.457	1824.88
327.686	1453.88
327.914	393.88
328.143	189.88
328.372	157.88
328.6	120.88
328.829	113.88
329.058	133.88
329.287	112.88
329.515	96.88
329.744	96.88
329.972	93.88
330.201	112.88
330.43	115.88
330.658	109.88
330.887	131.88
331.115	102.88
331.344	96.88
331.572	91.88
331.801	90.88
332.03	109.88
332.258	93.88
332.486	86.88
332.715	99.88
332.943	94.88
333.172	92.88
333.4	98.88
333.629	101.88
333.857	112.88
334.085	101.88
334.314	105.88
334.542	104.88
334.771	103.88
334.999	110.88
335.227	83.88
335.455	103.88
335.684	96.88
335.912	92.88
336.14	91.88
336.369	88.88
336.597	92.88
336.825	100.88
337.053	89.88
337.281	83.88
337.51	86.88
337.738	87.88
337.966	93.88
338.194	91.88
338.422	87.88
338.65	88.88
338.878	90.88
339.106	93.88
339.334	97.88
339.562	94.88
339.79	91.88
340.018	82.88
340.246	90.88
340.474	84.88
340.702	93.88
340.93	85.88
341.158	96.88
341.386	86.88
341.614	91.88
341.842	84.88
342.07	89.88
342.298	96.88
342.526	86.88
342.754	84.88
342.981	89.88
343.209	95.88
343.437	95.88
343.665	89.88
343.893	84.88
344.12	92.88
344.348	80.88
344.576	93.88
344.804	80.88
345.031	92.88
345.259	103.88
345.487	87.88
345.714	98.88
345.942	83.88
346.17	95.88
346.397	90.88
346.625	93.88
346.853	81.88
347.08	95.88
347.308	95.88
347.535	89.88
347.763	99.88
347.99	95.88
348.218	86.88
348.445	91.88
348.673	100.88
348.9	91.88
349.128	103.88
349.355	99.88
349.583	108.88
349.81	89.88
350.037	89.88
350.265	92.88
350.492	90.88
350.72	99.88
350.947	89.88
351.174	96.88
351.402	102.88
351.629	93.88
351.856	103.88
352.083	108.88
352.311	96.88
352.538	97.88
352.765	109.88
352.992	108.88
353.22	110.88
353.447	100.88
353.674	91.88
353.901	109.88
354.128	97.88
354.355	96.88
354.583	104.88
354.81	104.88
355.037	101.88
355.264	91.88
355.491	91.88
355.718	100.88
355.945	103.88
356.172	89.88
356.399	91.88
356.626	88.88
356.853	94.88
357.08	92.88
357.307	95.88
357.534	106.88
357.761	90.88
357.988	94.88
358.215	85.88
358.441	84.88
358.668	78.88
358.895	77.88
359.122	81.88
359.349	95.88
359.576	97.88
359.802	99.88
360.029	92.88
360.256	110.88
360.483	91.88
360.709	95.88
360.936	100.88
361.163	90.88
361.39	95.88
361.616	92.88
361.843	91.88
362.07	76.88
362.296	94.88
362.523	101.88
362.749	87.88
362.976	97.88
363.203	96.88
363.429	80.88
363.656	102.88
363.882	93.88
364.109	84.88
364.335	85.88
364.562	88.88
364.788	77.88
365.015	109.88
365.241	95.88
365.468	110.88
365.694	97.88
365.92	109.88
366.147	76.88
366.373	88.88
366.599	87.88
366.826	89.88
367.052	86.88
367.278	97.88
367.505	85.88
367.731	89.88
367.957	88.88
368.184	89.88
368.41	99.88
368.636	109.88
368.862	105.88
369.089	103.88
369.315	92.88
369.541	94.88
369.767	90.88
369.993	86.88
370.219	102.88
370.445	95.88
370.672	87.88
370.898	90.88
371.124	84.88
371.35	87.88
371.576	90.88
371.802	91.88
372.028	86.88
372.254	80.88
372.48	75.88
372.706	91.88
372.932	99.88
373.158	94.88
373.384	90.88
373.61	83.88
373.835	94.88
374.061	85.88
374.287	92.88
374.513	91.88
374.739	98.88
374.965	90.88
375.191	84.88
375.416	81.88
375.642	91.88
375.868	95.88
376.094	83.88
376.319	92.88
376.545	88.88
376.771	90.88
376.997	89.88
377.222	86.88
377.448	88.88
377.674	102.88
377.899	81.88
378.125	95.88
378.35	82.88
378.576	80.88
378.802	100.88
379.027	113.88
379.253	78.88
379.478	93.88
379.704	88.88
379.929	85.88
380.155	88.88
380.38	93.88
380.606	96.88
380.831	109.88
381.057	97.88
381.282	104.88
381.507	94.88
381.733	84.88
381.958	95.88
382.184	106.88
382.409	92.88
382.634	96.88
382.86	96.88
383.085	92.88
383.31	92.88
383.535	100.88
383.761	101.88
383.986	104.88
384.211	100.88
384.436	96.88
384.662	99.88
384.887	111.88
385.112	96.88
385.337	106.88
385.562	88.88
385.787	98.88
386.013	125.88
386.238	110.88
386.463	93.88
386.688	107.88
386.913	105.88
387.138	101.88
387.363	98.88
387.588	100.88
387.813	87.88
388.038	107.88
388.263	109.88
388.488	97.88
388.713	106.88
388.938	115.88
389.163	94.88
389.387	89.88
389.612	82.88
389.837	94.88
390.062	79.88
390.287	108.88
390.512	97.88
390.736	104.88
390.961	97.88
391.186	105.88
391.411	101.88
391.636	83.88
391.86	77.88
392.085	91.88
392.31	102.88
392.534	93.88
392.759	94.88
392.984	64.88
393.208	96.88
393.433	101.88
393.658	89.88
393.882	87.88
394.107	81.88
394.331	83.88
394.556	92.88
394.78	96.88
395.005	102.88
395.229	79.88
395.454	88.88
395.678	80.88
395.903	97.88
396.127	89.88
396.352	85.88
396.576	100.88
396.801	96.88
397.025	89.88
397.249	81.88
397.474	91.88
397.698	86.88
397.922	77.88
398.147	90.88
398.371	78.88
398.595	96.88
398.82	100.88
399.044	86.88
399.268	75.88
399.492	87.88
399.717	94.88
399.941	107.88
400.165	103.88
400.389	93.88
400.613	95.88
400.837	97.88
401.062	91.88
401.286	90.88
401.51	89.88
401.734	79.88
401.958	90.88
402.182	121.88
402.406	151.88
402.63	115.88
402.854	98.88
403.078	85.88
403.302	79.88
403.526	92.88
403.75	92.88
403.974	87.88
404.198	83.88
404.422	96.88
404.645	92.88
404.869	87.88
405.093	100.88
405.317	105.88
405.541	83.88
405.765	101.88
405.988	110.88
406.212	164.88
406.436	230.88
406.66	151.88
406.883	102.88
407.107	100.88
407.331	89.88
407.555	101.88
407.778	96.88
408.002	73.88
408.226	86.88
408.449	96.88
408.673	97.88
408.896	103.88
409.12	106.88
409.344	94.88
409.567	105.88
409.791	101.88
410.014	103.88
410.238	93.88
410.461	84.88
410.685	96.88
410.908	101.88
411.132	104.88
411.355	100.88
411.578	91.88
411.802	86.88
412.025	92.88
412.249	89.88
412.472	94.88
412.695	78.88
412.919	84.88
413.142	86.88
413.365	82.88
413.589	93.88
413.812	94.88
414.035	88.88
414.258	93.88
414.482	95.88
414.705	84.88
414.928	81.88
415.151	87.88
415.374	87.88
415.597	95.88
415.821	86.88
416.044	96.88
416.267	84.88
416.49	86.88
416.713	79.88
416.936	95.88
417.159	89.88
417.382	84.88
417.605	94.88
417.828	92.88
418.051	93.88
418.274	75.88
418.497	86.88
418.72	77.88
418.943	84.88
419.166	91.88
419.389	102.88
419.611	81.88
419.834	104.88
420.057	90.88
420.28	91.88
420.503	78.88
420.726	83.88
420.948	71.88
421.171	91.88
421.394	94.88
421.617	91.88
421.839	91.88
422.062	81.88
422.285	93.88
422.507	83.88
422.73	113.88
422.953	91.88
423.175	72.88
423.398	90.88
423.621	83.88
423.843	105.88
424.066	103.88
424.288	95.88
424.511	97.88
424.733	86.88
424.956	112.88
425.178	95.88
425.401	104.88
425.623	99.88
425.846	87.88
426.068	91.88
426.291	92.88
426.513	86.88
426.735	91.88
426.958	91.88
427.18	108.88
427.402	127.88
427.625	141.88
427.847	118.88
428.069	104.88
428.292	99.88
428.514	95.88
428.736	97.88
428.958	86.88
429.181	93.88
429.403	83.88
429.625	79.88
429.847	100.88
430.069	115.88
430.292	106.88
430.514	76.88
430.736	88.88
430.958	92.88
431.18	80.88
431.402	90.88
431.624	76.88
431.846	83.88
432.068	89.88
432.29	88.88
432.512	84.88
432.734	84.88
432.956	94.88
433.178	108.88
433.4	99.88
433.622	90.88
433.844	79.88
434.066	87.88
434.287	93.88
434.509	63.88
434.731	92.88
434.953	94.88
435.175	88.88
435.397	89.88
435.618	86.88
435.84	97.88
436.062	118.88
436.284	118.88
436.505	88.88
436.727	108.88
436.949	97.88
437.17	85.88
437.392	79.88
437.614	98.88
437.835	119.88
438.057	107.88
438.278	98.88
438.5	87.88
438.721	119.88
438.943	95.88
439.165	79.88
439.386	82.88
439.608	84.88
439.829	106.88
440.05	112.88
440.272	131.88
440.493	91.88
440.715	88.88
440.936	88.88
441.158	92.88
441.379	82.88
441.6	85.88
441.822	82.88
442.043	71.88
442.264	106.88
442.486	98.88
442.707	103.88
442.928	95.88
443.149	130.88
443.371	119.88
443.592	112.88
443.813	104.88
444.034	105.88
444.255	92.88
444.476	105.88
444.698	83.88
444.919	100.88
445.14	133.88
445.361	107.88
445.582	115.88
445.803	130.88
446.024	117.88
446.245	123.88
446.466	103.88
446.687	80.88
446.908	94.88
447.129	78.88
447.35	94.88
447.571	85.88
447.792	97.88
448.013	97.88
448.234	91.88
448.455	84.88
448.675	118.88
448.896	114.88
449.117	96.88
449.338	89.88
449.559	129.88
449.779	123.88
450	101.88
450.221	86.88
450.442	91.88
450.662	99.88
450.883	111.88
451.104	99.88
451.324	97.88
451.545	91.88
451.766	92.88
451.986	76.88
452.207	101.88
452.428	102.88
452.648	111.88
452.869	93.88
453.089	112.88
453.31	108.88
453.53	101.88
453.751	81.88
453.971	100.88
454.192	99.88
454.412	86.88
454.633	94.88
454.853	101.88
455.073	92.88
455.294	104.88
455.514	95.88
455.734	77.88
455.955	92.88
456.175	88.88
456.395	94.88
456.616	80.88
456.836	83.88
457.056	82.88
457.276	65.88
457.497	69.88
457.717	86.88
457.937	83.88
458.157	86.88
458.377	94.88
458.598	98.88
458.818	155.88
459.038	148.88
459.258	113.88
459.478	81.88
459.698	94.88
459.918	84.88
460.138	80.88
460.358	88.88
460.578	87.88
460.798	87.88
461.018	100.88
461.238	80.88
461.458	96.88
461.678	93.88
461.898	68.88
462.118	86.88
462.338	87.88
462.558	92.88
462.777	64.88
462.997	81.88
463.217	87.88
463.437	78.88
463.657	94.88
463.876	94.88
464.096	94.88
464.316	110.88
464.536	100.88
464.755	96.88
464.975	96.88
465.195	146.88
465.414	153.88
465.634	87.88
465.854	67.88
466.073	93.88
466.293	83.88
466.512	90.88
466.732	87.88
466.951	84.88
467.171	80.88
467.391	90.88
467.61	86.88
467.829	96.88
468.049	80.88
468.268	89.88
468.488	82.88
468.707	82.88
468.927	86.88
469.146	89.88
469.365	84.88
469.585	90.88
469.804	97.88
470.023	94.88
470.243	100.88
470.462	103.88
470.681	105.88
470.901	96.88
471.12	85.88
471.339	92.88
471.558	97.88
471.777	96.88
471.997	86.88
472.216	91.88
472.435	97.88
472.654	93.88
472.873	82.88
473.092	70.88
473.311	101.88
473.53	87.88
473.749	84.88
473.968	97.88
474.187	94.88
474.406	95.88
474.625	74.88
474.844	87.88
475.063	90.88
475.282	85.88
475.501	78.88
475.72	89.88
475.939	93.88
476.158	84.88
476.377	90.88
476.596	100.88
476.814	91.88
477.033	86.88
477.252	96.88
477.471	82.88
477.69	85.88
477.908	80.88
478.127	91.88
478.346	82.88
478.564	96.88
478.783	90.88
479.002	99.88
479.22	87.88
479.439	86.88
479.658	85.88
479.876	98.88
480.095	87.88
480.313	93.88
480.532	89.88
480.751	94.88
480.969	93.88
481.188	118.88
481.406	102.88
481.624	90.88
481.843	72.88
482.061	88.88
482.28	73.88
482.498	79.88
482.717	89.88
482.935	87.88
483.153	92.88
483.372	81.88
483.59	94.88
483.808	80.88
484.027	83.88
484.245	101.88
484.463	81.88
484.681	77.88
484.9	75.88
485.118	104.88
485.336	99.88
485.554	88.88
485.772	108.88
485.99	94.88
486.209	106.88
486.427	103.88
486.645	89.88
486.863	101.88
487.081	100.88
487.299	103.88
487.517	93.88
487.735	92.88
487.953	95.88
488.171	87.88
488.389	99.88
488.607	92.88
488.825	90.88
489.043	97.88
489.261	87.88
489.479	88.88
489.696	83.88
489.914	92.88
490.132	97.88
490.35	95.88
490.568	89.88
490.786	93.88
491.003	89.88
491.221	86.88
491.439	107.88
491.657	101.88
491.874	101.88
492.092	79.88
492.31	94.88
492.527	72.88
492.745	94.88
492.963	95.88
493.18	92.88
493.398	96.88
493.615	104.88
493.833	110.88
494.05	81.88
494.268	91.88
494.485	92.88
494.703	90.88
494.92	86.88
495.138	92.88
495.355	79.88
495.573	89.88
495.79	90.88
496.008	91.88
496.225	95.88
496.442	73.88
496.66	78.88
496.877	93.88
497.094	105.88
497.312	91.88
497.529	83.88
497.746	97.88
497.963	97.88
498.181	94.88
498.398	88.88
498.615	114.88
498.832	105.88
499.049	96.88
499.267	104.88
499.484	85.88
499.701	87.88
499.918	93.88
500.135	88.88
500.352	98.88
500.569	92.88
500.786	85.88
501.003	91.88
501.22	101.88
501.437	102.88
501.654	82.88
501.871	93.88
502.088	84.88
502.305	86.88
502.522	95.88
502.739	95.88
502.956	88.88
503.172	89.88
503.389	95.88
503.606	100.88
503.823	84.88
504.04	97.88
504.256	81.88
504.473	91.88
504.69	87.88
504.907	99.88
505.123	97.88
505.34	87.88
505.557	92.88
505.773	91.88
505.99	90.88
506.207	96.88
506.423	95.88
506.64	105.88
506.856	103.88
507.073	91.88
507.289	101.88
507.506	97.88
507.722	109.88
507.939	100.88
508.155	71.88
508.372	96.88
508.588	88.88
508.805	105.88
509.021	90.88
509.238	91.88
509.454	99.88
509.67	104.88
509.887	98.88
510.103	131.88
510.319	213.88
510.536	760.88
510.752	2355.88
510.968	648.88
511.184	144.88
511.401	120.88
511.617	107.88
511.833	95.88
512.049	98.88
512.265	94.88
512.481	110.88
512.698	93.88
512.914	113.88
513.13	103.88
513.346	94.88
513.562	111.88
513.778	101.88
513.994	105.88
514.21	88.88
514.426	103.88
514.642	127.88
514.858	115.88
515.074	151.88
515.29	421.88
515.506	1368.88
515.721	509.88
515.937	145.88
516.153	116.88
516.369	104.88
516.585	93.88
516.801	94.88
517.016	98.88
517.232	84.88
517.448	85.88
517.664	88.88
517.879	102.88
518.095	94.88
518.311	85.88
518.527	82.88
518.742	87.88
518.958	91.88
519.173	95.88
519.389	85.88
519.605	101.88
519.82	93.88
520.036	100.88
520.251	120.88
520.467	102.88
520.682	89.88
520.898	108.88
521.113	121.88
521.329	115.88
521.544	199.88
521.76	527.88
521.975	2276.88
522.19	1360.88
522.406	311.88
522.621	127.88
522.836	104.88
523.052	86.88
523.267	103.88
523.482	100.88
523.698	96.88
523.913	120.88
524.128	92.88
524.343	93.88
524.559	73.88
524.774	99.88
524.989	100.88
525.204	97.88
525.419	87.88
525.634	102.88
525.849	89.88
526.064	97.88
526.28	93.88
526.495	96.88
526.71	103.88
526.925	108.88
527.14	83.88
527.355	92.88
527.57	93.88
527.785	104.88
527.999	87.88
528.214	96.88
528.429	94.88
528.644	89.88
528.859	80.88
529.074	92.88
529.289	124.88
529.503	167.88
529.718	100.88
529.933	104.88
530.148	110.88
530.363	101.88
530.577	95.88
530.792	101.88
531.007	99.88
531.221	94.88
531.436	93.88
531.651	70.88
531.865	88.88
532.08	95.88
532.295	98.88
532.509	101.88
532.724	101.88
532.938	86.88
533.153	83.88
533.367	95.88
533.582	81.88
533.796	93.88
534.011	94.88
534.225	87.88
534.44	80.88
534.654	85.88
534.868	93.88
535.083	84.88
535.297	94.88
535.511	102.88
535.726	112.88
535.94	98.88
536.154	97.88
536.369	96.88
536.583	88.88
536.797	76.88
537.011	79.88
537.225	92.88
537.44	96.88
537.654	97.88
537.868	94.88
538.082	91.88
538.296	76.88
538.51	95.88
538.724	94.88
538.938	84.88
539.153	99.88
539.367	90.88
539.581	83.88
539.795	85.88
540.009	95.88
540.222	89.88
540.436	96.88
540.65	90.88
540.864	87.88
541.078	84.88
541.292	106.88
541.506	84.88
541.72	90.88
541.934	92.88
542.147	81.88
542.361	82.88
542.575	100.88
542.789	100.88
543.002	82.88
543.216	114.88
543.43	94.88
543.644	91.88
543.857	86.88
544.071	84.88
544.285	89.88
544.498	91.88
544.712	70.88
544.925	92.88
545.139	91.88
545.352	89.88
545.566	85.88
545.779	87.88
545.993	88.88
546.206	74.88
546.42	97.88
546.633	82.88
546.847	95.88
547.06	84.88
547.274	90.88
547.487	91.88
547.7	92.88
547.914	95.88
548.127	96.88
548.34	84.88
548.554	82.88
548.767	89.88
548.98	73.88
549.193	82.88
549.407	76.88
549.62	75.88
549.833	83.88
550.046	84.88
550.259	85.88
550.473	94.88
550.686	95.88
550.899	85.88
551.112	76.88
551.325	104.88
551.538	85.88
551.751	85.88
551.964	94.88
552.177	93.88
552.39	110.88
552.603	85.88
552.816	95.88
553.029	93.88
553.242	93.88
553.455	101.88
553.667	105.88
553.88	91.88
554.093	92.88
554.306	65.88
554.519	75.88
554.732	91.88
554.944	92.88
555.157	80.88
555.37	80.88
555.583	84.88
555.795	97.88
556.008	88.88
556.221	76.88
556.433	88.88
556.646	83.88
556.859	100.88
557.071	85.88
557.284	98.88
557.496	85.88
557.709	92.88
557.921	90.88
558.134	93.88
558.346	81.88
558.559	84.88
558.771	83.88
558.984	90.88
559.196	88.88
559.409	84.88
559.621	97.88
559.833	87.88
560.046	87.88
560.258	82.88
560.47	85.88
560.683	90.88
560.895	79.88
561.107	91.88
561.32	88.88
561.532	85.88
561.744	100.88
561.956	91.88
562.168	84.88
562.381	89.88
562.593	95.88
562.805	78.88
563.017	86.88
563.229	79.88
563.441	87.88
563.653	89.88
563.865	86.88
564.077	91.88
564.289	86.88
564.501	89.88
564.713	89.88
564.925	104.88
565.137	109.88
565.349	87.88
565.561	83.88
565.773	93.88
565.985	83.88
566.197	86.88
566.408	89.88
566.62	95.88
566.832	88.88
567.044	83.88
567.255	73.88
567.467	84.88
567.679	86.88
567.891	87.88
568.102	91.88
568.314	90.88
568.526	78.88
568.737	91.88
568.949	83.88
569.161	89.88
569.372	94.88
569.584	78.88
569.795	90.88
570.007	121.88
570.218	245.88
570.43	146.88
570.641	106.88
570.853	85.88
571.064	85.88
571.276	82.88
571.487	84.88
571.698	97.88
571.91	81.88
572.121	74.88
572.333	89.88
572.544	85.88
572.755	95.88
572.966	87.88
573.178	82.88
573.389	91.88
573.6	89.88
573.811	76.88
574.023	86.88
574.234	91.88
574.445	80.88
574.656	88.88
574.867	97.88
575.078	83.88
575.289	84.88
575.501	84.88
575.712	73.88
575.923	73.88
576.134	88.88
576.345	77.88
576.556	88.88
576.767	93.88
576.978	81.88
577.188	89.88
577.399	97.88
577.61	90.88
577.821	94.88
578.032	120.88
578.243	279.88
578.454	765.88
578.665	207.88
578.875	97.88
579.086	111.88
579.297	103.88
579.508	87.88
579.718	84.88
579.929	75.88
580.14	72.88
580.35	84.88
580.561	80.88
580.772	86.88
580.982	81.88
581.193	94.88
581.403	78.88
581.614	84.88
581.825	81.88
582.035	88.88
582.246	82.88
582.456	95.88
582.667	86.88
582.877	92.88
583.087	70.88
583.298	84.88
583.508	74.88
583.719	76.88
583.929	78.88
584.139	83.88
584.35	79.88
584.56	85.88
584.77	87.88
584.981	90.88
585.191	85.88
585.401	79.88
585.611	92.88
585.821	83.88
586.032	77.88
586.242	85.88
586.452	83.88
586.662	93.88
586.872	71.88
587.082	77.88
587.292	88.88
587.502	93.88
587.713	87.88
587.923	85.88
588.133	78.88
588.343	94.88
588.553	81.88
588.762	87.88
588.972	75.88
589.182	97.88
589.392	69.88
589.602	78.88
589.812	79.88
590.022	89.88
590.232	80.88
590.441	81.88
590.651	79.88
590.861	83.88
591.071	73.88
591.281	91.88
591.49	77.88
591.7	89.88
591.91	84.88
592.119	89.88
592.329	76.88
592.539	88.88
592.748	88.88
592.958	84.88
593.167	82.88
593.377	94.88
593.587	95.88
593.796	83.88
594.006	95.88
594.215	89.88
594.424	89.88
594.634	78.88
594.843	73.88
595.053	86.88
595.262	91.88
595.472	76.88
595.681	96.88
595.89	89.88
596.1	97.88
596.309	72.88
596.518	65.88
596.727	83.88
596.937	90.88
597.146	94.88
597.355	75.88
597.564	78.88
597.774	90.88
597.983	80.88
598.192	88.88
598.401	79.88
598.61	74.88
598.819	79.88
599.028	77.88
599.237	89.88
599.446	80.88
599.655	83.88
599.864	86.88
600.073	70.88
600.282	86.88
600.491	89.88
600.7	84.88
600.909	88.88
601.118	104.88
601.327	88.88
601.536	82.88
601.745	82.88
601.953	81.88
602.162	79.88
602.371	81.88
602.58	89.88
602.789	88.88
602.997	96.88
603.206	91.88
603.415	79.88
603.623	89.88
603.832	74.88
604.041	101.88
604.249	78.88
604.458	86.88
604.666	85.88
604.875	92.88
605.084	90.88
605.292	90.88
605.501	73.88
605.709	84.88
605.918	90.88
606.126	81.88
606.334	86.88
606.543	86.88
606.751	96.88
606.96	83.88
607.168	77.88
607.376	90.88
607.585	90.88
607.793	85.88
608.001	75.88
608.21	91.88
608.418	88.88
608.626	74.88
608.834	79.88
609.043	95.88
609.251	81.88
609.459	101.88
609.667	90.88
609.875	80.88
610.083	94.88
610.291	77.88
610.499	91.88
610.707	79.88
610.916	92.88
611.124	84.88
611.332	79.88
611.54	83.88
611.748	84.88
611.955	79.88
612.163	94.88
612.371	86.88
612.579	83.88
612.787	91.88
612.995	85.88
613.203	90.88
613.411	92.88
613.618	88.88
613.826	83.88
614.034	86.88
614.242	94.88
614.449	76.88
614.657	78.88
614.865	92.88
615.072	77.88
615.28	87.88
615.488	83.88
615.695	91.88
615.903	86.88
616.111	88.88
616.318	104.88
616.526	87.88
616.733	80.88
616.941	94.88
617.148	91.88
617.356	85.88
617.563	83.88
617.771	92.88
617.978	94.88
618.185	92.88
618.393	85.88
618.6	81.88
618.807	94.88
619.015	84.88
619.222	77.88
619.429	83.88
619.637	82.88
619.844	77.88
620.051	77.88
620.258	82.88
620.466	87.88
620.673	90.88
620.88	91.88
621.087	90.88
621.294	83.88
621.501	69.88
621.708	83.88
621.915	82.88
622.122	75.88
622.329	91.88
622.536	81.88
622.743	93.88
622.95	96.88
623.157	96.88
623.364	94.88
623.571	89.88
623.778	77.88
623.985	89.88
624.192	84.88
624.399	90.88
624.606	83.88
624.812	78.88
625.019	90.88
625.226	71.88
625.433	79.88
625.639	88.88
625.846	74.88
626.053	77.88
626.259	75.88
626.466	82.88
626.673	103.88
626.879	87.88
627.086	85.88
627.293	99.88
627.499	91.88
627.706	85.88
627.912	87.88
628.119	76.88
628.325	91.88
628.532	75.88
628.738	71.88
628.945	76.88
629.151	70.88
629.357	85.88
629.564	77.88
629.77	93.88
629.976	92.88
630.183	100.88
630.389	68.88
630.595	71.88
630.802	69.88
631.008	69.88
631.214	81.88
631.42	79.88
631.627	87.88
631.833	70.88
632.039	76.88
632.245	67.88
632.451	79.88
632.657	84.88
632.863	91.88
633.069	79.88
633.275	86.88
633.481	79.88
633.688	75.88
633.893	97.88
634.099	79.88
634.305	80.88
634.511	83.88
634.717	65.88
634.923	77.88
635.129	71.88
635.335	91.88
635.541	78.88
635.747	93.88
635.952	91.88
636.158	80.88
636.364	94.88
636.57	87.88
636.775	83.88
636.981	94.88
637.187	87.88
637.392	74.88
637.598	90.88
637.804	85.88
638.009	81.88
638.215	94.88
638.421	90.88
638.626	93.88
638.832	87.88
639.037	76.88
639.243	93.88
639.448	77.88
639.654	76.88
639.859	89.88
640.065	90.88
640.27	95.88
640.475	86.88
640.681	78.88
640.886	85.88
641.091	84.88
641.297	82.88
641.502	95.88
641.707	80.88
641.913	77.88
642.118	79.88
642.323	91.88
642.528	75.88
642.733	80.88
642.939	77.88
643.144	76.88
643.349	80.88
643.554	89.88
643.759	81.88
643.964	72.88
644.169	74.88
644.374	81.88
644.579	85.88
644.784	95.88
644.989	90.88
645.194	78.88
645.399	85.88
645.604	77.88
645.809	92.88
646.014	100.88
646.219	75.88
646.423	85.88
646.628	76.88
646.833	88.88
647.038	75.88
647.243	80.88
647.447	91.88
647.652	87.88
647.857	85.88
648.062	82.88
648.266	76.88
648.471	94.88
648.676	95.88
648.88	87.88
649.085	80.88
649.289	85.88
649.494	105.88
649.698	124.88
649.903	116.88
650.107	93.88
650.312	89.88
650.516	77.88
650.721	80.88
650.925	97.88
651.13	75.88
651.334	80.88
651.539	90.88
651.743	85.88
651.947	88.88
652.152	90.88
652.356	83.88
652.56	76.88
652.764	84.88
652.969	83.88
653.173	73.88
653.377	81.88
653.581	77.88
653.785	70.88
653.99	69.88
654.194	75.88
654.398	75.88
654.602	80.88
654.806	92.88
655.01	103.88
655.214	89.88
655.418	74.88
655.622	81.88
655.826	84.88
656.03	87.88
656.234	93.88
656.438	94.88
656.642	100.88
656.846	100.88
657.049	84.88
657.253	71.88
657.457	79.88
657.661	87.88
657.865	83.88
658.068	79.88
658.272	74.88
658.476	86.88
658.68	84.88
658.883	95.88
659.087	88.88
659.291	80.88
659.494	78.88
659.698	78.88
659.901	70.88
660.105	79.88
660.309	93.88
660.512	73.88
660.716	77.88
660.919	93.88
661.123	76.88
661.326	70.88
661.53	80.88
661.733	72.88
661.936	77.88
662.14	76.88
662.343	82.88
662.546	84.88
662.75	86.88
662.953	85.88
663.156	78.88
663.36	71.88
663.563	73.88
663.766	81.88
663.969	75.88
664.173	86.88
664.376	81.88
664.579	85.88
664.782	80.88
664.985	68.88
665.188	73.88
665.391	90.88
665.594	89.88
665.797	72.88
666	71.88
666.203	63.88
666.406	73.88
666.609	65.88
666.812	76.88
667.015	76.88
667.218	81.88
667.421	88.88
667.624	76.88
667.827	82.88
668.03	83.88
668.232	95.88
668.435	95.88
668.638	86.88
668.841	74.88
669.043	85.88
669.246	79.88
669.449	85.88
669.651	75.88
669.854	76.88
670.057	80.88
670.259	74.88
670.462	72.88
670.665	90.88
670.867	75.88
671.07	74.88
671.272	94.88
671.475	66.88
671.677	63.88
671.88	78.88
672.082	74.88
672.284	76.88
672.487	73.88
672.689	79.88
672.892	81.88
