Data from 2145_3_HRD10591_00031.txt Node
Date: Mon Jan 19 14:23:22 EST 2026
User: Yrep
Spectrometer: HR+D1059
Trigger mode: 1
Integration Time (sec): 1.000000E-1
Scans to average: 1
Electric dark correction enabled: true
Nonlinearity correction enabled: false
Boxcar width: 0
XAxis mode: Wavelengths
Number of Pixels in Spectrum: 2048
>>>>>Begin Spectral Data<<<<<
223.165	-19.69
223.4	-19.69
223.635	-19.69
223.869	-14.69
224.104	-25.69
224.338	-16.69
224.573	-15.69
224.808	-6.69
225.042	-2.69
225.277	-9.69
225.511	-3.69
225.746	7.31
225.98	2.31
226.215	3.31
226.449	16.31
226.683	20.31
226.918	29.31
227.152	36.31
227.387	38.31
227.621	34.31
227.856	59.31
228.09	55.31
228.324	54.31
228.559	58.31
228.793	40.31
229.027	53.31
229.262	69.31
229.496	76.31
229.73	66.31
229.964	74.31
230.199	74.31
230.433	86.31
230.667	66.31
230.901	82.31
231.136	73.31
231.37	97.31
231.604	89.31
231.838	71.31
232.072	79.31
232.306	83.31
232.541	77.31
232.775	80.31
233.009	79.31
233.243	83.31
233.477	76.31
233.711	88.31
233.945	83.31
234.179	86.31
234.413	84.31
234.647	83.31
234.881	86.31
235.115	65.31
235.349	74.31
235.583	67.31
235.817	85.31
236.051	68.31
236.285	72.31
236.519	67.31
236.753	67.31
236.987	105.31
237.221	77.31
237.455	73.31
237.689	71.31
237.922	65.31
238.156	77.31
238.39	72.31
238.624	84.31
238.858	89.31
239.091	77.31
239.325	71.31
239.559	83.31
239.793	91.31
240.027	69.31
240.26	73.31
240.494	72.31
240.728	92.31
240.961	79.31
241.195	75.31
241.429	77.31
241.662	79.31
241.896	67.31
242.13	58.31
242.363	76.31
242.597	83.31
242.83	96.31
243.064	79.31
243.298	87.31
243.531	59.31
243.765	74.31
243.998	76.31
244.232	74.31
244.465	91.31
244.699	78.31
244.932	78.31
245.166	78.31
245.399	70.31
245.633	86.31
245.866	73.31
246.099	76.31
246.333	82.31
246.566	72.31
246.8	70.31
247.033	73.31
247.266	73.31
247.5	88.31
247.733	78.31
247.966	70.31
248.2	93.31
248.433	87.31
248.666	77.31
248.899	77.31
249.133	86.31
249.366	85.31
249.599	82.31
249.832	83.31
250.066	85.31
250.299	64.31
250.532	68.31
250.765	61.31
250.998	88.31
251.231	94.31
251.465	82.31
251.698	97.31
251.931	63.31
252.164	73.31
252.397	74.31
252.63	92.31
252.863	93.31
253.096	78.31
253.329	93.31
253.562	80.31
253.795	84.31
254.028	79.31
254.261	94.31
254.494	81.31
254.727	82.31
254.96	79.31
255.193	80.31
255.426	81.31
255.659	84.31
255.892	79.31
256.124	66.31
256.357	81.31
256.59	77.31
256.823	82.31
257.056	86.31
257.289	85.31
257.521	93.31
257.754	81.31
257.987	83.31
258.22	77.31
258.452	74.31
258.685	72.31
258.918	76.31
259.151	78.31
259.383	76.31
259.616	77.31
259.849	88.31
260.081	68.31
260.314	66.31
260.547	82.31
260.779	90.31
261.012	76.31
261.244	77.31
261.477	79.31
261.71	70.31
261.942	74.31
262.175	97.31
262.407	65.31
262.64	85.31
262.872	80.31
263.105	84.31
263.337	84.31
263.57	70.31
263.802	83.31
264.035	94.31
264.267	86.31
264.499	70.31
264.732	91.31
264.964	89.31
265.197	97.31
265.429	79.31
265.661	99.31
265.894	79.31
266.126	82.31
266.358	76.31
266.591	82.31
266.823	75.31
267.055	76.31
267.287	78.31
267.52	84.31
267.752	82.31
267.984	70.31
268.216	70.31
268.448	75.31
268.681	87.31
268.913	77.31
269.145	75.31
269.377	71.31
269.609	75.31
269.841	67.31
270.073	84.31
270.306	74.31
270.538	86.31
270.77	88.31
271.002	80.31
271.234	82.31
271.466	75.31
271.698	66.31
271.93	89.31
272.162	89.31
272.394	81.31
272.626	80.31
272.858	75.31
273.09	68.31
273.322	82.31
273.553	75.31
273.785	87.31
274.017	74.31
274.249	89.31
274.481	76.31
274.713	84.31
274.945	90.31
275.176	83.31
275.408	76.31
275.64	85.31
275.872	69.31
276.104	77.31
276.335	79.31
276.567	86.31
276.799	65.31
277.031	74.31
277.262	92.31
277.494	107.31
277.726	91.31
277.957	91.31
278.189	77.31
278.421	70.31
278.652	75.31
278.884	74.31
279.115	91.31
279.347	82.31
279.579	85.31
279.81	79.31
280.042	81.31
280.273	93.31
280.505	73.31
280.736	76.31
280.968	87.31
281.199	79.31
281.431	77.31
281.662	92.31
281.894	90.31
282.125	86.31
282.356	77.31
282.588	84.31
282.819	74.31
283.051	83.31
283.282	96.31
283.513	89.31
283.745	89.31
283.976	100.31
284.207	94.31
284.439	87.31
284.67	90.31
284.901	78.31
285.132	83.31
285.364	82.31
285.595	84.31
285.826	76.31
286.057	93.31
286.288	78.31
286.52	85.31
286.751	72.31
286.982	80.31
287.213	72.31
287.444	86.31
287.675	88.31
287.906	78.31
288.138	74.31
288.369	81.31
288.6	88.31
288.831	87.31
289.062	85.31
289.293	89.31
289.524	80.31
289.755	80.31
289.986	81.31
290.217	88.31
290.448	81.31
290.679	77.31
290.91	84.31
291.141	80.31
291.371	94.31
291.602	78.31
291.833	73.31
292.064	92.31
292.295	87.31
292.526	95.31
292.757	88.31
292.987	68.31
293.218	89.31
293.449	84.31
293.68	88.31
293.91	71.31
294.141	79.31
294.372	97.31
294.603	87.31
294.833	73.31
295.064	84.31
295.295	76.31
295.525	99.31
295.756	82.31
295.987	80.31
296.217	91.31
296.448	88.31
296.679	96.31
296.909	86.31
297.14	88.31
297.37	83.31
297.601	81.31
297.831	78.31
298.062	88.31
298.292	86.31
298.523	76.31
298.753	84.31
298.984	89.31
299.214	70.31
299.445	73.31
299.675	91.31
299.905	98.31
300.136	96.31
300.366	97.31
300.597	96.31
300.827	90.31
301.057	88.31
301.288	82.31
301.518	85.31
301.748	78.31
301.979	116.31
302.209	92.31
302.439	84.31
302.669	96.31
302.9	92.31
303.13	92.31
303.36	89.31
303.59	98.31
303.82	96.31
304.051	92.31
304.281	84.31
304.511	88.31
304.741	83.31
304.971	92.31
305.201	97.31
305.431	70.31
305.661	77.31
305.891	85.31
306.121	84.31
306.352	89.31
306.582	76.31
306.812	84.31
307.042	79.31
307.272	76.31
307.502	75.31
307.731	93.31
307.961	101.31
308.191	89.31
308.421	84.31
308.651	89.31
308.881	107.31
309.111	101.31
309.341	103.31
309.571	87.31
309.8	83.31
310.03	89.31
310.26	96.31
310.49	85.31
310.72	94.31
310.949	88.31
311.179	84.31
311.409	95.31
311.639	91.31
311.868	82.31
312.098	82.31
312.328	92.31
312.557	95.31
312.787	85.31
313.017	91.31
313.246	95.31
313.476	78.31
313.706	89.31
313.935	76.31
314.165	96.31
314.394	82.31
314.624	86.31
314.853	82.31
315.083	89.31
315.312	76.31
315.542	94.31
315.771	91.31
316.001	92.31
316.23	92.31
316.46	88.31
316.689	86.31
316.919	101.31
317.148	73.31
317.377	82.31
317.607	82.31
317.836	72.31
318.065	101.31
318.295	99.31
318.524	93.31
318.753	84.31
318.983	85.31
319.212	94.31
319.441	72.31
319.67	91.31
319.9	83.31
320.129	94.31
320.358	88.31
320.587	78.31
320.816	86.31
321.046	94.31
321.275	86.31
321.504	84.31
321.733	89.31
321.962	87.31
322.191	90.31
322.42	91.31
322.649	97.31
322.878	81.31
323.108	93.31
323.337	86.31
323.566	84.31
323.795	101.31
324.024	91.31
324.253	85.31
324.482	101.31
324.71	90.31
324.939	76.31
325.168	84.31
325.397	90.31
325.626	81.31
325.855	84.31
326.084	90.31
326.313	86.31
326.542	97.31
326.77	98.31
326.999	86.31
327.228	98.31
327.457	94.31
327.686	76.31
327.914	85.31
328.143	90.31
328.372	99.31
328.6	92.31
328.829	70.31
329.058	87.31
329.287	82.31
329.515	101.31
329.744	90.31
329.972	99.31
330.201	88.31
330.43	78.31
330.658	86.31
330.887	83.31
331.115	93.31
331.344	76.31
331.572	73.31
331.801	84.31
332.03	90.31
332.258	100.31
332.486	90.31
332.715	100.31
332.943	76.31
333.172	84.31
333.4	82.31
333.629	88.31
333.857	82.31
334.085	83.31
334.314	93.31
334.542	89.31
334.771	89.31
334.999	82.31
335.227	91.31
335.455	82.31
335.684	86.31
335.912	84.31
336.14	85.31
336.369	82.31
336.597	92.31
336.825	78.31
337.053	90.31
337.281	82.31
337.51	79.31
337.738	102.31
337.966	97.31
338.194	85.31
338.422	91.31
338.65	89.31
338.878	85.31
339.106	89.31
339.334	102.31
339.562	81.31
339.79	84.31
340.018	79.31
340.246	89.31
340.474	66.31
340.702	88.31
340.93	83.31
341.158	102.31
341.386	93.31
341.614	77.31
341.842	81.31
342.07	100.31
342.298	81.31
342.526	78.31
342.754	78.31
342.981	87.31
343.209	88.31
343.437	89.31
343.665	80.31
343.893	99.31
344.12	103.31
344.348	94.31
344.576	103.31
344.804	100.31
345.031	92.31
345.259	84.31
345.487	90.31
345.714	92.31
345.942	81.31
346.17	81.31
346.397	102.31
346.625	100.31
346.853	86.31
347.08	83.31
347.308	85.31
347.535	82.31
347.763	86.31
347.99	90.31
348.218	88.31
348.445	80.31
348.673	97.31
348.9	87.31
349.128	107.31
349.355	103.31
349.583	82.31
349.81	75.31
350.037	87.31
350.265	77.31
350.492	88.31
350.72	78.31
350.947	83.31
351.174	88.31
351.402	77.31
351.629	93.31
351.856	88.31
352.083	87.31
352.311	91.31
352.538	82.31
352.765	83.31
352.992	100.31
353.22	95.31
353.447	85.31
353.674	99.31
353.901	97.31
354.128	90.31
354.355	97.31
354.583	83.31
354.81	84.31
355.037	94.31
355.264	100.31
355.491	89.31
355.718	86.31
355.945	80.31
356.172	77.31
356.399	101.31
356.626	100.31
356.853	91.31
357.08	89.31
357.307	91.31
357.534	88.31
357.761	92.31
357.988	78.31
358.215	94.31
358.441	104.31
358.668	82.31
358.895	88.31
359.122	88.31
359.349	89.31
359.576	97.31
359.802	92.31
360.029	74.31
360.256	84.31
360.483	88.31
360.709	102.31
360.936	104.31
361.163	82.31
361.39	89.31
361.616	99.31
361.843	94.31
362.07	84.31
362.296	94.31
362.523	104.31
362.749	102.31
362.976	119.31
363.203	114.31
363.429	106.31
363.656	102.31
363.882	104.31
364.109	109.31
364.335	125.31
364.562	114.31
364.788	88.31
365.015	92.31
365.241	87.31
365.468	88.31
365.694	84.31
365.92	84.31
366.147	98.31
366.373	91.31
366.599	88.31
366.826	82.31
367.052	96.31
367.278	82.31
367.505	85.31
367.731	98.31
367.957	83.31
368.184	85.31
368.41	89.31
368.636	83.31
368.862	86.31
369.089	79.31
369.315	80.31
369.541	81.31
369.767	89.31
369.993	84.31
370.219	86.31
370.445	84.31
370.672	88.31
370.898	81.31
371.124	93.31
371.35	98.31
371.576	98.31
371.802	90.31
372.028	82.31
372.254	81.31
372.48	83.31
372.706	94.31
372.932	92.31
373.158	81.31
373.384	93.31
373.61	107.31
373.835	99.31
374.061	85.31
374.287	88.31
374.513	86.31
374.739	100.31
374.965	94.31
375.191	106.31
375.416	97.31
375.642	79.31
375.868	75.31
376.094	93.31
376.319	88.31
376.545	90.31
376.771	75.31
376.997	82.31
377.222	76.31
377.448	86.31
377.674	67.31
377.899	90.31
378.125	92.31
378.35	82.31
378.576	80.31
378.802	87.31
379.027	97.31
379.253	92.31
379.478	89.31
379.704	88.31
379.929	71.31
380.155	85.31
380.38	84.31
380.606	90.31
380.831	106.31
381.057	86.31
381.282	88.31
381.507	96.31
381.733	85.31
381.958	97.31
382.184	91.31
382.409	96.31
382.634	98.31
382.86	100.31
383.085	83.31
383.31	98.31
383.535	102.31
383.761	97.31
383.986	110.31
384.211	85.31
384.436	86.31
384.662	86.31
384.887	88.31
385.112	87.31
385.337	74.31
385.562	97.31
385.787	90.31
386.013	107.31
386.238	86.31
386.463	72.31
386.688	102.31
386.913	83.31
387.138	81.31
387.363	89.31
387.588	81.31
387.813	87.31
388.038	93.31
388.263	93.31
388.488	88.31
388.713	90.31
388.938	90.31
389.163	86.31
389.387	91.31
389.612	76.31
389.837	98.31
390.062	88.31
390.287	88.31
390.512	99.31
390.736	85.31
390.961	88.31
391.186	78.31
391.411	98.31
391.636	84.31
391.86	85.31
392.085	100.31
392.31	87.31
392.534	108.31
392.759	109.31
392.984	130.31
393.208	214.31
393.433	291.31
393.658	229.31
393.882	136.31
394.107	113.31
394.331	116.31
394.556	114.31
394.78	105.31
395.005	89.31
395.229	92.31
395.454	95.31
395.678	100.31
395.903	117.31
396.127	138.31
396.352	150.31
396.576	169.31
396.801	232.31
397.025	250.31
397.249	139.31
397.474	109.31
397.698	91.31
397.922	94.31
398.147	94.31
398.371	82.31
398.595	85.31
398.82	86.31
399.044	81.31
399.268	91.31
399.492	96.31
399.717	108.31
399.941	93.31
400.165	93.31
400.389	98.31
400.613	93.31
400.837	84.31
401.062	79.31
401.286	89.31
401.51	81.31
401.734	78.31
401.958	85.31
402.182	73.31
402.406	96.31
402.63	91.31
402.854	98.31
403.078	84.31
403.302	96.31
403.526	79.31
403.75	104.31
403.974	116.31
404.198	154.31
404.422	213.31
404.645	271.31
404.869	226.31
405.093	150.31
405.317	112.31
405.541	84.31
405.765	98.31
405.988	94.31
406.212	87.31
406.436	90.31
406.66	96.31
406.883	77.31
407.107	96.31
407.331	83.31
407.555	87.31
407.778	93.31
408.002	105.31
408.226	87.31
408.449	76.31
408.673	88.31
408.896	83.31
409.12	87.31
409.344	87.31
409.567	73.31
409.791	97.31
410.014	101.31
410.238	85.31
410.461	93.31
410.685	104.31
410.908	90.31
411.132	88.31
411.355	85.31
411.578	83.31
411.802	89.31
412.025	102.31
412.249	76.31
412.472	83.31
412.695	89.31
412.919	98.31
413.142	99.31
413.365	89.31
413.589	80.31
413.812	94.31
414.035	88.31
414.258	73.31
414.482	88.31
414.705	73.31
414.928	81.31
415.151	101.31
415.374	91.31
415.597	96.31
415.821	83.31
416.044	87.31
416.267	77.31
416.49	78.31
416.713	92.31
416.936	85.31
417.159	94.31
417.382	88.31
417.605	78.31
417.828	82.31
418.051	81.31
418.274	80.31
418.497	71.31
418.72	82.31
418.943	88.31
419.166	84.31
419.389	75.31
419.611	95.31
419.834	91.31
420.057	92.31
420.28	102.31
420.503	96.31
420.726	84.31
420.948	93.31
421.171	112.31
421.394	124.31
421.617	119.31
421.839	116.31
422.062	134.31
422.285	216.31
422.507	354.31
422.73	525.31
422.953	481.31
423.175	263.31
423.398	164.31
423.621	130.31
423.843	101.31
424.066	104.31
424.288	93.31
424.511	109.31
424.733	97.31
424.956	85.31
425.178	99.31
425.401	103.31
425.623	91.31
425.846	87.31
426.068	74.31
426.291	96.31
426.513	93.31
426.735	99.31
426.958	91.31
427.18	90.31
427.402	83.31
427.625	79.31
427.847	103.31
428.069	114.31
428.292	152.31
428.514	156.31
428.736	138.31
428.958	144.31
429.181	149.31
429.403	119.31
429.625	116.31
429.847	154.31
430.069	204.31
430.292	240.31
430.514	226.31
430.736	160.31
430.958	156.31
431.18	119.31
431.402	110.31
431.624	124.31
431.846	140.31
432.068	149.31
432.29	116.31
432.512	97.31
432.734	74.31
432.956	92.31
433.178	88.31
433.4	82.31
433.622	97.31
433.844	87.31
434.066	88.31
434.287	85.31
434.509	94.31
434.731	98.31
434.953	75.31
435.175	89.31
435.397	88.31
435.618	101.31
435.84	92.31
436.062	85.31
436.284	72.31
436.505	90.31
436.727	81.31
436.949	86.31
437.17	88.31
437.392	84.31
437.614	92.31
437.835	82.31
438.057	89.31
438.278	98.31
438.5	94.31
438.721	80.31
438.943	84.31
439.165	95.31
439.386	92.31
439.608	92.31
439.829	85.31
440.05	86.31
440.272	82.31
440.493	91.31
440.715	99.31
440.936	104.31
441.158	99.31
441.379	98.31
441.6	85.31
441.822	99.31
442.043	94.31
442.264	109.31
442.486	153.31
442.707	211.31
442.928	153.31
443.149	138.31
443.371	192.31
443.592	342.31
443.813	284.31
444.034	132.31
444.255	96.31
444.476	79.31
444.698	106.31
444.919	104.31
445.14	218.31
445.361	242.31
445.582	407.31
445.803	314.31
446.024	161.31
446.245	104.31
446.466	97.31
446.687	83.31
446.908	86.31
447.129	78.31
447.35	88.31
447.571	74.31
447.792	88.31
448.013	93.31
448.234	86.31
448.455	75.31
448.675	96.31
448.896	89.31
449.117	104.31
449.338	84.31
449.559	85.31
449.779	80.31
450	85.31
450.221	91.31
450.442	70.31
450.662	85.31
450.883	83.31
451.104	92.31
451.324	100.31
451.545	94.31
451.766	86.31
451.986	93.31
452.207	91.31
452.428	89.31
452.648	95.31
452.869	115.31
453.089	86.31
453.31	76.31
453.53	80.31
453.751	104.31
453.971	77.31
454.192	82.31
454.412	72.31
454.633	77.31
454.853	85.31
455.073	89.31
455.294	86.31
455.514	85.31
455.734	79.31
455.955	86.31
456.175	78.31
456.395	91.31
456.616	80.31
456.836	99.31
457.056	86.31
457.276	80.31
457.497	77.31
457.717	89.31
457.937	116.31
458.157	119.31
458.377	128.31
458.598	132.31
458.818	137.31
459.038	107.31
459.258	89.31
459.478	85.31
459.698	78.31
459.918	80.31
460.138	88.31
460.358	96.31
460.578	122.31
460.798	154.31
461.018	125.31
461.238	85.31
461.458	81.31
461.678	77.31
461.898	94.31
462.118	92.31
462.338	83.31
462.558	90.31
462.777	84.31
462.997	90.31
463.217	86.31
463.437	83.31
463.657	81.31
463.876	89.31
464.096	81.31
464.316	89.31
464.536	81.31
464.755	93.31
464.975	75.31
465.195	84.31
465.414	76.31
465.634	84.31
465.854	89.31
466.073	80.31
466.293	81.31
466.512	99.31
466.732	84.31
466.951	86.31
467.171	86.31
467.391	88.31
467.61	87.31
467.829	84.31
468.049	94.31
468.268	74.31
468.488	94.31
468.707	92.31
468.927	105.31
469.146	88.31
469.365	89.31
469.585	83.31
469.804	83.31
470.023	94.31
470.243	82.31
470.462	88.31
470.681	87.31
470.901	85.31
471.12	97.31
471.339	86.31
471.558	81.31
471.777	90.31
471.997	73.31
472.216	76.31
472.435	88.31
472.654	88.31
472.873	89.31
473.092	92.31
473.311	89.31
473.53	91.31
473.749	79.31
473.968	89.31
474.187	86.31
474.406	84.31
474.625	93.31
474.844	85.31
475.063	89.31
475.282	92.31
475.501	93.31
475.72	106.31
475.939	84.31
476.158	77.31
476.377	97.31
476.596	90.31
476.814	93.31
477.033	104.31
477.252	78.31
477.471	87.31
477.69	99.31
477.908	84.31
478.127	95.31
478.346	85.31
478.564	97.31
478.783	86.31
479.002	79.31
479.22	86.31
479.439	96.31
479.658	100.31
479.876	96.31
480.095	94.31
480.313	102.31
480.532	84.31
480.751	103.31
480.969	103.31
481.188	98.31
481.406	92.31
481.624	101.31
481.843	101.31
482.061	89.31
482.28	92.31
482.498	78.31
482.717	92.31
482.935	91.31
483.153	91.31
483.372	91.31
483.59	93.31
483.808	96.31
484.027	89.31
484.245	82.31
484.463	92.31
484.681	84.31
484.9	94.31
485.118	98.31
485.336	98.31
485.554	93.31
485.772	85.31
485.99	86.31
486.209	87.31
486.427	96.31
486.645	105.31
486.863	86.31
487.081	84.31
487.299	101.31
487.517	109.31
487.735	108.31
487.953	166.31
488.171	149.31
488.389	115.31
488.607	94.31
488.825	97.31
489.043	86.31
489.261	89.31
489.479	81.31
489.696	88.31
489.914	77.31
490.132	86.31
490.35	88.31
490.568	80.31
490.786	94.31
491.003	99.31
491.221	96.31
491.439	100.31
491.657	97.31
491.874	101.31
492.092	83.31
492.31	88.31
492.527	92.31
492.745	93.31
492.963	98.31
493.18	94.31
493.398	110.31
493.615	90.31
493.833	79.31
494.05	89.31
494.268	94.31
494.485	94.31
494.703	101.31
494.92	93.31
495.138	98.31
495.355	87.31
495.573	90.31
495.79	87.31
496.008	91.31
496.225	93.31
496.442	96.31
496.66	105.31
496.877	104.31
497.094	99.31
497.312	88.31
497.529	84.31
497.746	89.31
497.963	92.31
498.181	104.31
498.398	93.31
498.615	95.31
498.832	95.31
499.049	92.31
499.267	82.31
499.484	100.31
499.701	81.31
499.918	98.31
500.135	76.31
500.352	94.31
500.569	91.31
500.786	100.31
501.003	92.31
501.22	78.31
501.437	90.31
501.654	87.31
501.871	96.31
502.088	87.31
502.305	87.31
502.522	98.31
502.739	106.31
502.956	93.31
503.172	94.31
503.389	107.31
503.606	85.31
503.823	97.31
504.04	122.31
504.256	123.31
504.473	137.31
504.69	107.31
504.907	107.31
505.123	94.31
505.34	92.31
505.557	92.31
505.773	99.31
505.99	92.31
506.207	90.31
506.423	89.31
506.64	89.31
506.856	97.31
507.073	102.31
507.289	81.31
507.506	89.31
507.722	77.31
507.939	92.31
508.155	100.31
508.372	109.31
508.588	104.31
508.805	88.31
509.021	100.31
509.238	96.31
509.454	105.31
509.67	98.31
509.887	89.31
510.103	110.31
510.319	92.31
510.536	100.31
510.752	102.31
510.968	96.31
511.184	86.31
511.401	86.31
511.617	97.31
511.833	121.31
512.049	86.31
512.265	90.31
512.481	101.31
512.698	93.31
512.914	92.31
513.13	93.31
513.346	99.31
513.562	90.31
513.778	106.31
513.994	104.31
514.21	94.31
514.426	88.31
514.642	98.31
514.858	100.31
515.074	85.31
515.29	94.31
515.506	97.31
515.721	93.31
515.937	102.31
516.153	99.31
516.369	87.31
516.585	99.31
516.801	93.31
517.016	86.31
517.232	102.31
517.448	99.31
517.664	96.31
517.879	88.31
518.095	93.31
518.311	93.31
518.527	100.31
518.742	116.31
518.958	148.31
519.173	165.31
519.389	116.31
519.605	98.31
519.82	93.31
520.036	96.31
520.251	88.31
520.467	94.31
520.682	102.31
520.898	98.31
521.113	96.31
521.329	92.31
521.544	89.31
521.76	90.31
521.975	86.31
522.19	96.31
522.406	88.31
522.621	92.31
522.836	91.31
523.052	86.31
523.267	91.31
523.482	97.31
523.698	86.31
523.913	92.31
524.128	107.31
524.343	97.31
524.559	101.31
524.774	88.31
524.989	90.31
525.204	101.31
525.419	116.31
525.634	111.31
525.849	88.31
526.064	138.31
526.28	232.31
526.495	348.31
526.71	390.31
526.925	286.31
527.14	342.31
527.355	333.31
527.57	137.31
527.785	99.31
527.999	112.31
528.214	110.31
528.429	101.31
528.644	100.31
528.859	89.31
529.074	90.31
529.289	94.31
529.503	97.31
529.718	81.31
529.933	94.31
530.148	90.31
530.363	94.31
530.577	92.31
530.792	86.31
531.007	83.31
531.221	90.31
531.436	88.31
531.651	91.31
531.865	86.31
532.08	107.31
532.295	107.31
532.509	105.31
532.724	112.31
532.938	90.31
533.153	92.31
533.367	91.31
533.582	84.31
533.796	96.31
534.011	109.31
534.225	109.31
534.44	122.31
534.654	119.31
534.868	134.31
535.083	187.31
535.297	170.31
535.511	123.31
535.726	112.31
535.94	112.31
536.154	121.31
536.369	131.31
536.583	110.31
536.797	106.31
537.011	99.31
537.225	91.31
537.44	98.31
537.654	97.31
537.868	88.31
538.082	102.31
538.296	84.31
538.51	97.31
538.724	100.31
538.938	85.31
539.153	97.31
539.367	91.31
539.581	101.31
539.795	108.31
540.009	95.31
540.222	90.31
540.436	85.31
540.65	102.31
540.864	109.31
541.078	81.31
541.292	94.31
541.506	89.31
541.72	96.31
541.934	96.31
542.147	88.31
542.361	77.31
542.575	93.31
542.789	98.31
543.002	97.31
543.216	102.31
543.43	92.31
543.644	89.31
543.857	102.31
544.071	94.31
544.285	106.31
544.498	90.31
544.712	99.31
544.925	90.31
545.139	96.31
545.352	98.31
545.566	105.31
545.779	92.31
545.993	94.31
546.206	89.31
546.42	93.31
546.633	89.31
546.847	103.31
547.06	106.31
547.274	128.31
547.487	118.31
547.7	115.31
547.914	128.31
548.127	137.31
548.34	128.31
548.554	124.31
548.767	139.31
548.98	147.31
549.193	142.31
549.407	113.31
549.62	122.31
549.833	135.31
550.046	158.31
550.259	130.31
550.473	159.31
550.686	156.31
550.899	174.31
551.112	201.31
551.325	151.31
551.538	185.31
551.751	174.31
551.964	157.31
552.177	151.31
552.39	150.31
552.603	151.31
552.816	138.31
553.029	144.31
553.242	144.31
553.455	143.31
553.667	156.31
553.88	156.31
554.093	121.31
554.306	145.31
554.519	142.31
554.732	150.31
554.944	148.31
555.157	123.31
555.37	141.31
555.583	135.31
555.795	131.31
556.008	129.31
556.221	117.31
556.433	130.31
556.646	126.31
556.859	109.31
557.071	117.31
557.284	123.31
557.496	120.31
557.709	110.31
557.921	130.31
558.134	121.31
558.346	194.31
558.559	184.31
558.771	157.31
558.984	365.31
559.196	466.31
559.409	262.31
559.621	340.31
559.833	277.31
560.046	304.31
560.258	274.31
560.47	265.31
560.683	154.31
560.895	106.31
561.107	87.31
561.32	94.31
561.532	92.31
561.744	110.31
561.956	87.31
562.168	94.31
562.381	97.31
562.593	106.31
562.805	100.31
563.017	90.31
563.229	103.31
563.441	87.31
563.653	107.31
563.865	99.31
564.077	94.31
564.289	92.31
564.501	87.31
564.713	85.31
564.925	95.31
565.137	88.31
565.349	93.31
565.561	86.31
565.773	103.31
565.985	93.31
566.197	84.31
566.408	94.31
566.62	90.31
566.832	90.31
567.044	94.31
567.255	90.31
567.467	99.31
567.679	99.31
567.891	102.31
568.102	89.31
568.314	103.31
568.526	97.31
568.737	96.31
568.949	91.31
569.161	99.31
569.372	101.31
569.584	103.31
569.795	104.31
570.007	109.31
570.218	96.31
570.43	80.31
570.641	89.31
570.853	103.31
571.064	93.31
571.276	83.31
571.487	101.31
571.698	92.31
571.91	114.31
572.121	95.31
572.333	100.31
572.544	88.31
572.755	90.31
572.966	95.31
573.178	90.31
573.389	92.31
573.6	86.31
573.811	93.31
574.023	87.31
574.234	94.31
574.445	93.31
574.656	105.31
574.867	100.31
575.078	84.31
575.289	103.31
575.501	89.31
575.712	91.31
575.923	88.31
576.134	82.31
576.345	93.31
576.556	83.31
576.767	101.31
576.978	95.31
577.188	86.31
577.399	98.31
577.61	106.31
577.821	101.31
578.032	87.31
578.243	105.31
578.454	129.31
578.665	114.31
578.875	123.31
579.086	109.31
579.297	99.31
579.508	103.31
579.718	120.31
579.929	105.31
580.14	109.31
580.35	120.31
580.561	155.31
580.772	143.31
580.982	123.31
581.193	108.31
581.403	120.31
581.614	116.31
581.825	96.31
582.035	109.31
582.246	116.31
582.456	118.31
582.667	104.31
582.877	103.31
583.087	105.31
583.298	116.31
583.508	135.31
583.719	130.31
583.929	120.31
584.139	86.31
584.35	97.31
584.56	97.31
584.77	100.31
584.981	87.31
585.191	100.31
585.401	100.31
585.611	116.31
585.821	155.31
586.032	251.31
586.242	151.31
586.452	109.31
586.662	90.31
586.872	88.31
587.082	103.31
587.292	86.31
587.502	93.31
587.713	114.31
587.923	125.31
588.133	102.31
588.343	121.31
588.553	124.31
588.762	184.31
588.972	326.31
589.182	752.31
589.392	552.31
589.602	385.31
589.812	626.31
590.022	362.31
590.232	166.31
590.441	125.31
590.651	103.31
590.861	109.31
591.071	115.31
591.281	94.31
591.49	108.31
591.7	94.31
591.91	95.31
592.119	87.31
592.329	100.31
592.539	100.31
592.748	110.31
592.958	94.31
593.167	104.31
593.377	93.31
593.587	108.31
593.796	84.31
594.006	96.31
594.215	101.31
594.424	117.31
594.634	101.31
594.843	107.31
595.053	112.31
595.262	113.31
595.472	123.31
595.681	121.31
595.89	117.31
596.1	111.31
596.309	104.31
596.518	139.31
596.727	137.31
596.937	120.31
597.146	123.31
597.355	135.31
597.564	144.31
597.774	133.31
597.983	127.31
598.192	121.31
598.401	133.31
598.61	133.31
598.819	134.31
599.028	136.31
599.237	136.31
599.446	144.31
599.655	136.31
599.864	131.31
600.073	152.31
600.282	142.31
600.491	154.31
600.7	138.31
600.909	134.31
601.118	112.31
601.327	120.31
601.536	120.31
601.745	110.31
601.953	109.31
602.162	112.31
602.371	132.31
602.58	117.31
602.789	113.31
602.997	123.31
603.206	125.31
603.415	109.31
603.623	126.31
603.832	131.31
604.041	118.31
604.249	124.31
604.458	147.31
604.666	126.31
604.875	158.31
605.084	140.31
605.292	134.31
605.501	145.31
605.709	142.31
605.918	154.31
606.126	151.31
606.334	150.31
606.543	156.31
606.751	148.31
606.96	130.31
607.168	133.31
607.376	154.31
607.585	156.31
607.793	166.31
608.001	147.31
608.21	157.31
608.418	137.31
608.626	159.31
608.834	168.31
609.043	160.31
609.251	170.31
609.459	164.31
609.667	177.31
609.875	190.31
610.083	180.31
610.291	212.31
610.499	290.31
610.707	215.31
610.916	160.31
611.124	152.31
611.332	167.31
611.54	154.31
611.748	151.31
611.955	152.31
612.163	200.31
612.371	362.31
612.579	334.31
612.787	197.31
612.995	194.31
613.203	164.31
613.411	153.31
613.618	152.31
613.826	149.31
614.034	183.31
614.242	173.31
614.449	183.31
614.657	166.31
614.865	160.31
615.072	162.31
615.28	162.31
615.488	160.31
615.695	173.31
615.903	189.31
616.111	189.31
616.318	388.31
616.526	474.31
616.733	284.31
616.941	229.31
617.148	268.31
617.356	200.31
617.563	156.31
617.771	156.31
617.978	128.31
618.185	138.31
618.393	142.31
618.6	136.31
618.807	118.31
619.015	113.31
619.222	136.31
619.429	116.31
619.637	136.31
619.844	128.31
620.051	130.31
620.258	126.31
620.466	134.31
620.673	130.31
620.88	152.31
621.087	144.31
621.294	138.31
621.501	132.31
621.708	136.31
621.915	138.31
622.122	129.31
622.329	146.31
622.536	163.31
622.743	143.31
622.95	148.31
623.157	151.31
623.364	172.31
623.571	159.31
623.778	174.31
623.985	176.31
624.192	179.31
624.399	186.31
624.606	195.31
624.812	203.31
625.019	206.31
625.226	196.31
625.433	176.31
625.639	170.31
625.846	170.31
626.053	177.31
626.259	141.31
626.466	167.31
626.673	163.31
626.879	147.31
627.086	182.31
627.293	194.31
627.499	157.31
627.706	166.31
627.912	135.31
628.119	117.31
628.325	131.31
628.532	121.31
628.738	107.31
628.945	93.31
629.151	96.31
629.357	102.31
629.564	86.31
629.77	103.31
629.976	81.31
630.183	93.31
630.389	107.31
630.595	90.31
630.802	85.31
631.008	92.31
631.214	100.31
631.42	96.31
631.627	94.31
631.833	107.31
632.039	90.31
632.245	97.31
632.451	93.31
632.657	97.31
632.863	90.31
633.069	96.31
633.275	103.31
633.481	92.31
633.688	83.31
633.893	97.31
634.099	92.31
634.305	102.31
634.511	114.31
634.717	114.31
634.923	106.31
635.129	106.31
635.335	113.31
635.541	106.31
635.747	97.31
635.952	101.31
636.158	100.31
636.364	103.31
636.57	99.31
636.775	107.31
636.981	106.31
637.187	97.31
637.392	97.31
637.598	97.31
637.804	91.31
638.009	91.31
638.215	105.31
638.421	87.31
638.626	95.31
638.832	92.31
639.037	103.31
639.243	92.31
639.448	90.31
639.654	92.31
639.859	66.31
640.065	90.31
640.27	103.31
640.475	102.31
640.681	82.31
640.886	85.31
641.091	93.31
641.297	89.31
641.502	90.31
641.707	85.31
641.913	101.31
642.118	92.31
642.323	82.31
642.528	100.31
642.733	79.31
642.939	88.31
643.144	89.31
643.349	80.31
643.554	94.31
643.759	92.31
643.964	138.31
644.169	195.31
644.374	126.31
644.579	119.31
644.784	81.31
644.989	103.31
645.194	124.31
645.399	100.31
645.604	100.31
645.809	99.31
646.014	101.31
646.219	100.31
646.423	183.31
646.628	149.31
646.833	102.31
647.038	88.31
647.243	107.31
647.447	116.31
647.652	104.31
647.857	96.31
648.062	84.31
648.266	104.31
648.471	105.31
648.676	104.31
648.88	82.31
649.085	93.31
649.289	83.31
649.494	120.31
649.698	128.31
649.903	109.31
650.107	101.31
650.312	96.31
650.516	94.31
650.721	96.31
650.925	84.31
651.13	88.31
651.334	82.31
651.539	75.31
651.743	89.31
651.947	84.31
652.152	84.31
652.356	82.31
652.56	73.31
652.764	81.31
652.969	83.31
653.173	82.31
653.377	93.31
653.581	83.31
653.785	85.31
653.99	83.31
654.194	82.31
654.398	62.31
654.602	69.31
654.806	74.31
655.01	73.31
655.214	91.31
655.418	103.31
655.622	100.31
655.826	88.31
656.03	87.31
656.234	91.31
656.438	75.31
656.642	99.31
656.846	81.31
657.049	73.31
657.253	83.31
657.457	76.31
657.661	91.31
657.865	74.31
658.068	73.31
658.272	91.31
658.476	84.31
658.68	93.31
658.883	88.31
659.087	69.31
659.291	83.31
659.494	96.31
659.698	78.31
659.901	83.31
660.105	82.31
660.309	70.31
660.512	62.31
660.716	85.31
660.919	73.31
661.123	92.31
661.326	93.31
661.53	79.31
661.733	79.31
661.936	92.31
662.14	69.31
662.343	86.31
662.546	73.31
662.75	82.31
662.953	78.31
663.156	93.31
663.36	76.31
663.563	89.31
663.766	87.31
663.969	92.31
664.173	86.31
664.376	81.31
664.579	93.31
664.782	89.31
664.985	67.31
665.188	70.31
665.391	99.31
665.594	82.31
665.797	78.31
666	92.31
666.203	73.31
666.406	68.31
666.609	77.31
666.812	73.31
667.015	64.31
667.218	74.31
667.421	76.31
667.624	91.31
667.827	88.31
668.03	83.31
668.232	84.31
668.435	82.31
668.638	79.31
668.841	92.31
669.043	77.31
669.246	66.31
669.449	82.31
669.651	89.31
669.854	71.31
670.057	69.31
670.259	80.31
670.462	78.31
670.665	66.31
670.867	78.31
671.07	89.31
671.272	86.31
671.475	82.31
671.677	87.31
671.88	93.31
672.082	72.31
672.284	82.31
672.487	74.31
672.689	96.31
672.892	77.31
