Data from Circ_1989_H10_HRD10591_00090.txt Node
Date: Wed Jan 03 12:01:39 EST 2024
User: Yrep
Spectrometer: HR+D1059
Trigger mode: 1
Integration Time (sec): 1.000000E-1
Scans to average: 1
Electric dark correction enabled: true
Nonlinearity correction enabled: false
Boxcar width: 0
XAxis mode: Wavelengths
Number of Pixels in Spectrum: 2048
>>>>>Begin Spectral Data<<<<<
223.165	-15.94
223.4	-15.94
223.635	-15.94
223.869	-18.94
224.104	-7.94
224.338	-33.94
224.573	-8.94
224.808	-12.94
225.042	-9.94
225.277	10.06
225.511	-22.94
225.746	15.06
225.98	1.06
226.215	5.06
226.449	27.06
226.683	28.06
226.918	14.06
227.152	31.06
227.387	38.06
227.621	34.06
227.856	43.06
228.09	50.06
228.324	39.06
228.559	54.06
228.793	74.06
229.027	67.06
229.262	67.06
229.496	67.06
229.73	83.06
229.964	89.06
230.199	70.06
230.433	86.06
230.667	72.06
230.901	80.06
231.136	74.06
231.37	68.06
231.604	77.06
231.838	78.06
232.072	61.06
232.306	74.06
232.541	74.06
232.775	77.06
233.009	78.06
233.243	77.06
233.477	82.06
233.711	89.06
233.945	89.06
234.179	87.06
234.413	87.06
234.647	75.06
234.881	84.06
235.115	70.06
235.349	76.06
235.583	93.06
235.817	85.06
236.051	80.06
236.285	79.06
236.519	83.06
236.753	89.06
236.987	82.06
237.221	80.06
237.455	87.06
237.689	60.06
237.922	74.06
238.156	84.06
238.39	69.06
238.624	76.06
238.858	64.06
239.091	83.06
239.325	74.06
239.559	80.06
239.793	70.06
240.027	78.06
240.26	90.06
240.494	86.06
240.728	78.06
240.961	80.06
241.195	67.06
241.429	82.06
241.662	65.06
241.896	80.06
242.13	74.06
242.363	72.06
242.597	69.06
242.83	85.06
243.064	72.06
243.298	82.06
243.531	66.06
243.765	84.06
243.998	80.06
244.232	74.06
244.465	88.06
244.699	83.06
244.932	62.06
245.166	76.06
245.399	76.06
245.633	84.06
245.866	79.06
246.099	74.06
246.333	72.06
246.566	82.06
246.8	68.06
247.033	69.06
247.266	71.06
247.5	76.06
247.733	92.06
247.966	94.06
248.2	75.06
248.433	76.06
248.666	84.06
248.899	75.06
249.133	88.06
249.366	90.06
249.599	87.06
249.832	90.06
250.066	80.06
250.299	86.06
250.532	77.06
250.765	86.06
250.998	80.06
251.231	74.06
251.465	64.06
251.698	72.06
251.931	82.06
252.164	76.06
252.397	83.06
252.63	76.06
252.863	76.06
253.096	71.06
253.329	73.06
253.562	80.06
253.795	79.06
254.028	72.06
254.261	87.06
254.494	77.06
254.727	78.06
254.96	88.06
255.193	84.06
255.426	86.06
255.659	70.06
255.892	87.06
256.124	97.06
256.357	87.06
256.59	80.06
256.823	83.06
257.056	78.06
257.289	86.06
257.521	95.06
257.754	96.06
257.987	86.06
258.22	79.06
258.452	89.06
258.685	79.06
258.918	72.06
259.151	86.06
259.383	75.06
259.616	79.06
259.849	82.06
260.081	80.06
260.314	82.06
260.547	96.06
260.779	85.06
261.012	88.06
261.244	82.06
261.477	95.06
261.71	88.06
261.942	113.06
262.175	114.06
262.407	92.06
262.64	86.06
262.872	82.06
263.105	83.06
263.337	88.06
263.57	93.06
263.802	86.06
264.035	73.06
264.267	87.06
264.499	63.06
264.732	69.06
264.964	82.06
265.197	94.06
265.429	87.06
265.661	95.06
265.894	78.06
266.126	89.06
266.358	95.06
266.591	87.06
266.823	77.06
267.055	78.06
267.287	85.06
267.52	79.06
267.752	83.06
267.984	85.06
268.216	95.06
268.448	88.06
268.681	91.06
268.913	78.06
269.145	92.06
269.377	83.06
269.609	75.06
269.841	76.06
270.073	91.06
270.306	86.06
270.538	88.06
270.77	77.06
271.002	76.06
271.234	75.06
271.466	82.06
271.698	74.06
271.93	88.06
272.162	81.06
272.394	80.06
272.626	87.06
272.858	69.06
273.09	84.06
273.322	85.06
273.553	59.06
273.785	94.06
274.017	96.06
274.249	85.06
274.481	78.06
274.713	86.06
274.945	82.06
275.176	101.06
275.408	97.06
275.64	80.06
275.872	109.06
276.104	92.06
276.335	81.06
276.567	96.06
276.799	120.06
277.031	134.06
277.262	132.06
277.494	129.06
277.726	80.06
277.957	70.06
278.189	90.06
278.421	98.06
278.652	78.06
278.884	90.06
279.115	82.06
279.347	96.06
279.579	96.06
279.81	105.06
280.042	134.06
280.273	190.06
280.505	131.06
280.736	96.06
280.968	83.06
281.199	91.06
281.431	99.06
281.662	80.06
281.894	90.06
282.125	104.06
282.356	111.06
282.588	123.06
282.819	124.06
283.051	93.06
283.282	84.06
283.513	89.06
283.745	84.06
283.976	88.06
284.207	80.06
284.439	82.06
284.67	86.06
284.901	98.06
285.132	101.06
285.364	89.06
285.595	90.06
285.826	84.06
286.057	80.06
286.288	83.06
286.52	82.06
286.751	85.06
286.982	91.06
287.213	99.06
287.444	82.06
287.675	94.06
287.906	85.06
288.138	99.06
288.369	100.06
288.6	88.06
288.831	86.06
289.062	91.06
289.293	71.06
289.524	78.06
289.755	90.06
289.986	96.06
290.217	94.06
290.448	79.06
290.679	79.06
290.91	94.06
291.141	100.06
291.371	90.06
291.602	82.06
291.833	87.06
292.064	80.06
292.295	92.06
292.526	88.06
292.757	98.06
292.987	92.06
293.218	94.06
293.449	98.06
293.68	101.06
293.91	82.06
294.141	86.06
294.372	79.06
294.603	79.06
294.833	95.06
295.064	86.06
295.295	81.06
295.525	79.06
295.756	100.06
295.987	102.06
296.217	139.06
296.448	134.06
296.679	100.06
296.909	106.06
297.14	76.06
297.37	90.06
297.601	80.06
297.831	84.06
298.062	72.06
298.292	90.06
298.523	90.06
298.753	101.06
298.984	79.06
299.214	80.06
299.445	88.06
299.675	91.06
299.905	99.06
300.136	94.06
300.366	96.06
300.597	86.06
300.827	90.06
301.057	97.06
301.288	101.06
301.518	113.06
301.748	88.06
301.979	108.06
302.209	91.06
302.439	97.06
302.669	97.06
302.9	90.06
303.13	100.06
303.36	95.06
303.59	109.06
303.82	112.06
304.051	88.06
304.281	81.06
304.511	96.06
304.741	80.06
304.971	84.06
305.201	86.06
305.431	83.06
305.661	78.06
305.891	83.06
306.121	90.06
306.352	108.06
306.582	102.06
306.812	86.06
307.042	108.06
307.272	119.06
307.502	115.06
307.731	137.06
307.961	112.06
308.191	100.06
308.421	92.06
308.651	101.06
308.881	101.06
309.111	94.06
309.341	98.06
309.571	95.06
309.8	101.06
310.03	114.06
310.26	74.06
310.49	91.06
310.72	91.06
310.949	92.06
311.179	104.06
311.409	83.06
311.639	102.06
311.868	96.06
312.098	93.06
312.328	94.06
312.557	104.06
312.787	104.06
313.017	96.06
313.246	91.06
313.476	92.06
313.706	97.06
313.935	91.06
314.165	106.06
314.394	92.06
314.624	91.06
314.853	98.06
315.083	94.06
315.312	93.06
315.542	103.06
315.771	92.06
316.001	94.06
316.23	87.06
316.46	92.06
316.689	93.06
316.919	82.06
317.148	86.06
317.377	91.06
317.607	90.06
317.836	91.06
318.065	96.06
318.295	96.06
318.524	83.06
318.753	94.06
318.983	81.06
319.212	117.06
319.441	103.06
319.67	98.06
319.9	89.06
320.129	98.06
320.358	88.06
320.587	85.06
320.816	92.06
321.046	115.06
321.275	104.06
321.504	86.06
321.733	100.06
321.962	98.06
322.191	106.06
322.42	123.06
322.649	119.06
322.878	102.06
323.108	117.06
323.337	131.06
323.566	134.06
323.795	145.06
324.024	213.06
324.253	398.06
324.482	844.06
324.71	1794.06
324.939	2464.06
325.168	858.06
325.397	248.06
325.626	152.06
325.855	134.06
326.084	117.06
326.313	135.06
326.542	158.06
326.77	234.06
326.999	468.06
327.228	998.06
327.457	1904.06
327.686	1529.06
327.914	461.06
328.143	362.06
328.372	428.06
328.6	237.06
328.829	148.06
329.058	159.06
329.287	163.06
329.515	124.06
329.744	187.06
329.972	332.06
330.201	610.06
330.43	881.06
330.658	407.06
330.887	211.06
331.115	140.06
331.344	124.06
331.572	106.06
331.801	119.06
332.03	119.06
332.258	110.06
332.486	103.06
332.715	91.06
332.943	84.06
333.172	116.06
333.4	116.06
333.629	131.06
333.857	178.06
334.085	292.06
334.314	595.06
334.542	1128.06
334.771	1048.06
334.999	300.06
335.227	148.06
335.455	114.06
335.684	116.06
335.912	102.06
336.14	99.06
336.369	95.06
336.597	101.06
336.825	93.06
337.053	110.06
337.281	95.06
337.51	88.06
337.738	97.06
337.966	79.06
338.194	90.06
338.422	110.06
338.65	88.06
338.878	90.06
339.106	92.06
339.334	92.06
339.562	85.06
339.79	94.06
340.018	86.06
340.246	100.06
340.474	93.06
340.702	103.06
340.93	92.06
341.158	90.06
341.386	94.06
341.614	85.06
341.842	94.06
342.07	97.06
342.298	84.06
342.526	81.06
342.754	92.06
342.981	89.06
343.209	100.06
343.437	96.06
343.665	80.06
343.893	86.06
344.12	88.06
344.348	90.06
344.576	95.06
344.804	106.06
345.031	94.06
345.259	101.06
345.487	98.06
345.714	110.06
345.942	88.06
346.17	81.06
346.397	93.06
346.625	75.06
346.853	84.06
347.08	91.06
347.308	93.06
347.535	91.06
347.763	101.06
347.99	99.06
348.218	102.06
348.445	107.06
348.673	95.06
348.9	92.06
349.128	82.06
349.355	90.06
349.583	95.06
349.81	85.06
350.037	86.06
350.265	88.06
350.492	84.06
350.72	112.06
350.947	104.06
351.174	96.06
351.402	114.06
351.629	108.06
351.856	111.06
352.083	112.06
352.311	113.06
352.538	102.06
352.765	97.06
352.992	104.06
353.22	105.06
353.447	106.06
353.674	87.06
353.901	93.06
354.128	103.06
354.355	84.06
354.583	110.06
354.81	100.06
355.037	103.06
355.264	74.06
355.491	84.06
355.718	86.06
355.945	90.06
356.172	92.06
356.399	95.06
356.626	102.06
356.853	107.06
357.08	106.06
357.307	76.06
357.534	88.06
357.761	102.06
357.988	84.06
358.215	83.06
358.441	86.06
358.668	82.06
358.895	78.06
359.122	77.06
359.349	86.06
359.576	84.06
359.802	92.06
360.029	100.06
360.256	110.06
360.483	87.06
360.709	84.06
360.936	91.06
361.163	98.06
361.39	100.06
361.616	93.06
361.843	89.06
362.07	97.06
362.296	87.06
362.523	91.06
362.749	81.06
362.976	92.06
363.203	92.06
363.429	87.06
363.656	81.06
363.882	99.06
364.109	81.06
364.335	75.06
364.562	99.06
364.788	94.06
365.015	85.06
365.241	110.06
365.468	100.06
365.694	105.06
365.92	96.06
366.147	85.06
366.373	77.06
366.599	84.06
366.826	92.06
367.052	84.06
367.278	95.06
367.505	86.06
367.731	106.06
367.957	88.06
368.184	93.06
368.41	86.06
368.636	114.06
368.862	111.06
369.089	94.06
369.315	98.06
369.541	97.06
369.767	94.06
369.993	94.06
370.219	87.06
370.445	85.06
370.672	78.06
370.898	67.06
371.124	95.06
371.35	95.06
371.576	93.06
371.802	103.06
372.028	82.06
372.254	82.06
372.48	87.06
372.706	94.06
372.932	83.06
373.158	95.06
373.384	100.06
373.61	86.06
373.835	69.06
374.061	95.06
374.287	92.06
374.513	94.06
374.739	93.06
374.965	91.06
375.191	85.06
375.416	80.06
375.642	76.06
375.868	80.06
376.094	87.06
376.319	92.06
376.545	88.06
376.771	87.06
376.997	87.06
377.222	100.06
377.448	103.06
377.674	86.06
377.899	95.06
378.125	94.06
378.35	81.06
378.576	88.06
378.802	86.06
379.027	89.06
379.253	83.06
379.478	93.06
379.704	83.06
379.929	85.06
380.155	86.06
380.38	91.06
380.606	83.06
380.831	84.06
381.057	90.06
381.282	90.06
381.507	96.06
381.733	88.06
381.958	86.06
382.184	105.06
382.409	88.06
382.634	91.06
382.86	103.06
383.085	122.06
383.31	100.06
383.535	100.06
383.761	96.06
383.986	103.06
384.211	85.06
384.436	99.06
384.662	99.06
384.887	96.06
385.112	104.06
385.337	100.06
385.562	101.06
385.787	93.06
386.013	100.06
386.238	104.06
386.463	102.06
386.688	115.06
386.913	102.06
387.138	103.06
387.363	88.06
387.588	96.06
387.813	98.06
388.038	91.06
388.263	103.06
388.488	106.06
388.713	85.06
388.938	94.06
389.163	94.06
389.387	110.06
389.612	90.06
389.837	88.06
390.062	90.06
390.287	100.06
390.512	114.06
390.736	93.06
390.961	87.06
391.186	91.06
391.411	78.06
391.636	90.06
391.86	100.06
392.085	88.06
392.31	94.06
392.534	90.06
392.759	83.06
392.984	87.06
393.208	95.06
393.433	82.06
393.658	85.06
393.882	89.06
394.107	80.06
394.331	84.06
394.556	74.06
394.78	78.06
395.005	88.06
395.229	78.06
395.454	92.06
395.678	89.06
395.903	86.06
396.127	71.06
396.352	92.06
396.576	101.06
396.801	92.06
397.025	87.06
397.249	71.06
397.474	90.06
397.698	98.06
397.922	90.06
398.147	90.06
398.371	87.06
398.595	87.06
398.82	78.06
399.044	77.06
399.268	85.06
399.492	87.06
399.717	96.06
399.941	82.06
400.165	94.06
400.389	83.06
400.613	90.06
400.837	92.06
401.062	102.06
401.286	93.06
401.51	96.06
401.734	95.06
401.958	77.06
402.182	113.06
402.406	151.06
402.63	114.06
402.854	104.06
403.078	78.06
403.302	74.06
403.526	85.06
403.75	84.06
403.974	95.06
404.198	86.06
404.422	91.06
404.645	88.06
404.869	99.06
405.093	87.06
405.317	117.06
405.541	114.06
405.765	96.06
405.988	100.06
406.212	150.06
406.436	219.06
406.66	149.06
406.883	97.06
407.107	104.06
407.331	104.06
407.555	100.06
407.778	96.06
408.002	87.06
408.226	94.06
408.449	79.06
408.673	96.06
408.896	92.06
409.12	95.06
409.344	78.06
409.567	100.06
409.791	102.06
410.014	85.06
410.238	87.06
410.461	97.06
410.685	97.06
410.908	98.06
411.132	105.06
411.355	93.06
411.578	73.06
411.802	95.06
412.025	85.06
412.249	83.06
412.472	107.06
412.695	120.06
412.919	86.06
413.142	98.06
413.365	70.06
413.589	92.06
413.812	80.06
414.035	88.06
414.258	96.06
414.482	96.06
414.705	81.06
414.928	97.06
415.151	79.06
415.374	83.06
415.597	96.06
415.821	87.06
416.044	98.06
416.267	90.06
416.49	82.06
416.713	96.06
416.936	81.06
417.159	88.06
417.382	94.06
417.605	101.06
417.828	87.06
418.051	82.06
418.274	87.06
418.497	96.06
418.72	86.06
418.943	86.06
419.166	103.06
419.389	98.06
419.611	103.06
419.834	98.06
420.057	95.06
420.28	71.06
420.503	79.06
420.726	91.06
420.948	91.06
421.171	94.06
421.394	91.06
421.617	94.06
421.839	83.06
422.062	94.06
422.285	88.06
422.507	104.06
422.73	97.06
422.953	62.06
423.175	95.06
423.398	82.06
423.621	90.06
423.843	84.06
424.066	83.06
424.288	77.06
424.511	96.06
424.733	94.06
424.956	109.06
425.178	98.06
425.401	90.06
425.623	97.06
425.846	90.06
426.068	92.06
426.291	94.06
426.513	91.06
426.735	96.06
426.958	91.06
427.18	115.06
427.402	143.06
427.625	201.06
427.847	194.06
428.069	203.06
428.292	122.06
428.514	118.06
428.736	92.06
428.958	81.06
429.181	82.06
429.403	88.06
429.625	86.06
429.847	93.06
430.069	102.06
430.292	92.06
430.514	63.06
430.736	93.06
430.958	67.06
431.18	88.06
431.402	90.06
431.624	80.06
431.846	90.06
432.068	78.06
432.29	74.06
432.512	83.06
432.734	80.06
432.956	87.06
433.178	102.06
433.4	98.06
433.622	93.06
433.844	86.06
434.066	96.06
434.287	104.06
434.509	101.06
434.731	81.06
434.953	81.06
435.175	79.06
435.397	104.06
435.618	90.06
435.84	101.06
436.062	136.06
436.284	108.06
436.505	94.06
436.727	109.06
436.949	86.06
437.17	101.06
437.392	81.06
437.614	97.06
437.835	104.06
438.057	117.06
438.278	125.06
438.5	105.06
438.721	130.06
438.943	103.06
439.165	94.06
439.386	93.06
439.608	90.06
439.829	111.06
440.05	137.06
440.272	160.06
440.493	97.06
440.715	84.06
440.936	82.06
441.158	72.06
441.379	82.06
441.6	86.06
441.822	80.06
442.043	99.06
442.264	95.06
442.486	98.06
442.707	90.06
442.928	103.06
443.149	146.06
443.371	151.06
443.592	118.06
443.813	119.06
444.034	110.06
444.255	88.06
444.476	81.06
444.698	83.06
444.919	99.06
445.14	132.06
445.361	127.06
445.582	115.06
445.803	158.06
446.024	141.06
446.245	144.06
446.466	116.06
446.687	86.06
446.908	98.06
447.129	90.06
447.35	87.06
447.571	102.06
447.792	101.06
448.013	101.06
448.234	113.06
448.455	87.06
448.675	111.06
448.896	130.06
449.117	98.06
449.338	101.06
449.559	125.06
449.779	133.06
450	87.06
450.221	79.06
450.442	91.06
450.662	87.06
450.883	112.06
451.104	103.06
451.324	107.06
451.545	80.06
451.766	84.06
451.986	82.06
452.207	85.06
452.428	96.06
452.648	98.06
452.869	109.06
453.089	112.06
453.31	112.06
453.53	109.06
453.751	109.06
453.971	113.06
454.192	121.06
454.412	100.06
454.633	91.06
454.853	87.06
455.073	94.06
455.294	83.06
455.514	93.06
455.734	95.06
455.955	86.06
456.175	74.06
456.395	67.06
456.616	82.06
456.836	90.06
457.056	90.06
457.276	77.06
457.497	95.06
457.717	93.06
457.937	82.06
458.157	90.06
458.377	82.06
458.598	107.06
458.818	156.06
459.038	175.06
459.258	124.06
459.478	78.06
459.698	77.06
459.918	90.06
460.138	91.06
460.358	90.06
460.578	86.06
460.798	91.06
461.018	86.06
461.238	88.06
461.458	87.06
461.678	86.06
461.898	78.06
462.118	80.06
462.338	92.06
462.558	83.06
462.777	81.06
462.997	92.06
463.217	88.06
463.437	90.06
463.657	79.06
463.876	100.06
464.096	85.06
464.316	95.06
464.536	94.06
464.755	89.06
464.975	107.06
465.195	179.06
465.414	183.06
465.634	99.06
465.854	70.06
466.073	82.06
466.293	89.06
466.512	84.06
466.732	84.06
466.951	84.06
467.171	82.06
467.391	104.06
467.61	118.06
467.829	148.06
468.049	364.06
468.268	532.06
468.488	163.06
468.707	117.06
468.927	96.06
469.146	96.06
469.365	90.06
469.585	106.06
469.804	100.06
470.023	82.06
470.243	96.06
470.462	92.06
470.681	114.06
470.901	98.06
471.12	90.06
471.339	86.06
471.558	105.06
471.777	118.06
471.997	211.06
472.216	731.06
472.435	1540.06
472.654	378.06
472.873	132.06
473.092	96.06
473.311	92.06
473.53	90.06
473.749	85.06
473.968	109.06
474.187	106.06
474.406	99.06
474.625	96.06
474.844	76.06
475.063	69.06
475.282	84.06
475.501	82.06
475.72	87.06
475.939	100.06
476.158	99.06
476.377	74.06
476.596	76.06
476.814	86.06
477.033	99.06
477.252	90.06
477.471	74.06
477.69	87.06
477.908	86.06
478.127	81.06
478.346	83.06
478.564	92.06
478.783	101.06
479.002	85.06
479.22	101.06
479.439	129.06
479.658	104.06
479.876	104.06
480.095	90.06
480.313	108.06
480.532	135.06
480.751	208.06
480.969	655.06
481.188	2731.06
481.406	1551.06
481.624	259.06
481.843	114.06
482.061	114.06
482.28	117.06
482.498	92.06
482.717	100.06
482.935	78.06
483.153	95.06
483.372	98.06
483.59	94.06
483.808	99.06
484.027	91.06
484.245	92.06
484.463	93.06
484.681	96.06
484.9	88.06
485.118	84.06
485.336	91.06
485.554	96.06
485.772	109.06
485.99	102.06
486.209	120.06
486.427	107.06
486.645	129.06
486.863	96.06
487.081	80.06
487.299	86.06
487.517	89.06
487.735	83.06
487.953	103.06
488.171	95.06
488.389	98.06
488.607	101.06
488.825	89.06
489.043	80.06
489.261	92.06
489.479	87.06
489.696	78.06
489.914	89.06
490.132	90.06
490.35	91.06
490.568	87.06
490.786	85.06
491.003	77.06
491.221	77.06
491.439	89.06
491.657	83.06
491.874	109.06
492.092	92.06
492.31	86.06
492.527	77.06
492.745	89.06
492.963	96.06
493.18	82.06
493.398	80.06
493.615	94.06
493.833	76.06
494.05	105.06
494.268	80.06
494.485	86.06
494.703	94.06
494.92	87.06
495.138	76.06
495.355	80.06
495.573	85.06
495.79	89.06
496.008	84.06
496.225	94.06
496.442	102.06
496.66	96.06
496.877	86.06
497.094	100.06
497.312	86.06
497.529	97.06
497.746	99.06
497.963	90.06
498.181	84.06
498.398	100.06
498.615	102.06
498.832	98.06
499.049	91.06
499.267	101.06
499.484	97.06
499.701	85.06
499.918	93.06
500.135	86.06
500.352	100.06
500.569	81.06
500.786	93.06
501.003	82.06
501.22	94.06
501.437	91.06
501.654	96.06
501.871	117.06
502.088	103.06
502.305	85.06
502.522	79.06
502.739	86.06
502.956	90.06
503.172	95.06
503.389	84.06
503.606	89.06
503.823	98.06
504.04	93.06
504.256	96.06
504.473	100.06
504.69	75.06
504.907	94.06
505.123	97.06
505.34	99.06
505.557	93.06
505.773	86.06
505.99	94.06
506.207	91.06
506.423	102.06
506.64	92.06
506.856	88.06
507.073	95.06
507.289	99.06
507.506	105.06
507.722	129.06
507.939	117.06
508.155	94.06
508.372	94.06
508.588	84.06
508.805	89.06
509.021	99.06
509.238	102.06
509.454	96.06
509.67	95.06
509.887	108.06
510.103	129.06
510.319	189.06
510.536	638.06
510.752	2033.06
510.968	572.06
511.184	156.06
511.401	117.06
511.617	109.06
511.833	96.06
512.049	87.06
512.265	97.06
512.481	102.06
512.698	89.06
512.914	92.06
513.13	101.06
513.346	77.06
513.562	97.06
513.778	88.06
513.994	105.06
514.21	110.06
514.426	125.06
514.642	128.06
514.858	111.06
515.074	175.06
515.29	437.06
515.506	1448.06
515.721	541.06
515.937	157.06
516.153	118.06
516.369	109.06
516.585	100.06
516.801	112.06
517.016	109.06
517.232	100.06
517.448	90.06
517.664	80.06
517.879	86.06
518.095	104.06
518.311	99.06
518.527	101.06
518.742	90.06
518.958	74.06
519.173	92.06
519.389	90.06
519.605	94.06
519.82	91.06
520.036	111.06
520.251	126.06
520.467	112.06
520.682	106.06
520.898	113.06
521.113	99.06
521.329	135.06
521.544	196.06
521.76	567.06
521.975	2451.06
522.19	1494.06
522.406	320.06
522.621	134.06
522.836	106.06
523.052	95.06
523.267	98.06
523.482	90.06
523.698	93.06
523.913	139.06
524.128	104.06
524.343	103.06
524.559	98.06
524.774	94.06
524.989	95.06
525.204	99.06
525.419	79.06
525.634	77.06
525.849	78.06
526.064	88.06
526.28	92.06
526.495	90.06
526.71	78.06
526.925	91.06
527.14	78.06
527.355	74.06
527.57	92.06
527.785	69.06
527.999	95.06
528.214	92.06
528.429	81.06
528.644	90.06
528.859	90.06
529.074	101.06
529.289	118.06
529.503	180.06
529.718	93.06
529.933	106.06
530.148	94.06
530.363	78.06
530.577	82.06
530.792	86.06
531.007	94.06
531.221	97.06
531.436	79.06
531.651	96.06
531.865	91.06
532.08	81.06
532.295	98.06
532.509	76.06
532.724	100.06
532.938	94.06
533.153	96.06
533.367	80.06
533.582	90.06
533.796	91.06
534.011	68.06
534.225	95.06
534.44	95.06
534.654	95.06
534.868	85.06
535.083	90.06
535.297	104.06
535.511	94.06
535.726	98.06
535.94	101.06
536.154	84.06
536.369	85.06
536.583	86.06
536.797	82.06
537.011	77.06
537.225	90.06
537.44	78.06
537.654	98.06
537.868	76.06
538.082	95.06
538.296	76.06
538.51	82.06
538.724	89.06
538.938	83.06
539.153	95.06
539.367	102.06
539.581	86.06
539.795	102.06
540.009	90.06
540.222	77.06
540.436	91.06
540.65	87.06
540.864	92.06
541.078	111.06
541.292	90.06
541.506	85.06
541.72	87.06
541.934	99.06
542.147	81.06
542.361	89.06
542.575	86.06
542.789	91.06
543.002	95.06
543.216	83.06
543.43	104.06
543.644	101.06
543.857	79.06
544.071	80.06
544.285	95.06
544.498	93.06
544.712	94.06
544.925	79.06
545.139	86.06
545.352	86.06
545.566	87.06
545.779	83.06
545.993	87.06
546.206	96.06
546.42	103.06
546.633	91.06
546.847	85.06
547.06	85.06
547.274	89.06
547.487	86.06
547.7	91.06
547.914	80.06
548.127	85.06
548.34	84.06
548.554	80.06
548.767	90.06
548.98	85.06
549.193	84.06
549.407	82.06
549.62	90.06
549.833	92.06
550.046	86.06
550.259	97.06
550.473	103.06
550.686	92.06
550.899	99.06
551.112	90.06
551.325	83.06
551.538	98.06
551.751	89.06
551.964	102.06
552.177	88.06
552.39	86.06
552.603	78.06
552.816	97.06
553.029	84.06
553.242	91.06
553.455	102.06
553.667	110.06
553.88	98.06
554.093	93.06
554.306	112.06
554.519	103.06
554.732	101.06
554.944	95.06
555.157	77.06
555.37	86.06
555.583	95.06
555.795	95.06
556.008	91.06
556.221	82.06
556.433	89.06
556.646	108.06
556.859	88.06
557.071	85.06
557.284	76.06
557.496	98.06
557.709	91.06
557.921	94.06
558.134	82.06
558.346	80.06
558.559	88.06
558.771	94.06
558.984	101.06
559.196	102.06
559.409	82.06
559.621	77.06
559.833	84.06
560.046	90.06
560.258	94.06
560.47	110.06
560.683	102.06
560.895	87.06
561.107	80.06
561.32	84.06
561.532	91.06
561.744	86.06
561.956	87.06
562.168	99.06
562.381	95.06
562.593	88.06
562.805	90.06
563.017	90.06
563.229	94.06
563.441	94.06
563.653	81.06
563.865	94.06
564.077	96.06
564.289	81.06
564.501	93.06
564.713	66.06
564.925	83.06
565.137	114.06
565.349	84.06
565.561	75.06
565.773	103.06
565.985	109.06
566.197	84.06
566.408	82.06
566.62	88.06
566.832	95.06
567.044	94.06
567.255	84.06
567.467	83.06
567.679	86.06
567.891	98.06
568.102	80.06
568.314	91.06
568.526	98.06
568.737	83.06
568.949	85.06
569.161	85.06
569.372	87.06
569.584	87.06
569.795	83.06
570.007	112.06
570.218	213.06
570.43	108.06
570.641	87.06
570.853	98.06
571.064	90.06
571.276	93.06
571.487	86.06
571.698	90.06
571.91	75.06
572.121	83.06
572.333	83.06
572.544	88.06
572.755	95.06
572.966	75.06
573.178	89.06
573.389	94.06
573.6	99.06
573.811	78.06
574.023	86.06
574.234	81.06
574.445	81.06
574.656	87.06
574.867	79.06
575.078	84.06
575.289	98.06
575.501	92.06
575.712	93.06
575.923	88.06
576.134	89.06
576.345	90.06
576.556	91.06
576.767	102.06
576.978	84.06
577.188	82.06
577.399	86.06
577.61	89.06
577.821	94.06
578.032	106.06
578.243	227.06
578.454	597.06
578.665	189.06
578.875	106.06
579.086	80.06
579.297	92.06
579.508	90.06
579.718	75.06
579.929	86.06
580.14	91.06
580.35	93.06
580.561	93.06
580.772	86.06
580.982	88.06
581.193	95.06
581.403	75.06
581.614	93.06
581.825	86.06
582.035	75.06
582.246	82.06
582.456	88.06
582.667	85.06
582.877	88.06
583.087	80.06
583.298	88.06
583.508	71.06
583.719	99.06
583.929	83.06
584.139	87.06
584.35	79.06
584.56	82.06
584.77	84.06
584.981	71.06
585.191	82.06
585.401	69.06
585.611	92.06
585.821	76.06
586.032	87.06
586.242	85.06
586.452	94.06
586.662	86.06
586.872	82.06
587.082	90.06
587.292	77.06
587.502	101.06
587.713	102.06
587.923	91.06
588.133	100.06
588.343	100.06
588.553	83.06
588.762	80.06
588.972	102.06
589.182	111.06
589.392	98.06
589.602	88.06
589.812	101.06
590.022	89.06
590.232	82.06
590.441	82.06
590.651	78.06
590.861	79.06
591.071	85.06
591.281	93.06
591.49	80.06
591.7	91.06
591.91	85.06
592.119	77.06
592.329	84.06
592.539	98.06
592.748	96.06
592.958	69.06
593.167	85.06
593.377	89.06
593.587	85.06
593.796	84.06
594.006	84.06
594.215	81.06
594.424	89.06
594.634	93.06
594.843	93.06
595.053	93.06
595.262	87.06
595.472	83.06
595.681	91.06
595.89	87.06
596.1	77.06
596.309	92.06
596.518	99.06
596.727	83.06
596.937	94.06
597.146	84.06
597.355	84.06
597.564	81.06
597.774	87.06
597.983	82.06
598.192	76.06
598.401	83.06
598.61	79.06
598.819	88.06
599.028	82.06
599.237	85.06
599.446	84.06
599.655	92.06
599.864	96.06
600.073	88.06
600.282	87.06
600.491	93.06
600.7	93.06
600.909	88.06
601.118	88.06
601.327	97.06
601.536	84.06
601.745	85.06
601.953	80.06
602.162	87.06
602.371	83.06
602.58	71.06
602.789	79.06
602.997	80.06
603.206	92.06
603.415	95.06
603.623	94.06
603.832	88.06
604.041	95.06
604.249	90.06
604.458	85.06
604.666	95.06
604.875	71.06
605.084	89.06
605.292	92.06
605.501	87.06
605.709	78.06
605.918	91.06
606.126	94.06
606.334	80.06
606.543	86.06
606.751	80.06
606.96	85.06
607.168	84.06
607.376	94.06
607.585	88.06
607.793	82.06
608.001	98.06
608.21	91.06
608.418	94.06
608.626	86.06
608.834	82.06
609.043	86.06
609.251	82.06
609.459	80.06
609.667	78.06
609.875	78.06
610.083	90.06
610.291	78.06
610.499	97.06
610.707	82.06
610.916	80.06
611.124	88.06
611.332	76.06
611.54	96.06
611.748	85.06
611.955	76.06
612.163	85.06
612.371	83.06
612.579	76.06
612.787	84.06
612.995	70.06
613.203	85.06
613.411	99.06
613.618	90.06
613.826	82.06
614.034	88.06
614.242	93.06
614.449	87.06
614.657	87.06
614.865	94.06
615.072	88.06
615.28	87.06
615.488	90.06
615.695	93.06
615.903	100.06
616.111	88.06
616.318	104.06
616.526	93.06
616.733	74.06
616.941	86.06
617.148	80.06
617.356	90.06
617.563	87.06
617.771	87.06
617.978	95.06
618.185	78.06
618.393	84.06
618.6	99.06
618.807	96.06
619.015	82.06
619.222	90.06
619.429	83.06
619.637	83.06
619.844	77.06
620.051	82.06
620.258	75.06
620.466	91.06
620.673	83.06
620.88	89.06
621.087	83.06
621.294	90.06
621.501	68.06
621.708	90.06
621.915	94.06
622.122	86.06
622.329	78.06
622.536	96.06
622.743	87.06
622.95	86.06
623.157	79.06
623.364	87.06
623.571	85.06
623.778	90.06
623.985	85.06
624.192	94.06
624.399	80.06
624.606	96.06
624.812	85.06
625.019	97.06
625.226	64.06
625.433	93.06
625.639	78.06
625.846	79.06
626.053	69.06
626.259	94.06
626.466	67.06
626.673	82.06
626.879	66.06
627.086	89.06
627.293	89.06
627.499	94.06
627.706	103.06
627.912	100.06
628.119	97.06
628.325	81.06
628.532	80.06
628.738	85.06
628.945	76.06
629.151	100.06
629.357	74.06
629.564	73.06
629.77	80.06
629.976	79.06
630.183	72.06
630.389	77.06
630.595	79.06
630.802	74.06
631.008	78.06
631.214	90.06
631.42	81.06
631.627	95.06
631.833	83.06
632.039	88.06
632.245	77.06
632.451	92.06
632.657	78.06
632.863	79.06
633.069	78.06
633.275	80.06
633.481	89.06
633.688	79.06
633.893	81.06
634.099	91.06
634.305	69.06
634.511	70.06
634.717	72.06
634.923	94.06
635.129	77.06
635.335	79.06
635.541	70.06
635.747	82.06
635.952	82.06
636.158	98.06
636.364	234.06
636.57	217.06
636.775	108.06
636.981	87.06
637.187	75.06
637.392	82.06
637.598	82.06
637.804	76.06
638.009	103.06
638.215	84.06
638.421	76.06
638.626	70.06
638.832	91.06
639.037	80.06
639.243	78.06
639.448	98.06
639.654	78.06
639.859	77.06
640.065	77.06
640.27	88.06
640.475	77.06
640.681	82.06
640.886	82.06
641.091	83.06
641.297	79.06
641.502	67.06
641.707	94.06
641.913	81.06
642.118	95.06
642.323	81.06
642.528	86.06
642.733	65.06
642.939	90.06
643.144	102.06
643.349	78.06
643.554	84.06
643.759	72.06
643.964	86.06
644.169	83.06
644.374	98.06
644.579	91.06
644.784	88.06
644.989	88.06
645.194	74.06
645.399	85.06
645.604	80.06
645.809	80.06
646.014	88.06
646.219	98.06
646.423	84.06
646.628	77.06
646.833	83.06
647.038	89.06
647.243	88.06
647.447	94.06
647.652	78.06
647.857	82.06
648.062	92.06
648.266	82.06
648.471	86.06
648.676	93.06
648.88	92.06
649.085	85.06
649.289	74.06
649.494	112.06
649.698	147.06
649.903	116.06
650.107	82.06
650.312	80.06
650.516	93.06
650.721	81.06
650.925	77.06
651.13	82.06
651.334	83.06
651.539	87.06
651.743	95.06
651.947	91.06
652.152	89.06
652.356	84.06
652.56	93.06
652.764	76.06
652.969	98.06
653.173	89.06
653.377	85.06
653.581	92.06
653.785	88.06
653.99	80.06
654.194	70.06
654.398	67.06
654.602	74.06
654.806	85.06
655.01	95.06
655.214	94.06
655.418	78.06
655.622	84.06
655.826	83.06
656.03	84.06
656.234	95.06
656.438	86.06
656.642	86.06
656.846	90.06
657.049	93.06
657.253	77.06
657.457	82.06
657.661	67.06
657.865	80.06
658.068	90.06
658.272	86.06
658.476	82.06
658.68	75.06
658.883	68.06
659.087	96.06
659.291	83.06
659.494	75.06
659.698	86.06
659.901	82.06
660.105	64.06
660.309	63.06
660.512	72.06
660.716	79.06
660.919	80.06
661.123	84.06
661.326	79.06
661.53	93.06
661.733	80.06
661.936	76.06
662.14	80.06
662.343	81.06
662.546	69.06
662.75	76.06
662.953	74.06
663.156	69.06
663.36	90.06
663.563	78.06
663.766	75.06
663.969	77.06
664.173	88.06
664.376	84.06
664.579	85.06
664.782	93.06
664.985	87.06
665.188	91.06
665.391	91.06
665.594	62.06
665.797	86.06
666	73.06
666.203	76.06
666.406	79.06
666.609	79.06
666.812	79.06
667.015	88.06
667.218	90.06
667.421	84.06
667.624	80.06
667.827	89.06
668.03	71.06
668.232	77.06
668.435	67.06
668.638	80.06
668.841	78.06
669.043	79.06
669.246	72.06
669.449	78.06
669.651	83.06
669.854	79.06
670.057	88.06
670.259	78.06
670.462	68.06
670.665	79.06
670.867	95.06
671.07	89.06
671.272	81.06
671.475	62.06
671.677	76.06
671.88	86.06
672.082	86.06
672.284	86.06
672.487	85.06
672.689	63.06
672.892	85.06
