Data from BG_HRD10591_074.txt Node
Date: Fri May 16 15:14:59 EDT 2025
User: Yrep
Spectrometer: HR+D1059
Trigger mode: 1
Integration Time (sec): 1.000000E-1
Scans to average: 1
Electric dark correction enabled: true
Nonlinearity correction enabled: false
Boxcar width: 0
XAxis mode: Wavelengths
Number of Pixels in Spectrum: 2048
>>>>>Begin Spectral Data<<<<<
223.165	-22.94
223.4	-22.94
223.635	-22.94
223.869	-34.94
224.104	-11.94
224.338	-13.94
224.573	-5.94
224.808	-11.94
225.042	-4.94
225.277	-2.94
225.511	-0.94
225.746	10.06
225.98	10.06
226.215	4.06
226.449	9.06
226.683	27.06
226.918	28.06
227.152	22.06
227.387	32.06
227.621	40.06
227.856	52.06
228.09	40.06
228.324	48.06
228.559	61.06
228.793	61.06
229.027	61.06
229.262	72.06
229.496	64.06
229.73	66.06
229.964	57.06
230.199	78.06
230.433	70.06
230.667	81.06
230.901	81.06
231.136	88.06
231.37	63.06
231.604	73.06
231.838	69.06
232.072	76.06
232.306	73.06
232.541	82.06
232.775	70.06
233.009	81.06
233.243	81.06
233.477	77.06
233.711	83.06
233.945	80.06
234.179	80.06
234.413	79.06
234.647	62.06
234.881	86.06
235.115	93.06
235.349	88.06
235.583	96.06
235.817	71.06
236.051	70.06
236.285	74.06
236.519	81.06
236.753	81.06
236.987	78.06
237.221	92.06
237.455	71.06
237.689	63.06
237.922	65.06
238.156	75.06
238.39	68.06
238.624	78.06
238.858	74.06
239.091	74.06
239.325	70.06
239.559	80.06
239.793	76.06
240.027	84.06
240.26	66.06
240.494	83.06
240.728	81.06
240.961	74.06
241.195	78.06
241.429	73.06
241.662	60.06
241.896	53.06
242.13	74.06
242.363	72.06
242.597	65.06
242.83	78.06
243.064	76.06
243.298	79.06
243.531	69.06
243.765	72.06
243.998	77.06
244.232	82.06
244.465	70.06
244.699	74.06
244.932	63.06
245.166	99.06
245.399	77.06
245.633	71.06
245.866	73.06
246.099	72.06
246.333	77.06
246.566	74.06
246.8	75.06
247.033	82.06
247.266	74.06
247.5	62.06
247.733	70.06
247.966	88.06
248.2	77.06
248.433	72.06
248.666	76.06
248.899	81.06
249.133	84.06
249.366	68.06
249.599	94.06
249.832	80.06
250.066	92.06
250.299	68.06
250.532	79.06
250.765	69.06
250.998	70.06
251.231	81.06
251.465	68.06
251.698	72.06
251.931	66.06
252.164	68.06
252.397	69.06
252.63	68.06
252.863	78.06
253.096	83.06
253.329	73.06
253.562	72.06
253.795	80.06
254.028	90.06
254.261	77.06
254.494	74.06
254.727	77.06
254.96	75.06
255.193	85.06
255.426	87.06
255.659	62.06
255.892	83.06
256.124	78.06
256.357	76.06
256.59	72.06
256.823	71.06
257.056	74.06
257.289	84.06
257.521	73.06
257.754	87.06
257.987	92.06
258.22	80.06
258.452	87.06
258.685	78.06
258.918	85.06
259.151	68.06
259.383	88.06
259.616	68.06
259.849	89.06
260.081	90.06
260.314	68.06
260.547	82.06
260.779	73.06
261.012	82.06
261.244	83.06
261.477	83.06
261.71	72.06
261.942	56.06
262.175	79.06
262.407	85.06
262.64	77.06
262.872	77.06
263.105	67.06
263.337	88.06
263.57	82.06
263.802	73.06
264.035	71.06
264.267	80.06
264.499	73.06
264.732	68.06
264.964	75.06
265.197	69.06
265.429	88.06
265.661	80.06
265.894	84.06
266.126	101.06
266.358	80.06
266.591	85.06
266.823	67.06
267.055	68.06
267.287	73.06
267.52	77.06
267.752	72.06
267.984	69.06
268.216	62.06
268.448	89.06
268.681	93.06
268.913	80.06
269.145	76.06
269.377	71.06
269.609	76.06
269.841	91.06
270.073	74.06
270.306	76.06
270.538	91.06
270.77	80.06
271.002	84.06
271.234	88.06
271.466	78.06
271.698	92.06
271.93	91.06
272.162	82.06
272.394	75.06
272.626	64.06
272.858	79.06
273.09	76.06
273.322	81.06
273.553	63.06
273.785	81.06
274.017	70.06
274.249	76.06
274.481	68.06
274.713	83.06
274.945	78.06
275.176	74.06
275.408	75.06
275.64	77.06
275.872	89.06
276.104	80.06
276.335	71.06
276.567	88.06
276.799	76.06
277.031	90.06
277.262	80.06
277.494	68.06
277.726	89.06
277.957	80.06
278.189	76.06
278.421	83.06
278.652	79.06
278.884	79.06
279.115	76.06
279.347	70.06
279.579	75.06
279.81	80.06
280.042	84.06
280.273	86.06
280.505	90.06
280.736	82.06
280.968	84.06
281.199	91.06
281.431	83.06
281.662	78.06
281.894	82.06
282.125	74.06
282.356	73.06
282.588	79.06
282.819	88.06
283.051	76.06
283.282	79.06
283.513	86.06
283.745	84.06
283.976	85.06
284.207	99.06
284.439	88.06
284.67	99.06
284.901	75.06
285.132	70.06
285.364	73.06
285.595	85.06
285.826	78.06
286.057	70.06
286.288	89.06
286.52	76.06
286.751	77.06
286.982	73.06
287.213	69.06
287.444	75.06
287.675	80.06
287.906	92.06
288.138	83.06
288.369	74.06
288.6	64.06
288.831	91.06
289.062	82.06
289.293	79.06
289.524	86.06
289.755	78.06
289.986	78.06
290.217	73.06
290.448	79.06
290.679	85.06
290.91	76.06
291.141	85.06
291.371	76.06
291.602	94.06
291.833	73.06
292.064	71.06
292.295	83.06
292.526	84.06
292.757	76.06
292.987	75.06
293.218	80.06
293.449	91.06
293.68	74.06
293.91	84.06
294.141	82.06
294.372	83.06
294.603	82.06
294.833	91.06
295.064	67.06
295.295	88.06
295.525	82.06
295.756	81.06
295.987	84.06
296.217	81.06
296.448	69.06
296.679	79.06
296.909	104.06
297.14	75.06
297.37	81.06
297.601	73.06
297.831	80.06
298.062	90.06
298.292	72.06
298.523	79.06
298.753	82.06
298.984	80.06
299.214	91.06
299.445	84.06
299.675	83.06
299.905	80.06
300.136	91.06
300.366	75.06
300.597	85.06
300.827	80.06
301.057	73.06
301.288	77.06
301.518	93.06
301.748	94.06
301.979	89.06
302.209	76.06
302.439	77.06
302.669	92.06
302.9	78.06
303.13	84.06
303.36	73.06
303.59	90.06
303.82	73.06
304.051	87.06
304.281	84.06
304.511	81.06
304.741	82.06
304.971	102.06
305.201	81.06
305.431	77.06
305.661	86.06
305.891	76.06
306.121	80.06
306.352	80.06
306.582	75.06
306.812	79.06
307.042	92.06
307.272	89.06
307.502	68.06
307.731	84.06
307.961	91.06
308.191	81.06
308.421	84.06
308.651	96.06
308.881	68.06
309.111	78.06
309.341	96.06
309.571	81.06
309.8	86.06
310.03	89.06
310.26	79.06
310.49	91.06
310.72	81.06
310.949	82.06
311.179	78.06
311.409	76.06
311.639	81.06
311.868	88.06
312.098	90.06
312.328	76.06
312.557	80.06
312.787	84.06
313.017	90.06
313.246	85.06
313.476	80.06
313.706	80.06
313.935	84.06
314.165	84.06
314.394	85.06
314.624	78.06
314.853	81.06
315.083	91.06
315.312	80.06
315.542	86.06
315.771	79.06
316.001	78.06
316.23	84.06
316.46	86.06
316.689	74.06
316.919	83.06
317.148	91.06
317.377	86.06
317.607	97.06
317.836	77.06
318.065	79.06
318.295	89.06
318.524	60.06
318.753	88.06
318.983	68.06
319.212	78.06
319.441	89.06
319.67	85.06
319.9	72.06
320.129	77.06
320.358	80.06
320.587	77.06
320.816	82.06
321.046	77.06
321.275	82.06
321.504	89.06
321.733	80.06
321.962	76.06
322.191	75.06
322.42	82.06
322.649	80.06
322.878	90.06
323.108	96.06
323.337	86.06
323.566	77.06
323.795	77.06
324.024	76.06
324.253	79.06
324.482	73.06
324.71	81.06
324.939	82.06
325.168	88.06
325.397	73.06
325.626	86.06
325.855	79.06
326.084	73.06
326.313	84.06
326.542	68.06
326.77	75.06
326.999	76.06
327.228	99.06
327.457	83.06
327.686	86.06
327.914	87.06
328.143	82.06
328.372	78.06
328.6	97.06
328.829	69.06
329.058	78.06
329.287	78.06
329.515	83.06
329.744	80.06
329.972	84.06
330.201	78.06
330.43	82.06
330.658	78.06
330.887	90.06
331.115	74.06
331.344	73.06
331.572	82.06
331.801	77.06
332.03	72.06
332.258	81.06
332.486	88.06
332.715	82.06
332.943	75.06
333.172	83.06
333.4	84.06
333.629	93.06
333.857	78.06
334.085	82.06
334.314	77.06
334.542	79.06
334.771	78.06
334.999	87.06
335.227	77.06
335.455	73.06
335.684	86.06
335.912	100.06
336.14	81.06
336.369	68.06
336.597	81.06
336.825	89.06
337.053	90.06
337.281	94.06
337.51	80.06
337.738	93.06
337.966	77.06
338.194	76.06
338.422	80.06
338.65	81.06
338.878	72.06
339.106	86.06
339.334	90.06
339.562	75.06
339.79	85.06
340.018	75.06
340.246	67.06
340.474	80.06
340.702	80.06
340.93	85.06
341.158	85.06
341.386	82.06
341.614	68.06
341.842	79.06
342.07	85.06
342.298	81.06
342.526	74.06
342.754	81.06
342.981	83.06
343.209	67.06
343.437	91.06
343.665	77.06
343.893	71.06
344.12	85.06
344.348	68.06
344.576	71.06
344.804	68.06
345.031	67.06
345.259	79.06
345.487	87.06
345.714	76.06
345.942	75.06
346.17	71.06
346.397	68.06
346.625	89.06
346.853	78.06
347.08	76.06
347.308	82.06
347.535	60.06
347.763	101.06
347.99	96.06
348.218	80.06
348.445	85.06
348.673	82.06
348.9	77.06
349.128	98.06
349.355	70.06
349.583	79.06
349.81	76.06
350.037	80.06
350.265	64.06
350.492	69.06
350.72	73.06
350.947	75.06
351.174	83.06
351.402	86.06
351.629	78.06
351.856	78.06
352.083	80.06
352.311	88.06
352.538	88.06
352.765	100.06
352.992	82.06
353.22	96.06
353.447	85.06
353.674	68.06
353.901	78.06
354.128	96.06
354.355	80.06
354.583	93.06
354.81	75.06
355.037	75.06
355.264	87.06
355.491	80.06
355.718	75.06
355.945	91.06
356.172	75.06
356.399	83.06
356.626	86.06
356.853	77.06
357.08	66.06
357.307	82.06
357.534	82.06
357.761	86.06
357.988	72.06
358.215	99.06
358.441	78.06
358.668	88.06
358.895	87.06
359.122	80.06
359.349	64.06
359.576	68.06
359.802	81.06
360.029	81.06
360.256	81.06
360.483	83.06
360.709	83.06
360.936	82.06
361.163	76.06
361.39	81.06
361.616	86.06
361.843	71.06
362.07	83.06
362.296	82.06
362.523	93.06
362.749	82.06
362.976	79.06
363.203	81.06
363.429	76.06
363.656	67.06
363.882	69.06
364.109	70.06
364.335	74.06
364.562	96.06
364.788	84.06
365.015	73.06
365.241	76.06
365.468	76.06
365.694	72.06
365.92	84.06
366.147	77.06
366.373	83.06
366.599	74.06
366.826	83.06
367.052	77.06
367.278	66.06
367.505	70.06
367.731	80.06
367.957	78.06
368.184	74.06
368.41	89.06
368.636	89.06
368.862	78.06
369.089	85.06
369.315	73.06
369.541	89.06
369.767	85.06
369.993	89.06
370.219	81.06
370.445	90.06
370.672	87.06
370.898	87.06
371.124	81.06
371.35	84.06
371.576	80.06
371.802	76.06
372.028	78.06
372.254	68.06
372.48	65.06
372.706	80.06
372.932	78.06
373.158	75.06
373.384	68.06
373.61	76.06
373.835	76.06
374.061	89.06
374.287	65.06
374.513	89.06
374.739	92.06
374.965	76.06
375.191	80.06
375.416	70.06
375.642	87.06
375.868	74.06
376.094	77.06
376.319	60.06
376.545	84.06
376.771	84.06
376.997	69.06
377.222	68.06
377.448	76.06
377.674	62.06
377.899	72.06
378.125	76.06
378.35	72.06
378.576	72.06
378.802	78.06
379.027	76.06
379.253	79.06
379.478	90.06
379.704	80.06
379.929	75.06
380.155	77.06
380.38	89.06
380.606	86.06
380.831	78.06
381.057	87.06
381.282	68.06
381.507	78.06
381.733	88.06
381.958	85.06
382.184	84.06
382.409	89.06
382.634	77.06
382.86	86.06
383.085	64.06
383.31	75.06
383.535	82.06
383.761	89.06
383.986	86.06
384.211	76.06
384.436	69.06
384.662	71.06
384.887	69.06
385.112	80.06
385.337	63.06
385.562	85.06
385.787	84.06
386.013	77.06
386.238	88.06
386.463	74.06
386.688	81.06
386.913	78.06
387.138	84.06
387.363	69.06
387.588	76.06
387.813	89.06
388.038	74.06
388.263	65.06
388.488	70.06
388.713	81.06
388.938	76.06
389.163	76.06
389.387	79.06
389.612	85.06
389.837	71.06
390.062	73.06
390.287	77.06
390.512	77.06
390.736	78.06
390.961	89.06
391.186	83.06
391.411	89.06
391.636	70.06
391.86	81.06
392.085	85.06
392.31	72.06
392.534	86.06
392.759	74.06
392.984	92.06
393.208	89.06
393.433	83.06
393.658	81.06
393.882	74.06
394.107	83.06
394.331	96.06
394.556	82.06
394.78	91.06
395.005	81.06
395.229	76.06
395.454	77.06
395.678	70.06
395.903	75.06
396.127	93.06
396.352	78.06
396.576	77.06
396.801	77.06
397.025	70.06
397.249	89.06
397.474	84.06
397.698	87.06
397.922	91.06
398.147	88.06
398.371	81.06
398.595	74.06
398.82	76.06
399.044	82.06
399.268	76.06
399.492	79.06
399.717	98.06
399.941	82.06
400.165	76.06
400.389	81.06
400.613	72.06
400.837	69.06
401.062	73.06
401.286	77.06
401.51	88.06
401.734	89.06
401.958	73.06
402.182	76.06
402.406	82.06
402.63	69.06
402.854	59.06
403.078	75.06
403.302	73.06
403.526	68.06
403.75	76.06
403.974	73.06
404.198	92.06
404.422	55.06
404.645	74.06
404.869	84.06
405.093	68.06
405.317	59.06
405.541	84.06
405.765	74.06
405.988	70.06
406.212	69.06
406.436	84.06
406.66	70.06
406.883	68.06
407.107	77.06
407.331	78.06
407.555	80.06
407.778	74.06
408.002	78.06
408.226	70.06
408.449	92.06
408.673	83.06
408.896	72.06
409.12	78.06
409.344	80.06
409.567	69.06
409.791	87.06
410.014	78.06
410.238	70.06
410.461	73.06
410.685	70.06
410.908	80.06
411.132	92.06
411.355	68.06
411.578	77.06
411.802	88.06
412.025	76.06
412.249	85.06
412.472	71.06
412.695	84.06
412.919	69.06
413.142	68.06
413.365	85.06
413.589	87.06
413.812	77.06
414.035	77.06
414.258	76.06
414.482	78.06
414.705	90.06
414.928	83.06
415.151	71.06
415.374	62.06
415.597	79.06
415.821	78.06
416.044	94.06
416.267	73.06
416.49	75.06
416.713	77.06
416.936	81.06
417.159	71.06
417.382	62.06
417.605	88.06
417.828	69.06
418.051	88.06
418.274	68.06
418.497	73.06
418.72	73.06
418.943	78.06
419.166	80.06
419.389	73.06
419.611	89.06
419.834	81.06
420.057	70.06
420.28	80.06
420.503	85.06
420.726	80.06
420.948	81.06
421.171	72.06
421.394	79.06
421.617	81.06
421.839	71.06
422.062	89.06
422.285	77.06
422.507	75.06
422.73	86.06
422.953	82.06
423.175	73.06
423.398	71.06
423.621	86.06
423.843	63.06
424.066	77.06
424.288	73.06
424.511	74.06
424.733	76.06
424.956	67.06
425.178	72.06
425.401	91.06
425.623	74.06
425.846	86.06
426.068	63.06
426.291	62.06
426.513	66.06
426.735	88.06
426.958	81.06
427.18	78.06
427.402	80.06
427.625	78.06
427.847	68.06
428.069	82.06
428.292	78.06
428.514	83.06
428.736	78.06
428.958	64.06
429.181	75.06
429.403	98.06
429.625	86.06
429.847	74.06
430.069	80.06
430.292	84.06
430.514	86.06
430.736	73.06
430.958	94.06
431.18	86.06
431.402	92.06
431.624	88.06
431.846	86.06
432.068	78.06
432.29	75.06
432.512	85.06
432.734	68.06
432.956	77.06
433.178	92.06
433.4	84.06
433.622	70.06
433.844	76.06
434.066	83.06
434.287	84.06
434.509	88.06
434.731	91.06
434.953	73.06
435.175	69.06
435.397	76.06
435.618	66.06
435.84	86.06
436.062	69.06
436.284	75.06
436.505	75.06
436.727	77.06
436.949	86.06
437.17	76.06
437.392	75.06
437.614	67.06
437.835	84.06
438.057	74.06
438.278	70.06
438.5	76.06
438.721	89.06
438.943	86.06
439.165	70.06
439.386	70.06
439.608	73.06
439.829	81.06
440.05	68.06
440.272	75.06
440.493	70.06
440.715	96.06
440.936	69.06
441.158	84.06
441.379	80.06
441.6	74.06
441.822	75.06
442.043	84.06
442.264	86.06
442.486	84.06
442.707	79.06
442.928	65.06
443.149	78.06
443.371	85.06
443.592	88.06
443.813	64.06
444.034	84.06
444.255	69.06
444.476	93.06
444.698	88.06
444.919	87.06
445.14	160.06
445.361	114.06
445.582	83.06
445.803	79.06
446.024	78.06
446.245	78.06
446.466	81.06
446.687	68.06
446.908	71.06
447.129	76.06
447.35	87.06
447.571	84.06
447.792	87.06
448.013	81.06
448.234	78.06
448.455	88.06
448.675	78.06
448.896	76.06
449.117	84.06
449.338	69.06
449.559	84.06
449.779	75.06
450	79.06
450.221	88.06
450.442	68.06
450.662	77.06
450.883	68.06
451.104	79.06
451.324	84.06
451.545	62.06
451.766	79.06
451.986	73.06
452.207	81.06
452.428	82.06
452.648	77.06
452.869	86.06
453.089	70.06
453.31	81.06
453.53	80.06
453.751	74.06
453.971	75.06
454.192	69.06
454.412	73.06
454.633	78.06
454.853	64.06
455.073	73.06
455.294	81.06
455.514	76.06
455.734	82.06
455.955	71.06
456.175	68.06
456.395	66.06
456.616	72.06
456.836	80.06
457.056	78.06
457.276	80.06
457.497	69.06
457.717	83.06
457.937	77.06
458.157	74.06
458.377	65.06
458.598	64.06
458.818	73.06
459.038	68.06
459.258	66.06
459.478	76.06
459.698	73.06
459.918	82.06
460.138	69.06
460.358	64.06
460.578	87.06
460.798	81.06
461.018	76.06
461.238	87.06
461.458	78.06
461.678	85.06
461.898	74.06
462.118	71.06
462.338	73.06
462.558	77.06
462.777	78.06
462.997	85.06
463.217	81.06
463.437	70.06
463.657	80.06
463.876	81.06
464.096	84.06
464.316	67.06
464.536	76.06
464.755	82.06
464.975	81.06
465.195	86.06
465.414	88.06
465.634	82.06
465.854	80.06
466.073	88.06
466.293	62.06
466.512	74.06
466.732	84.06
466.951	72.06
467.171	89.06
467.391	62.06
467.61	69.06
467.829	78.06
468.049	77.06
468.268	71.06
468.488	65.06
468.707	82.06
468.927	78.06
469.146	76.06
469.365	88.06
469.585	79.06
469.804	69.06
470.023	85.06
470.243	72.06
470.462	76.06
470.681	74.06
470.901	76.06
471.12	76.06
471.339	84.06
471.558	80.06
471.777	75.06
471.997	62.06
472.216	86.06
472.435	78.06
472.654	82.06
472.873	78.06
473.092	83.06
473.311	73.06
473.53	89.06
473.749	80.06
473.968	86.06
474.187	86.06
474.406	66.06
474.625	75.06
474.844	73.06
475.063	97.06
475.282	85.06
475.501	90.06
475.72	74.06
475.939	84.06
476.158	83.06
476.377	76.06
476.596	74.06
476.814	85.06
477.033	80.06
477.252	75.06
477.471	76.06
477.69	67.06
477.908	91.06
478.127	68.06
478.346	83.06
478.564	64.06
478.783	81.06
479.002	77.06
479.22	76.06
479.439	74.06
479.658	83.06
479.876	70.06
480.095	77.06
480.313	78.06
480.532	77.06
480.751	82.06
480.969	73.06
481.188	98.06
481.406	85.06
481.624	64.06
481.843	72.06
482.061	78.06
482.28	76.06
482.498	62.06
482.717	66.06
482.935	72.06
483.153	80.06
483.372	85.06
483.59	70.06
483.808	70.06
484.027	82.06
484.245	84.06
484.463	76.06
484.681	89.06
484.9	76.06
485.118	71.06
485.336	84.06
485.554	69.06
485.772	84.06
485.99	86.06
486.209	67.06
486.427	73.06
486.645	86.06
486.863	82.06
487.081	76.06
487.299	76.06
487.517	85.06
487.735	83.06
487.953	60.06
488.171	82.06
488.389	87.06
488.607	82.06
488.825	79.06
489.043	74.06
489.261	90.06
489.479	89.06
489.696	86.06
489.914	78.06
490.132	80.06
490.35	84.06
490.568	73.06
490.786	72.06
491.003	81.06
491.221	66.06
491.439	76.06
491.657	84.06
491.874	88.06
492.092	82.06
492.31	100.06
492.527	85.06
492.745	70.06
492.963	83.06
493.18	74.06
493.398	78.06
493.615	84.06
493.833	89.06
494.05	87.06
494.268	90.06
494.485	86.06
494.703	93.06
494.92	81.06
495.138	83.06
495.355	69.06
495.573	84.06
495.79	75.06
496.008	76.06
496.225	84.06
496.442	73.06
496.66	85.06
496.877	73.06
497.094	82.06
497.312	83.06
497.529	84.06
497.746	77.06
497.963	77.06
498.181	83.06
498.398	84.06
498.615	80.06
498.832	78.06
499.049	85.06
499.267	76.06
499.484	80.06
499.701	73.06
499.918	90.06
500.135	78.06
500.352	86.06
500.569	76.06
500.786	62.06
501.003	77.06
501.22	69.06
501.437	79.06
501.654	82.06
501.871	70.06
502.088	75.06
502.305	77.06
502.522	69.06
502.739	70.06
502.956	93.06
503.172	75.06
503.389	81.06
503.606	94.06
503.823	82.06
504.04	82.06
504.256	76.06
504.473	75.06
504.69	69.06
504.907	74.06
505.123	70.06
505.34	85.06
505.557	77.06
505.773	81.06
505.99	86.06
506.207	81.06
506.423	92.06
506.64	71.06
506.856	79.06
507.073	73.06
507.289	68.06
507.506	72.06
507.722	69.06
507.939	91.06
508.155	87.06
508.372	76.06
508.588	82.06
508.805	88.06
509.021	78.06
509.238	93.06
509.454	89.06
509.67	72.06
509.887	82.06
510.103	83.06
510.319	90.06
510.536	84.06
510.752	73.06
510.968	71.06
511.184	60.06
511.401	84.06
511.617	75.06
511.833	83.06
512.049	77.06
512.265	72.06
512.481	72.06
512.698	77.06
512.914	58.06
513.13	74.06
513.346	75.06
513.562	98.06
513.778	89.06
513.994	78.06
514.21	83.06
514.426	81.06
514.642	71.06
514.858	90.06
515.074	90.06
515.29	80.06
515.506	82.06
515.721	82.06
515.937	71.06
516.153	68.06
516.369	88.06
516.585	92.06
516.801	76.06
517.016	74.06
517.232	74.06
517.448	67.06
517.664	83.06
517.879	80.06
518.095	88.06
518.311	66.06
518.527	81.06
518.742	83.06
518.958	61.06
519.173	80.06
519.389	69.06
519.605	79.06
519.82	82.06
520.036	85.06
520.251	73.06
520.467	63.06
520.682	83.06
520.898	68.06
521.113	82.06
521.329	86.06
521.544	76.06
521.76	82.06
521.975	67.06
522.19	68.06
522.406	76.06
522.621	74.06
522.836	74.06
523.052	72.06
523.267	76.06
523.482	75.06
523.698	78.06
523.913	70.06
524.128	81.06
524.343	93.06
524.559	79.06
524.774	75.06
524.989	89.06
525.204	78.06
525.419	90.06
525.634	70.06
525.849	76.06
526.064	80.06
526.28	86.06
526.495	76.06
526.71	83.06
526.925	74.06
527.14	76.06
527.355	90.06
527.57	84.06
527.785	75.06
527.999	78.06
528.214	73.06
528.429	77.06
528.644	67.06
528.859	82.06
529.074	85.06
529.289	81.06
529.503	73.06
529.718	93.06
529.933	81.06
530.148	87.06
530.363	79.06
530.577	72.06
530.792	76.06
531.007	75.06
531.221	94.06
531.436	89.06
531.651	76.06
531.865	84.06
532.08	84.06
532.295	87.06
532.509	81.06
532.724	75.06
532.938	86.06
533.153	66.06
533.367	85.06
533.582	96.06
533.796	91.06
534.011	88.06
534.225	76.06
534.44	86.06
534.654	66.06
534.868	80.06
535.083	92.06
535.297	97.06
535.511	76.06
535.726	69.06
535.94	77.06
536.154	89.06
536.369	74.06
536.583	92.06
536.797	90.06
537.011	81.06
537.225	97.06
537.44	81.06
537.654	79.06
537.868	81.06
538.082	84.06
538.296	77.06
538.51	81.06
538.724	88.06
538.938	82.06
539.153	82.06
539.367	75.06
539.581	77.06
539.795	76.06
540.009	79.06
540.222	83.06
540.436	94.06
540.65	86.06
540.864	78.06
541.078	77.06
541.292	76.06
541.506	77.06
541.72	83.06
541.934	84.06
542.147	65.06
542.361	89.06
542.575	84.06
542.789	80.06
543.002	79.06
543.216	91.06
543.43	69.06
543.644	82.06
543.857	83.06
544.071	88.06
544.285	84.06
544.498	96.06
544.712	66.06
544.925	81.06
545.139	88.06
545.352	88.06
545.566	78.06
545.779	82.06
545.993	78.06
546.206	86.06
546.42	84.06
546.633	59.06
546.847	98.06
547.06	85.06
547.274	82.06
547.487	85.06
547.7	73.06
547.914	76.06
548.127	81.06
548.34	78.06
548.554	86.06
548.767	73.06
548.98	85.06
549.193	76.06
549.407	76.06
549.62	81.06
549.833	86.06
550.046	75.06
550.259	78.06
550.473	84.06
550.686	88.06
550.899	65.06
551.112	83.06
551.325	83.06
551.538	59.06
551.751	77.06
551.964	82.06
552.177	88.06
552.39	88.06
552.603	83.06
552.816	82.06
553.029	83.06
553.242	86.06
553.455	78.06
553.667	83.06
553.88	78.06
554.093	83.06
554.306	82.06
554.519	76.06
554.732	84.06
554.944	71.06
555.157	73.06
555.37	81.06
555.583	89.06
555.795	87.06
556.008	90.06
556.221	80.06
556.433	78.06
556.646	71.06
556.859	86.06
557.071	84.06
557.284	90.06
557.496	97.06
557.709	79.06
557.921	87.06
558.134	89.06
558.346	63.06
558.559	85.06
558.771	72.06
558.984	86.06
559.196	80.06
559.409	85.06
559.621	84.06
559.833	88.06
560.046	94.06
560.258	73.06
560.47	87.06
560.683	76.06
560.895	84.06
561.107	83.06
561.32	79.06
561.532	87.06
561.744	78.06
561.956	88.06
562.168	85.06
562.381	57.06
562.593	97.06
562.805	86.06
563.017	80.06
563.229	72.06
563.441	89.06
563.653	89.06
563.865	77.06
564.077	69.06
564.289	80.06
564.501	84.06
564.713	88.06
564.925	100.06
565.137	75.06
565.349	88.06
565.561	79.06
565.773	80.06
565.985	89.06
566.197	87.06
566.408	76.06
566.62	76.06
566.832	82.06
567.044	96.06
567.255	83.06
567.467	68.06
567.679	86.06
567.891	70.06
568.102	79.06
568.314	76.06
568.526	80.06
568.737	82.06
568.949	76.06
569.161	78.06
569.372	86.06
569.584	93.06
569.795	81.06
570.007	83.06
570.218	85.06
570.43	86.06
570.641	83.06
570.853	84.06
571.064	75.06
571.276	77.06
571.487	88.06
571.698	56.06
571.91	81.06
572.121	88.06
572.333	70.06
572.544	65.06
572.755	78.06
572.966	85.06
573.178	93.06
573.389	82.06
573.6	62.06
573.811	70.06
574.023	88.06
574.234	76.06
574.445	89.06
574.656	85.06
574.867	83.06
575.078	82.06
575.289	70.06
575.501	102.06
575.712	77.06
575.923	80.06
576.134	77.06
576.345	80.06
576.556	62.06
576.767	88.06
576.978	68.06
577.188	83.06
577.399	85.06
577.61	84.06
577.821	73.06
578.032	101.06
578.243	80.06
578.454	74.06
578.665	86.06
578.875	86.06
579.086	98.06
579.297	69.06
579.508	90.06
579.718	76.06
579.929	89.06
580.14	80.06
580.35	92.06
580.561	83.06
580.772	69.06
580.982	73.06
581.193	80.06
581.403	70.06
581.614	87.06
581.825	78.06
582.035	74.06
582.246	88.06
582.456	84.06
582.667	78.06
582.877	70.06
583.087	88.06
583.298	78.06
583.508	86.06
583.719	79.06
583.929	90.06
584.139	89.06
584.35	77.06
584.56	76.06
584.77	71.06
584.981	80.06
585.191	81.06
585.401	91.06
585.611	90.06
585.821	73.06
586.032	78.06
586.242	80.06
586.452	84.06
586.662	74.06
586.872	90.06
587.082	82.06
587.292	80.06
587.502	78.06
587.713	90.06
587.923	73.06
588.133	80.06
588.343	76.06
588.553	75.06
588.762	85.06
588.972	83.06
589.182	73.06
589.392	79.06
589.602	66.06
589.812	81.06
590.022	62.06
590.232	86.06
590.441	83.06
590.651	86.06
590.861	72.06
591.071	85.06
591.281	89.06
591.49	94.06
591.7	67.06
591.91	70.06
592.119	77.06
592.329	86.06
592.539	84.06
592.748	83.06
592.958	75.06
593.167	84.06
593.377	81.06
593.587	82.06
593.796	94.06
594.006	73.06
594.215	84.06
594.424	80.06
594.634	85.06
594.843	92.06
595.053	74.06
595.262	84.06
595.472	90.06
595.681	89.06
595.89	84.06
596.1	83.06
596.309	79.06
596.518	85.06
596.727	82.06
596.937	89.06
597.146	88.06
597.355	77.06
597.564	79.06
597.774	77.06
597.983	76.06
598.192	93.06
598.401	87.06
598.61	80.06
598.819	89.06
599.028	78.06
599.237	96.06
599.446	79.06
599.655	91.06
599.864	74.06
600.073	81.06
600.282	86.06
600.491	77.06
600.7	80.06
600.909	68.06
601.118	90.06
601.327	87.06
601.536	86.06
601.745	81.06
601.953	89.06
602.162	79.06
602.371	83.06
602.58	90.06
602.789	106.06
602.997	76.06
603.206	98.06
603.415	65.06
603.623	80.06
603.832	81.06
604.041	87.06
604.249	75.06
604.458	77.06
604.666	85.06
604.875	89.06
605.084	74.06
605.292	77.06
605.501	87.06
605.709	80.06
605.918	84.06
606.126	81.06
606.334	81.06
606.543	87.06
606.751	82.06
606.96	77.06
607.168	86.06
607.376	75.06
607.585	96.06
607.793	77.06
608.001	84.06
608.21	74.06
608.418	70.06
608.626	84.06
608.834	90.06
609.043	77.06
609.251	71.06
609.459	71.06
609.667	77.06
609.875	84.06
610.083	69.06
610.291	70.06
610.499	80.06
610.707	90.06
610.916	74.06
611.124	78.06
611.332	77.06
611.54	81.06
611.748	88.06
611.955	75.06
612.163	80.06
612.371	90.06
612.579	82.06
612.787	84.06
612.995	86.06
613.203	78.06
613.411	82.06
613.618	90.06
613.826	68.06
614.034	74.06
614.242	85.06
614.449	80.06
614.657	89.06
614.865	85.06
615.072	71.06
615.28	91.06
615.488	81.06
615.695	81.06
615.903	84.06
616.111	79.06
616.318	98.06
616.526	80.06
616.733	86.06
616.941	92.06
617.148	88.06
617.356	71.06
617.563	88.06
617.771	70.06
617.978	72.06
618.185	83.06
618.393	92.06
618.6	91.06
618.807	93.06
619.015	71.06
619.222	75.06
619.429	70.06
619.637	86.06
619.844	72.06
620.051	88.06
620.258	82.06
620.466	76.06
620.673	87.06
620.88	77.06
621.087	80.06
621.294	87.06
621.501	77.06
621.708	74.06
621.915	85.06
622.122	76.06
622.329	77.06
622.536	82.06
622.743	72.06
622.95	90.06
623.157	94.06
623.364	90.06
623.571	86.06
623.778	82.06
623.985	81.06
624.192	79.06
624.399	77.06
624.606	91.06
624.812	78.06
625.019	77.06
625.226	85.06
625.433	68.06
625.639	88.06
625.846	77.06
626.053	68.06
626.259	84.06
626.466	84.06
626.673	86.06
626.879	77.06
627.086	76.06
627.293	73.06
627.499	83.06
627.706	85.06
627.912	89.06
628.119	82.06
628.325	91.06
628.532	93.06
628.738	78.06
628.945	87.06
629.151	76.06
629.357	70.06
629.564	66.06
629.77	74.06
629.976	72.06
630.183	76.06
630.389	81.06
630.595	89.06
630.802	94.06
631.008	80.06
631.214	79.06
631.42	88.06
631.627	83.06
631.833	80.06
632.039	89.06
632.245	85.06
632.451	86.06
632.657	75.06
632.863	90.06
633.069	85.06
633.275	87.06
633.481	66.06
633.688	84.06
633.893	84.06
634.099	72.06
634.305	87.06
634.511	90.06
634.717	63.06
634.923	83.06
635.129	68.06
635.335	78.06
635.541	77.06
635.747	77.06
635.952	75.06
636.158	89.06
636.364	69.06
636.57	82.06
636.775	87.06
636.981	72.06
637.187	87.06
637.392	83.06
637.598	85.06
637.804	83.06
638.009	73.06
638.215	72.06
638.421	64.06
638.626	84.06
638.832	75.06
639.037	67.06
639.243	81.06
639.448	87.06
639.654	82.06
639.859	72.06
640.065	68.06
640.27	77.06
640.475	80.06
640.681	73.06
640.886	76.06
641.091	90.06
641.297	102.06
641.502	85.06
641.707	79.06
641.913	84.06
642.118	83.06
642.323	79.06
642.528	90.06
642.733	74.06
642.939	94.06
643.144	85.06
643.349	54.06
643.554	97.06
643.759	94.06
643.964	76.06
644.169	78.06
644.374	86.06
644.579	81.06
644.784	72.06
644.989	92.06
645.194	74.06
645.399	86.06
645.604	93.06
645.809	89.06
646.014	92.06
646.219	89.06
646.423	76.06
646.628	90.06
646.833	94.06
647.038	75.06
647.243	74.06
647.447	88.06
647.652	84.06
647.857	83.06
648.062	78.06
648.266	80.06
648.471	92.06
648.676	73.06
648.88	56.06
649.085	72.06
649.289	68.06
649.494	84.06
649.698	81.06
649.903	77.06
650.107	84.06
650.312	88.06
650.516	87.06
650.721	85.06
650.925	89.06
651.13	72.06
651.334	82.06
651.539	84.06
651.743	86.06
651.947	96.06
652.152	81.06
652.356	89.06
652.56	77.06
652.764	74.06
652.969	81.06
653.173	72.06
653.377	84.06
653.581	73.06
653.785	84.06
653.99	88.06
654.194	77.06
654.398	75.06
654.602	63.06
654.806	78.06
655.01	84.06
655.214	73.06
655.418	77.06
655.622	74.06
655.826	77.06
656.03	83.06
656.234	82.06
656.438	75.06
656.642	82.06
656.846	77.06
657.049	62.06
657.253	73.06
657.457	83.06
657.661	71.06
657.865	88.06
658.068	84.06
658.272	85.06
658.476	83.06
658.68	88.06
658.883	84.06
659.087	84.06
659.291	86.06
659.494	87.06
659.698	89.06
659.901	84.06
660.105	71.06
660.309	86.06
660.512	82.06
660.716	75.06
660.919	85.06
661.123	88.06
661.326	83.06
661.53	80.06
661.733	82.06
661.936	77.06
662.14	75.06
662.343	70.06
662.546	82.06
662.75	86.06
662.953	75.06
663.156	92.06
663.36	76.06
663.563	86.06
663.766	82.06
663.969	92.06
664.173	88.06
664.376	68.06
664.579	83.06
664.782	75.06
664.985	85.06
665.188	74.06
665.391	68.06
665.594	84.06
665.797	76.06
666	84.06
666.203	84.06
666.406	80.06
666.609	85.06
666.812	79.06
667.015	84.06
667.218	78.06
667.421	81.06
667.624	82.06
667.827	93.06
668.03	80.06
668.232	89.06
668.435	93.06
668.638	84.06
668.841	82.06
669.043	80.06
669.246	74.06
669.449	58.06
669.651	77.06
669.854	73.06
670.057	75.06
670.259	76.06
670.462	89.06
670.665	92.06
670.867	77.06
671.07	78.06
671.272	90.06
671.475	76.06
671.677	76.06
671.88	74.06
672.082	84.06
672.284	77.06
672.487	87.06
672.689	76.06
672.892	64.06
