Data from Uncirc_1983_H10_HRD10591_00047.txt Node
Date: Wed Jan 03 12:25:41 EST 2024
User: Yrep
Spectrometer: HR+D1059
Trigger mode: 1
Integration Time (sec): 1.000000E-1
Scans to average: 1
Electric dark correction enabled: true
Nonlinearity correction enabled: false
Boxcar width: 0
XAxis mode: Wavelengths
Number of Pixels in Spectrum: 2048
>>>>>Begin Spectral Data<<<<<
223.165	-24.06
223.4	-24.06
223.635	-24.06
223.869	-13.06
224.104	-20.06
224.338	-19.06
224.573	-6.06
224.808	-17.06
225.042	-5.06
225.277	-12.06
225.511	6.94
225.746	6.94
225.98	5.94
226.215	15.94
226.449	0.94
226.683	14.94
226.918	21.94
227.152	42.94
227.387	26.94
227.621	36.94
227.856	39.94
228.09	53.94
228.324	45.94
228.559	56.94
228.793	47.94
229.027	56.94
229.262	74.94
229.496	75.94
229.73	69.94
229.964	68.94
230.199	59.94
230.433	66.94
230.667	79.94
230.901	73.94
231.136	73.94
231.37	80.94
231.604	75.94
231.838	85.94
232.072	64.94
232.306	80.94
232.541	82.94
232.775	85.94
233.009	90.94
233.243	73.94
233.477	71.94
233.711	90.94
233.945	87.94
234.179	76.94
234.413	89.94
234.647	72.94
234.881	78.94
235.115	85.94
235.349	75.94
235.583	72.94
235.817	78.94
236.051	72.94
236.285	78.94
236.519	70.94
236.753	71.94
236.987	66.94
237.221	80.94
237.455	82.94
237.689	78.94
237.922	75.94
238.156	66.94
238.39	62.94
238.624	74.94
238.858	79.94
239.091	86.94
239.325	79.94
239.559	72.94
239.793	78.94
240.027	78.94
240.26	80.94
240.494	79.94
240.728	75.94
240.961	73.94
241.195	79.94
241.429	67.94
241.662	82.94
241.896	80.94
242.13	68.94
242.363	89.94
242.597	63.94
242.83	68.94
243.064	72.94
243.298	76.94
243.531	76.94
243.765	95.94
243.998	76.94
244.232	74.94
244.465	85.94
244.699	73.94
244.932	79.94
245.166	75.94
245.399	58.94
245.633	76.94
245.866	79.94
246.099	78.94
246.333	81.94
246.566	88.94
246.8	94.94
247.033	86.94
247.266	87.94
247.5	76.94
247.733	75.94
247.966	76.94
248.2	66.94
248.433	73.94
248.666	94.94
248.899	94.94
249.133	75.94
249.366	91.94
249.599	82.94
249.832	88.94
250.066	91.94
250.299	81.94
250.532	74.94
250.765	78.94
250.998	89.94
251.231	79.94
251.465	74.94
251.698	80.94
251.931	74.94
252.164	88.94
252.397	73.94
252.63	76.94
252.863	76.94
253.096	74.94
253.329	87.94
253.562	66.94
253.795	78.94
254.028	86.94
254.261	90.94
254.494	76.94
254.727	80.94
254.96	80.94
255.193	59.94
255.426	94.94
255.659	67.94
255.892	87.94
256.124	85.94
256.357	82.94
256.59	86.94
256.823	79.94
257.056	83.94
257.289	94.94
257.521	90.94
257.754	70.94
257.987	65.94
258.22	66.94
258.452	74.94
258.685	99.94
258.918	74.94
259.151	72.94
259.383	83.94
259.616	81.94
259.849	96.94
260.081	78.94
260.314	81.94
260.547	85.94
260.779	88.94
261.012	59.94
261.244	60.94
261.477	76.94
261.71	99.94
261.942	106.94
262.175	130.94
262.407	91.94
262.64	74.94
262.872	78.94
263.105	78.94
263.337	78.94
263.57	83.94
263.802	68.94
264.035	98.94
264.267	73.94
264.499	75.94
264.732	90.94
264.964	86.94
265.197	88.94
265.429	91.94
265.661	73.94
265.894	86.94
266.126	92.94
266.358	94.94
266.591	88.94
266.823	83.94
267.055	88.94
267.287	73.94
267.52	83.94
267.752	72.94
267.984	58.94
268.216	95.94
268.448	97.94
268.681	77.94
268.913	89.94
269.145	84.94
269.377	82.94
269.609	76.94
269.841	76.94
270.073	88.94
270.306	98.94
270.538	78.94
270.77	71.94
271.002	80.94
271.234	95.94
271.466	86.94
271.698	81.94
271.93	81.94
272.162	79.94
272.394	86.94
272.626	76.94
272.858	94.94
273.09	93.94
273.322	78.94
273.553	87.94
273.785	73.94
274.017	74.94
274.249	74.94
274.481	96.94
274.713	91.94
274.945	73.94
275.176	90.94
275.408	105.94
275.64	78.94
275.872	90.94
276.104	80.94
276.335	95.94
276.567	90.94
276.799	105.94
277.031	98.94
277.262	79.94
277.494	83.94
277.726	80.94
277.957	74.94
278.189	91.94
278.421	82.94
278.652	80.94
278.884	98.94
279.115	102.94
279.347	84.94
279.579	73.94
279.81	79.94
280.042	84.94
280.273	96.94
280.505	103.94
280.736	78.94
280.968	80.94
281.199	101.94
281.431	82.94
281.662	95.94
281.894	86.94
282.125	98.94
282.356	119.94
282.588	132.94
282.819	87.94
283.051	90.94
283.282	84.94
283.513	84.94
283.745	95.94
283.976	88.94
284.207	82.94
284.439	87.94
284.67	93.94
284.901	78.94
285.132	91.94
285.364	90.94
285.595	87.94
285.826	78.94
286.057	84.94
286.288	79.94
286.52	83.94
286.751	80.94
286.982	88.94
287.213	95.94
287.444	96.94
287.675	79.94
287.906	86.94
288.138	77.94
288.369	81.94
288.6	81.94
288.831	84.94
289.062	85.94
289.293	76.94
289.524	72.94
289.755	85.94
289.986	80.94
290.217	101.94
290.448	74.94
290.679	80.94
290.91	97.94
291.141	88.94
291.371	91.94
291.602	79.94
291.833	72.94
292.064	88.94
292.295	81.94
292.526	93.94
292.757	83.94
292.987	79.94
293.218	80.94
293.449	78.94
293.68	81.94
293.91	75.94
294.141	80.94
294.372	85.94
294.603	81.94
294.833	94.94
295.064	96.94
295.295	86.94
295.525	100.94
295.756	97.94
295.987	115.94
296.217	116.94
296.448	125.94
296.679	78.94
296.909	102.94
297.14	98.94
297.37	86.94
297.601	76.94
297.831	85.94
298.062	86.94
298.292	94.94
298.523	88.94
298.753	83.94
298.984	75.94
299.214	95.94
299.445	109.94
299.675	92.94
299.905	101.94
300.136	85.94
300.366	76.94
300.597	95.94
300.827	93.94
301.057	103.94
301.288	96.94
301.518	86.94
301.748	83.94
301.979	91.94
302.209	86.94
302.439	88.94
302.669	102.94
302.9	82.94
303.13	97.94
303.36	95.94
303.59	95.94
303.82	113.94
304.051	113.94
304.281	87.94
304.511	84.94
304.741	92.94
304.971	71.94
305.201	100.94
305.431	98.94
305.661	95.94
305.891	74.94
306.121	92.94
306.352	94.94
306.582	95.94
306.812	82.94
307.042	81.94
307.272	87.94
307.502	95.94
307.731	87.94
307.961	92.94
308.191	96.94
308.421	91.94
308.651	84.94
308.881	84.94
309.111	107.94
309.341	97.94
309.571	107.94
309.8	89.94
310.03	90.94
310.26	97.94
310.49	84.94
310.72	92.94
310.949	101.94
311.179	96.94
311.409	98.94
311.639	100.94
311.868	98.94
312.098	84.94
312.328	94.94
312.557	90.94
312.787	116.94
313.017	103.94
313.246	98.94
313.476	95.94
313.706	100.94
313.935	94.94
314.165	94.94
314.394	101.94
314.624	104.94
314.853	100.94
315.083	94.94
315.312	100.94
315.542	75.94
315.771	95.94
316.001	91.94
316.23	100.94
316.46	91.94
316.689	94.94
316.919	87.94
317.148	82.94
317.377	93.94
317.607	96.94
317.836	89.94
318.065	106.94
318.295	94.94
318.524	93.94
318.753	87.94
318.983	102.94
319.212	111.94
319.441	113.94
319.67	107.94
319.9	91.94
320.129	86.94
320.358	100.94
320.587	81.94
320.816	103.94
321.046	104.94
321.275	92.94
321.504	98.94
321.733	93.94
321.962	96.94
322.191	102.94
322.42	92.94
322.649	115.94
322.878	112.94
323.108	111.94
323.337	117.94
323.566	134.94
323.795	157.94
324.024	198.94
324.253	379.94
324.482	840.94
324.71	1745.94
324.939	2268.94
325.168	820.94
325.397	235.94
325.626	142.94
325.855	119.94
326.084	121.94
326.313	136.94
326.542	150.94
326.77	230.94
326.999	464.94
327.228	940.94
327.457	1714.94
327.686	1369.94
327.914	356.94
328.143	191.94
328.372	152.94
328.6	110.94
328.829	100.94
329.058	124.94
329.287	122.94
329.515	105.94
329.744	119.94
329.972	92.94
330.201	101.94
330.43	122.94
330.658	121.94
330.887	128.94
331.115	124.94
331.344	95.94
331.572	104.94
331.801	106.94
332.03	96.94
332.258	100.94
332.486	96.94
332.715	87.94
332.943	94.94
333.172	93.94
333.4	94.94
333.629	96.94
333.857	113.94
334.085	114.94
334.314	105.94
334.542	115.94
334.771	107.94
334.999	100.94
335.227	86.94
335.455	105.94
335.684	87.94
335.912	90.94
336.14	99.94
336.369	96.94
336.597	104.94
336.825	95.94
337.053	84.94
337.281	99.94
337.51	93.94
337.738	86.94
337.966	82.94
338.194	99.94
338.422	93.94
338.65	98.94
338.878	87.94
339.106	92.94
339.334	79.94
339.562	103.94
339.79	85.94
340.018	91.94
340.246	84.94
340.474	89.94
340.702	92.94
340.93	108.94
341.158	95.94
341.386	102.94
341.614	92.94
341.842	83.94
342.07	78.94
342.298	92.94
342.526	96.94
342.754	83.94
342.981	88.94
343.209	65.94
343.437	90.94
343.665	91.94
343.893	86.94
344.12	87.94
344.348	100.94
344.576	87.94
344.804	85.94
345.031	95.94
345.259	85.94
345.487	93.94
345.714	101.94
345.942	94.94
346.17	80.94
346.397	92.94
346.625	91.94
346.853	112.94
347.08	97.94
347.308	80.94
347.535	97.94
347.763	86.94
347.99	96.94
348.218	95.94
348.445	97.94
348.673	87.94
348.9	78.94
349.128	98.94
349.355	85.94
349.583	87.94
349.81	83.94
350.037	90.94
350.265	90.94
350.492	98.94
350.72	98.94
350.947	88.94
351.174	105.94
351.402	111.94
351.629	99.94
351.856	106.94
352.083	93.94
352.311	99.94
352.538	103.94
352.765	107.94
352.992	108.94
353.22	99.94
353.447	104.94
353.674	95.94
353.901	90.94
354.128	88.94
354.355	98.94
354.583	97.94
354.81	97.94
355.037	90.94
355.264	102.94
355.491	78.94
355.718	79.94
355.945	93.94
356.172	80.94
356.399	84.94
356.626	80.94
356.853	94.94
357.08	75.94
357.307	91.94
357.534	110.94
357.761	92.94
357.988	86.94
358.215	99.94
358.441	91.94
358.668	89.94
358.895	79.94
359.122	84.94
359.349	83.94
359.576	97.94
359.802	75.94
360.029	101.94
360.256	106.94
360.483	102.94
360.709	86.94
360.936	103.94
361.163	92.94
361.39	91.94
361.616	88.94
361.843	89.94
362.07	94.94
362.296	97.94
362.523	91.94
362.749	96.94
362.976	98.94
363.203	86.94
363.429	92.94
363.656	100.94
363.882	90.94
364.109	90.94
364.335	86.94
364.562	81.94
364.788	87.94
365.015	102.94
365.241	96.94
365.468	112.94
365.694	103.94
365.92	97.94
366.147	88.94
366.373	68.94
366.599	75.94
366.826	95.94
367.052	99.94
367.278	91.94
367.505	89.94
367.731	97.94
367.957	82.94
368.184	95.94
368.41	86.94
368.636	108.94
368.862	118.94
369.089	99.94
369.315	107.94
369.541	95.94
369.767	91.94
369.993	81.94
370.219	90.94
370.445	91.94
370.672	84.94
370.898	95.94
371.124	72.94
371.35	84.94
371.576	89.94
371.802	87.94
372.028	76.94
372.254	78.94
372.48	87.94
372.706	89.94
372.932	89.94
373.158	80.94
373.384	82.94
373.61	94.94
373.835	87.94
374.061	84.94
374.287	99.94
374.513	84.94
374.739	85.94
374.965	82.94
375.191	79.94
375.416	92.94
375.642	94.94
375.868	94.94
376.094	78.94
376.319	78.94
376.545	96.94
376.771	84.94
376.997	81.94
377.222	93.94
377.448	94.94
377.674	99.94
377.899	95.94
378.125	82.94
378.35	82.94
378.576	92.94
378.802	82.94
379.027	93.94
379.253	86.94
379.478	100.94
379.704	97.94
379.929	74.94
380.155	92.94
380.38	89.94
380.606	102.94
380.831	100.94
381.057	106.94
381.282	93.94
381.507	90.94
381.733	87.94
381.958	84.94
382.184	94.94
382.409	82.94
382.634	90.94
382.86	108.94
383.085	108.94
383.31	98.94
383.535	101.94
383.761	93.94
383.986	95.94
384.211	82.94
384.436	84.94
384.662	98.94
384.887	108.94
385.112	108.94
385.337	90.94
385.562	109.94
385.787	95.94
386.013	97.94
386.238	99.94
386.463	98.94
386.688	98.94
386.913	107.94
387.138	99.94
387.363	100.94
387.588	98.94
387.813	99.94
388.038	92.94
388.263	107.94
388.488	110.94
388.713	89.94
388.938	94.94
389.163	98.94
389.387	105.94
389.612	103.94
389.837	89.94
390.062	92.94
390.287	93.94
390.512	76.94
390.736	83.94
390.961	97.94
391.186	94.94
391.411	78.94
391.636	87.94
391.86	89.94
392.085	100.94
392.31	91.94
392.534	73.94
392.759	76.94
392.984	92.94
393.208	82.94
393.433	84.94
393.658	88.94
393.882	91.94
394.107	77.94
394.331	85.94
394.556	69.94
394.78	87.94
395.005	82.94
395.229	81.94
395.454	79.94
395.678	81.94
395.903	87.94
396.127	85.94
396.352	78.94
396.576	91.94
396.801	88.94
397.025	91.94
397.249	96.94
397.474	101.94
397.698	86.94
397.922	91.94
398.147	83.94
398.371	70.94
398.595	72.94
398.82	83.94
399.044	94.94
399.268	86.94
399.492	87.94
399.717	93.94
399.941	96.94
400.165	98.94
400.389	86.94
400.613	86.94
400.837	96.94
401.062	83.94
401.286	104.94
401.51	94.94
401.734	81.94
401.958	106.94
402.182	101.94
402.406	162.94
402.63	105.94
402.854	95.94
403.078	83.94
403.302	90.94
403.526	91.94
403.75	88.94
403.974	77.94
404.198	84.94
404.422	99.94
404.645	102.94
404.869	88.94
405.093	106.94
405.317	110.94
405.541	102.94
405.765	106.94
405.988	119.94
406.212	172.94
406.436	234.94
406.66	136.94
406.883	90.94
407.107	82.94
407.331	105.94
407.555	92.94
407.778	90.94
408.002	81.94
408.226	90.94
408.449	79.94
408.673	97.94
408.896	96.94
409.12	112.94
409.344	89.94
409.567	87.94
409.791	90.94
410.014	102.94
410.238	95.94
410.461	88.94
410.685	85.94
410.908	99.94
411.132	116.94
411.355	102.94
411.578	101.94
411.802	87.94
412.025	99.94
412.249	78.94
412.472	88.94
412.695	96.94
412.919	75.94
413.142	92.94
413.365	84.94
413.589	75.94
413.812	90.94
414.035	90.94
414.258	83.94
414.482	84.94
414.705	90.94
414.928	89.94
415.151	80.94
415.374	82.94
415.597	80.94
415.821	70.94
416.044	76.94
416.267	90.94
416.49	87.94
416.713	90.94
416.936	81.94
417.159	73.94
417.382	90.94
417.605	90.94
417.828	90.94
418.051	86.94
418.274	86.94
418.497	88.94
418.72	74.94
418.943	74.94
419.166	81.94
419.389	80.94
419.611	96.94
419.834	82.94
420.057	95.94
420.28	78.94
420.503	69.94
420.726	96.94
420.948	87.94
421.171	97.94
421.394	90.94
421.617	86.94
421.839	78.94
422.062	75.94
422.285	97.94
422.507	94.94
422.73	118.94
422.953	102.94
423.175	73.94
423.398	92.94
423.621	80.94
423.843	72.94
424.066	71.94
424.288	86.94
424.511	107.94
424.733	84.94
424.956	108.94
425.178	88.94
425.401	98.94
425.623	90.94
425.846	91.94
426.068	95.94
426.291	78.94
426.513	81.94
426.735	90.94
426.958	90.94
427.18	106.94
427.402	131.94
427.625	153.94
427.847	130.94
428.069	109.94
428.292	80.94
428.514	83.94
428.736	83.94
428.958	86.94
429.181	69.94
429.403	81.94
429.625	86.94
429.847	92.94
430.069	100.94
430.292	92.94
430.514	95.94
430.736	74.94
430.958	88.94
431.18	89.94
431.402	70.94
431.624	86.94
431.846	81.94
432.068	98.94
432.29	96.94
432.512	92.94
432.734	87.94
432.956	99.94
433.178	95.94
433.4	91.94
433.622	96.94
433.844	90.94
434.066	91.94
434.287	88.94
434.509	93.94
434.731	86.94
434.953	75.94
435.175	81.94
435.397	94.94
435.618	86.94
435.84	97.94
436.062	120.94
436.284	121.94
436.505	99.94
436.727	96.94
436.949	90.94
437.17	75.94
437.392	75.94
437.614	98.94
437.835	97.94
438.057	122.94
438.278	99.94
438.5	100.94
438.721	116.94
438.943	105.94
439.165	82.94
439.386	98.94
439.608	87.94
439.829	90.94
440.05	121.94
440.272	130.94
440.493	102.94
440.715	87.94
440.936	88.94
441.158	85.94
441.379	85.94
441.6	70.94
441.822	95.94
442.043	90.94
442.264	107.94
442.486	88.94
442.707	100.94
442.928	107.94
443.149	138.94
443.371	126.94
443.592	114.94
443.813	97.94
444.034	100.94
444.255	79.94
444.476	83.94
444.698	86.94
444.919	87.94
445.14	144.94
445.361	134.94
445.582	98.94
445.803	124.94
446.024	127.94
446.245	130.94
446.466	118.94
446.687	92.94
446.908	97.94
447.129	94.94
447.35	78.94
447.571	90.94
447.792	92.94
448.013	103.94
448.234	107.94
448.455	110.94
448.675	113.94
448.896	120.94
449.117	91.94
449.338	110.94
449.559	132.94
449.779	136.94
450	81.94
450.221	84.94
450.442	106.94
450.662	87.94
450.883	106.94
451.104	108.94
451.324	94.94
451.545	80.94
451.766	84.94
451.986	80.94
452.207	86.94
452.428	95.94
452.648	100.94
452.869	110.94
453.089	96.94
453.31	110.94
453.53	96.94
453.751	103.94
453.971	104.94
454.192	89.94
454.412	84.94
454.633	74.94
454.853	93.94
455.073	86.94
455.294	87.94
455.514	106.94
455.734	87.94
455.955	79.94
456.175	80.94
456.395	82.94
456.616	84.94
456.836	75.94
457.056	67.94
457.276	82.94
457.497	84.94
457.717	102.94
457.937	84.94
458.157	87.94
458.377	89.94
458.598	93.94
458.818	135.94
459.038	149.94
459.258	106.94
459.478	97.94
459.698	97.94
459.918	91.94
460.138	79.94
460.358	81.94
460.578	84.94
460.798	79.94
461.018	94.94
461.238	79.94
461.458	87.94
461.678	96.94
461.898	94.94
462.118	83.94
462.338	82.94
462.558	79.94
462.777	78.94
462.997	82.94
463.217	72.94
463.437	80.94
463.657	101.94
463.876	105.94
464.096	96.94
464.316	98.94
464.536	96.94
464.755	92.94
464.975	112.94
465.195	153.94
465.414	145.94
465.634	95.94
465.854	90.94
466.073	88.94
466.293	89.94
466.512	79.94
466.732	101.94
466.951	107.94
467.171	89.94
467.391	104.94
467.61	102.94
467.829	103.94
468.049	85.94
468.268	80.94
468.488	87.94
468.707	78.94
468.927	82.94
469.146	82.94
469.365	89.94
469.585	93.94
469.804	99.94
470.023	82.94
470.243	78.94
470.462	102.94
470.681	117.94
470.901	84.94
471.12	87.94
471.339	78.94
471.558	90.94
471.777	98.94
471.997	91.94
472.216	103.94
472.435	113.94
472.654	85.94
472.873	90.94
473.092	83.94
473.311	77.94
473.53	80.94
473.749	83.94
473.968	100.94
474.187	101.94
474.406	86.94
474.625	72.94
474.844	84.94
475.063	92.94
475.282	90.94
475.501	83.94
475.72	94.94
475.939	90.94
476.158	84.94
476.377	88.94
476.596	82.94
476.814	101.94
477.033	94.94
477.252	95.94
477.471	82.94
477.69	82.94
477.908	91.94
478.127	91.94
478.346	100.94
478.564	92.94
478.783	81.94
479.002	115.94
479.22	91.94
479.439	91.94
479.658	101.94
479.876	88.94
480.095	72.94
480.313	75.94
480.532	83.94
480.751	88.94
480.969	114.94
481.188	131.94
481.406	112.94
481.624	92.94
481.843	88.94
482.061	77.94
482.28	91.94
482.498	101.94
482.717	80.94
482.935	83.94
483.153	104.94
483.372	97.94
483.59	85.94
483.808	76.94
484.027	82.94
484.245	88.94
484.463	90.94
484.681	82.94
484.9	89.94
485.118	104.94
485.336	90.94
485.554	96.94
485.772	89.94
485.99	99.94
486.209	91.94
486.427	94.94
486.645	94.94
486.863	110.94
487.081	98.94
487.299	96.94
487.517	90.94
487.735	94.94
487.953	82.94
488.171	90.94
488.389	101.94
488.607	92.94
488.825	91.94
489.043	103.94
489.261	76.94
489.479	92.94
489.696	96.94
489.914	80.94
490.132	91.94
490.35	102.94
490.568	90.94
490.786	95.94
491.003	95.94
491.221	88.94
491.439	89.94
491.657	86.94
491.874	93.94
492.092	102.94
492.31	83.94
492.527	100.94
492.745	99.94
492.963	96.94
493.18	88.94
493.398	89.94
493.615	88.94
493.833	90.94
494.05	82.94
494.268	86.94
494.485	93.94
494.703	82.94
494.92	102.94
495.138	92.94
495.355	90.94
495.573	83.94
495.79	93.94
496.008	95.94
496.225	95.94
496.442	83.94
496.66	86.94
496.877	94.94
497.094	99.94
497.312	87.94
497.529	97.94
497.746	88.94
497.963	91.94
498.181	85.94
498.398	97.94
498.615	100.94
498.832	110.94
499.049	87.94
499.267	90.94
499.484	98.94
499.701	97.94
499.918	96.94
500.135	97.94
500.352	94.94
500.569	91.94
500.786	94.94
501.003	92.94
501.22	85.94
501.437	91.94
501.654	98.94
501.871	107.94
502.088	104.94
502.305	103.94
502.522	85.94
502.739	95.94
502.956	102.94
503.172	97.94
503.389	96.94
503.606	109.94
503.823	97.94
504.04	91.94
504.256	82.94
504.473	87.94
504.69	96.94
504.907	90.94
505.123	76.94
505.34	92.94
505.557	86.94
505.773	103.94
505.99	91.94
506.207	90.94
506.423	80.94
506.64	88.94
506.856	87.94
507.073	97.94
507.289	93.94
507.506	82.94
507.722	112.94
507.939	112.94
508.155	94.94
508.372	94.94
508.588	108.94
508.805	86.94
509.021	82.94
509.238	92.94
509.454	94.94
509.67	80.94
509.887	128.94
510.103	121.94
510.319	212.94
510.536	754.94
510.752	2427.94
510.968	652.94
511.184	149.94
511.401	114.94
511.617	95.94
511.833	100.94
512.049	84.94
512.265	98.94
512.481	88.94
512.698	104.94
512.914	88.94
513.13	84.94
513.346	90.94
513.562	83.94
513.778	86.94
513.994	112.94
514.21	99.94
514.426	114.94
514.642	141.94
514.858	120.94
515.074	160.94
515.29	468.94
515.506	1527.94
515.721	535.94
515.937	158.94
516.153	90.94
516.369	107.94
516.585	95.94
516.801	106.94
517.016	92.94
517.232	86.94
517.448	95.94
517.664	92.94
517.879	78.94
518.095	94.94
518.311	78.94
518.527	97.94
518.742	98.94
518.958	95.94
519.173	96.94
519.389	90.94
519.605	100.94
519.82	99.94
520.036	96.94
520.251	116.94
520.467	103.94
520.682	104.94
520.898	99.94
521.113	97.94
521.329	142.94
521.544	222.94
521.76	565.94
521.975	2528.94
522.19	1482.94
522.406	312.94
522.621	113.94
522.836	110.94
523.052	96.94
523.267	98.94
523.482	96.94
523.698	102.94
523.913	107.94
524.128	111.94
524.343	86.94
524.559	94.94
524.774	86.94
524.989	108.94
525.204	107.94
525.419	94.94
525.634	81.94
525.849	90.94
526.064	69.94
526.28	91.94
526.495	82.94
526.71	91.94
526.925	99.94
527.14	86.94
527.355	76.94
527.57	75.94
527.785	78.94
527.999	90.94
528.214	83.94
528.429	98.94
528.644	84.94
528.859	88.94
529.074	86.94
529.289	127.94
529.503	187.94
529.718	117.94
529.933	102.94
530.148	98.94
530.363	71.94
530.577	90.94
530.792	97.94
531.007	92.94
531.221	103.94
531.436	93.94
531.651	96.94
531.865	92.94
532.08	95.94
532.295	90.94
532.509	81.94
532.724	92.94
532.938	103.94
533.153	99.94
533.367	82.94
533.582	89.94
533.796	95.94
534.011	95.94
534.225	83.94
534.44	102.94
534.654	90.94
534.868	86.94
535.083	102.94
535.297	86.94
535.511	107.94
535.726	107.94
535.94	85.94
536.154	99.94
536.369	90.94
536.583	82.94
536.797	94.94
537.011	94.94
537.225	100.94
537.44	84.94
537.654	81.94
537.868	84.94
538.082	94.94
538.296	88.94
538.51	92.94
538.724	102.94
538.938	88.94
539.153	104.94
539.367	111.94
539.581	90.94
539.795	99.94
540.009	102.94
540.222	99.94
540.436	79.94
540.65	74.94
540.864	90.94
541.078	101.94
541.292	94.94
541.506	88.94
541.72	82.94
541.934	97.94
542.147	87.94
542.361	82.94
542.575	80.94
542.789	85.94
543.002	90.94
543.216	90.94
543.43	110.94
543.644	92.94
543.857	97.94
544.071	87.94
544.285	92.94
544.498	87.94
544.712	103.94
544.925	96.94
545.139	84.94
545.352	91.94
545.566	76.94
545.779	82.94
545.993	91.94
546.206	93.94
546.42	82.94
546.633	93.94
546.847	70.94
547.06	88.94
547.274	92.94
547.487	81.94
547.7	86.94
547.914	101.94
548.127	91.94
548.34	84.94
548.554	70.94
548.767	92.94
548.98	95.94
549.193	89.94
549.407	84.94
549.62	84.94
549.833	80.94
550.046	95.94
550.259	91.94
550.473	87.94
550.686	80.94
550.899	70.94
551.112	82.94
551.325	100.94
551.538	95.94
551.751	82.94
551.964	88.94
552.177	89.94
552.39	94.94
552.603	95.94
552.816	89.94
553.029	91.94
553.242	80.94
553.455	96.94
553.667	103.94
553.88	93.94
554.093	90.94
554.306	83.94
554.519	84.94
554.732	85.94
554.944	98.94
555.157	106.94
555.37	84.94
555.583	84.94
555.795	103.94
556.008	78.94
556.221	87.94
556.433	78.94
556.646	90.94
556.859	79.94
557.071	96.94
557.284	81.94
557.496	107.94
557.709	86.94
557.921	92.94
558.134	87.94
558.346	93.94
558.559	87.94
558.771	90.94
558.984	98.94
559.196	88.94
559.409	81.94
559.621	94.94
559.833	83.94
560.046	79.94
560.258	91.94
560.47	91.94
560.683	92.94
560.895	90.94
561.107	100.94
561.32	95.94
561.532	99.94
561.744	91.94
561.956	93.94
562.168	84.94
562.381	94.94
562.593	99.94
562.805	94.94
563.017	97.94
563.229	90.94
563.441	94.94
563.653	79.94
563.865	89.94
564.077	98.94
564.289	98.94
564.501	87.94
564.713	92.94
564.925	75.94
565.137	91.94
565.349	86.94
565.561	101.94
565.773	97.94
565.985	99.94
566.197	88.94
566.408	93.94
566.62	75.94
566.832	94.94
567.044	94.94
567.255	92.94
567.467	78.94
567.679	86.94
567.891	79.94
568.102	87.94
568.314	79.94
568.526	82.94
568.737	84.94
568.949	75.94
569.161	86.94
569.372	85.94
569.584	85.94
569.795	91.94
570.007	106.94
570.218	263.94
570.43	152.94
570.641	97.94
570.853	82.94
571.064	80.94
571.276	98.94
571.487	92.94
571.698	87.94
571.91	86.94
572.121	79.94
572.333	93.94
572.544	78.94
572.755	95.94
572.966	87.94
573.178	84.94
573.389	87.94
573.6	88.94
573.811	95.94
574.023	78.94
574.234	94.94
574.445	92.94
574.656	96.94
574.867	98.94
575.078	96.94
575.289	88.94
575.501	91.94
575.712	101.94
575.923	94.94
576.134	86.94
576.345	88.94
576.556	85.94
576.767	79.94
576.978	92.94
577.188	88.94
577.399	68.94
577.61	98.94
577.821	95.94
578.032	116.94
578.243	278.94
578.454	795.94
578.665	216.94
578.875	105.94
579.086	91.94
579.297	97.94
579.508	88.94
579.718	82.94
579.929	73.94
580.14	88.94
580.35	87.94
580.561	82.94
580.772	84.94
580.982	87.94
581.193	94.94
581.403	89.94
581.614	91.94
581.825	86.94
582.035	73.94
582.246	74.94
582.456	69.94
582.667	88.94
582.877	92.94
583.087	91.94
583.298	92.94
583.508	78.94
583.719	81.94
583.929	87.94
584.139	69.94
584.35	94.94
584.56	87.94
584.77	80.94
584.981	96.94
585.191	81.94
585.401	80.94
585.611	94.94
585.821	86.94
586.032	82.94
586.242	91.94
586.452	94.94
586.662	82.94
586.872	84.94
587.082	90.94
587.292	83.94
587.502	94.94
587.713	93.94
587.923	78.94
588.133	81.94
588.343	71.94
588.553	80.94
588.762	79.94
588.972	102.94
589.182	90.94
589.392	95.94
589.602	90.94
589.812	84.94
590.022	100.94
590.232	87.94
590.441	83.94
590.651	83.94
590.861	81.94
591.071	90.94
591.281	80.94
591.49	92.94
591.7	86.94
591.91	73.94
592.119	78.94
592.329	86.94
592.539	82.94
592.748	87.94
592.958	80.94
593.167	59.94
593.377	76.94
593.587	96.94
593.796	85.94
594.006	96.94
594.215	84.94
594.424	67.94
594.634	93.94
594.843	90.94
595.053	74.94
595.262	75.94
595.472	90.94
595.681	87.94
595.89	90.94
596.1	87.94
596.309	87.94
596.518	78.94
596.727	76.94
596.937	110.94
597.146	88.94
597.355	78.94
597.564	86.94
597.774	86.94
597.983	79.94
598.192	99.94
598.401	97.94
598.61	92.94
598.819	84.94
599.028	96.94
599.237	83.94
599.446	87.94
599.655	92.94
599.864	87.94
600.073	85.94
600.282	103.94
600.491	89.94
600.7	82.94
600.909	83.94
601.118	83.94
601.327	95.94
601.536	97.94
601.745	85.94
601.953	80.94
602.162	88.94
602.371	96.94
602.58	84.94
602.789	90.94
602.997	81.94
603.206	77.94
603.415	78.94
603.623	91.94
603.832	79.94
604.041	91.94
604.249	79.94
604.458	80.94
604.666	89.94
604.875	90.94
605.084	74.94
605.292	94.94
605.501	80.94
605.709	89.94
605.918	88.94
606.126	84.94
606.334	90.94
606.543	84.94
606.751	84.94
606.96	75.94
607.168	100.94
607.376	97.94
607.585	89.94
607.793	81.94
608.001	86.94
608.21	76.94
608.418	87.94
608.626	81.94
608.834	75.94
609.043	85.94
609.251	82.94
609.459	75.94
609.667	74.94
609.875	98.94
610.083	83.94
610.291	76.94
610.499	73.94
610.707	81.94
610.916	82.94
611.124	98.94
611.332	79.94
611.54	73.94
611.748	86.94
611.955	84.94
612.163	69.94
612.371	105.94
612.579	94.94
612.787	86.94
612.995	82.94
613.203	91.94
613.411	79.94
613.618	71.94
613.826	82.94
614.034	76.94
614.242	95.94
614.449	100.94
614.657	91.94
614.865	96.94
615.072	88.94
615.28	86.94
615.488	90.94
615.695	87.94
615.903	99.94
616.111	96.94
616.318	99.94
616.526	84.94
616.733	83.94
616.941	75.94
617.148	86.94
617.356	83.94
617.563	86.94
617.771	95.94
617.978	94.94
618.185	84.94
618.393	87.94
618.6	92.94
618.807	83.94
619.015	89.94
619.222	80.94
619.429	82.94
619.637	98.94
619.844	86.94
620.051	84.94
620.258	90.94
620.466	80.94
620.673	88.94
620.88	82.94
621.087	90.94
621.294	75.94
621.501	80.94
621.708	89.94
621.915	79.94
622.122	87.94
622.329	90.94
622.536	98.94
622.743	95.94
622.95	90.94
623.157	83.94
623.364	90.94
623.571	80.94
623.778	86.94
623.985	83.94
624.192	93.94
624.399	93.94
624.606	89.94
624.812	83.94
625.019	78.94
625.226	79.94
625.433	105.94
625.639	88.94
625.846	75.94
626.053	94.94
626.259	86.94
626.466	81.94
626.673	77.94
626.879	72.94
627.086	84.94
627.293	102.94
627.499	95.94
627.706	69.94
627.912	85.94
628.119	81.94
628.325	83.94
628.532	92.94
628.738	97.94
628.945	75.94
629.151	68.94
629.357	102.94
629.564	70.94
629.77	78.94
629.976	90.94
630.183	89.94
630.389	86.94
630.595	78.94
630.802	72.94
631.008	80.94
631.214	84.94
631.42	70.94
631.627	83.94
631.833	84.94
632.039	88.94
632.245	80.94
632.451	75.94
632.657	87.94
632.863	81.94
633.069	88.94
633.275	81.94
633.481	81.94
633.688	79.94
633.893	88.94
634.099	68.94
634.305	86.94
634.511	84.94
634.717	90.94
634.923	84.94
635.129	84.94
635.335	75.94
635.541	88.94
635.747	84.94
635.952	83.94
636.158	78.94
636.364	91.94
636.57	82.94
636.775	92.94
636.981	90.94
637.187	93.94
637.392	87.94
637.598	93.94
637.804	94.94
638.009	90.94
638.215	85.94
638.421	81.94
638.626	91.94
638.832	89.94
639.037	86.94
639.243	96.94
639.448	91.94
639.654	99.94
639.859	68.94
640.065	82.94
640.27	81.94
640.475	81.94
640.681	78.94
640.886	78.94
641.091	70.94
641.297	76.94
641.502	91.94
641.707	80.94
641.913	89.94
642.118	70.94
642.323	84.94
642.528	87.94
642.733	80.94
642.939	81.94
643.144	98.94
643.349	83.94
643.554	74.94
643.759	91.94
643.964	81.94
644.169	78.94
644.374	80.94
644.579	70.94
644.784	86.94
644.989	68.94
645.194	74.94
645.399	88.94
645.604	83.94
645.809	90.94
646.014	79.94
646.219	71.94
646.423	88.94
646.628	96.94
646.833	88.94
647.038	86.94
647.243	86.94
647.447	85.94
647.652	102.94
647.857	90.94
648.062	91.94
648.266	89.94
648.471	89.94
648.676	86.94
648.88	90.94
649.085	94.94
649.289	86.94
649.494	97.94
649.698	127.94
649.903	90.94
650.107	78.94
650.312	86.94
650.516	84.94
650.721	85.94
650.925	72.94
651.13	85.94
651.334	75.94
651.539	83.94
651.743	78.94
651.947	91.94
652.152	85.94
652.356	81.94
652.56	94.94
652.764	87.94
652.969	78.94
653.173	94.94
653.377	76.94
653.581	86.94
653.785	88.94
653.99	76.94
654.194	73.94
654.398	82.94
654.602	70.94
654.806	72.94
655.01	112.94
655.214	92.94
655.418	72.94
655.622	78.94
655.826	80.94
656.03	89.94
656.234	88.94
656.438	85.94
656.642	82.94
656.846	89.94
657.049	83.94
657.253	85.94
657.457	80.94
657.661	73.94
657.865	82.94
658.068	87.94
658.272	63.94
658.476	80.94
658.68	94.94
658.883	78.94
659.087	75.94
659.291	83.94
659.494	73.94
659.698	80.94
659.901	82.94
660.105	90.94
660.309	78.94
660.512	67.94
660.716	45.94
660.919	64.94
661.123	90.94
661.326	78.94
661.53	91.94
661.733	76.94
661.936	78.94
662.14	73.94
662.343	80.94
662.546	80.94
662.75	70.94
662.953	75.94
663.156	89.94
663.36	90.94
663.563	84.94
663.766	76.94
663.969	74.94
664.173	78.94
664.376	67.94
664.579	71.94
664.782	71.94
664.985	73.94
665.188	81.94
665.391	82.94
665.594	70.94
665.797	96.94
666	86.94
666.203	88.94
666.406	93.94
666.609	83.94
666.812	96.94
667.015	67.94
667.218	82.94
667.421	91.94
667.624	82.94
667.827	72.94
668.03	88.94
668.232	80.94
668.435	84.94
668.638	86.94
668.841	71.94
669.043	92.94
669.246	88.94
669.449	83.94
669.651	83.94
669.854	78.94
670.057	82.94
670.259	84.94
670.462	82.94
670.665	74.94
670.867	88.94
671.07	80.94
671.272	71.94
671.475	78.94
671.677	74.94
671.88	85.94
672.082	82.94
672.284	92.94
672.487	67.94
672.689	64.94
672.892	67.94
