Data from Circ_1999_H10_HRD10591_00063.txt Node
Date: Wed Jan 03 11:23:25 EST 2024
User: Yrep
Spectrometer: HR+D1059
Trigger mode: 1
Integration Time (sec): 1.000000E-1
Scans to average: 1
Electric dark correction enabled: true
Nonlinearity correction enabled: false
Boxcar width: 0
XAxis mode: Wavelengths
Number of Pixels in Spectrum: 2048
>>>>>Begin Spectral Data<<<<<
223.165	-6.94
223.4	-6.94
223.635	-6.94
223.869	-22.94
224.104	-17.94
224.338	-12.94
224.573	-6.94
224.808	-9.94
225.042	-8.94
225.277	-4.94
225.511	-10.94
225.746	6.06
225.98	13.06
226.215	-0.94
226.449	25.06
226.683	25.06
226.918	17.06
227.152	17.06
227.387	39.06
227.621	36.06
227.856	52.06
228.09	54.06
228.324	67.06
228.559	56.06
228.793	61.06
229.027	58.06
229.262	74.06
229.496	82.06
229.73	108.06
229.964	103.06
230.199	94.06
230.433	70.06
230.667	77.06
230.901	87.06
231.136	74.06
231.37	74.06
231.604	78.06
231.838	74.06
232.072	98.06
232.306	79.06
232.541	78.06
232.775	86.06
233.009	88.06
233.243	83.06
233.477	77.06
233.711	77.06
233.945	77.06
234.179	67.06
234.413	71.06
234.647	76.06
234.881	77.06
235.115	94.06
235.349	87.06
235.583	52.06
235.817	82.06
236.051	75.06
236.285	78.06
236.519	79.06
236.753	86.06
236.987	88.06
237.221	102.06
237.455	90.06
237.689	86.06
237.922	79.06
238.156	90.06
238.39	77.06
238.624	81.06
238.858	80.06
239.091	83.06
239.325	76.06
239.559	76.06
239.793	93.06
240.027	102.06
240.26	76.06
240.494	88.06
240.728	76.06
240.961	86.06
241.195	92.06
241.429	82.06
241.662	79.06
241.896	74.06
242.13	76.06
242.363	78.06
242.597	77.06
242.83	82.06
243.064	82.06
243.298	100.06
243.531	77.06
243.765	83.06
243.998	81.06
244.232	83.06
244.465	101.06
244.699	96.06
244.932	88.06
245.166	89.06
245.399	91.06
245.633	67.06
245.866	89.06
246.099	75.06
246.333	87.06
246.566	87.06
246.8	76.06
247.033	77.06
247.266	94.06
247.5	64.06
247.733	72.06
247.966	92.06
248.2	96.06
248.433	90.06
248.666	80.06
248.899	94.06
249.133	103.06
249.366	110.06
249.599	107.06
249.832	74.06
250.066	88.06
250.299	86.06
250.532	92.06
250.765	82.06
250.998	92.06
251.231	70.06
251.465	87.06
251.698	76.06
251.931	87.06
252.164	86.06
252.397	92.06
252.63	94.06
252.863	82.06
253.096	85.06
253.329	82.06
253.562	79.06
253.795	80.06
254.028	79.06
254.261	87.06
254.494	86.06
254.727	88.06
254.96	82.06
255.193	68.06
255.426	78.06
255.659	85.06
255.892	95.06
256.124	95.06
256.357	79.06
256.59	89.06
256.823	82.06
257.056	90.06
257.289	91.06
257.521	98.06
257.754	94.06
257.987	87.06
258.22	92.06
258.452	95.06
258.685	95.06
258.918	84.06
259.151	89.06
259.383	92.06
259.616	99.06
259.849	96.06
260.081	81.06
260.314	90.06
260.547	103.06
260.779	99.06
261.012	126.06
261.244	119.06
261.477	90.06
261.71	111.06
261.942	162.06
262.175	174.06
262.407	119.06
262.64	75.06
262.872	96.06
263.105	108.06
263.337	96.06
263.57	88.06
263.802	94.06
264.035	81.06
264.267	74.06
264.499	85.06
264.732	96.06
264.964	88.06
265.197	85.06
265.429	77.06
265.661	86.06
265.894	101.06
266.126	89.06
266.358	90.06
266.591	76.06
266.823	72.06
267.055	86.06
267.287	100.06
267.52	94.06
267.752	84.06
267.984	85.06
268.216	92.06
268.448	93.06
268.681	99.06
268.913	83.06
269.145	99.06
269.377	96.06
269.609	94.06
269.841	92.06
270.073	89.06
270.306	88.06
270.538	101.06
270.77	93.06
271.002	103.06
271.234	89.06
271.466	101.06
271.698	100.06
271.93	104.06
272.162	103.06
272.394	90.06
272.626	90.06
272.858	91.06
273.09	96.06
273.322	74.06
273.553	88.06
273.785	78.06
274.017	91.06
274.249	92.06
274.481	87.06
274.713	92.06
274.945	90.06
275.176	95.06
275.408	106.06
275.64	135.06
275.872	139.06
276.104	123.06
276.335	103.06
276.567	152.06
276.799	198.06
277.031	207.06
277.262	240.06
277.494	174.06
277.726	112.06
277.957	96.06
278.189	95.06
278.421	94.06
278.652	96.06
278.884	85.06
279.115	92.06
279.347	96.06
279.579	111.06
279.81	106.06
280.042	241.06
280.273	304.06
280.505	216.06
280.736	114.06
280.968	103.06
281.199	87.06
281.431	108.06
281.662	95.06
281.894	94.06
282.125	118.06
282.356	159.06
282.588	198.06
282.819	146.06
283.051	98.06
283.282	87.06
283.513	99.06
283.745	86.06
283.976	85.06
284.207	82.06
284.439	91.06
284.67	94.06
284.901	86.06
285.132	98.06
285.364	93.06
285.595	91.06
285.826	90.06
286.057	98.06
286.288	89.06
286.52	91.06
286.751	88.06
286.982	97.06
287.213	96.06
287.444	96.06
287.675	111.06
287.906	95.06
288.138	104.06
288.369	103.06
288.6	99.06
288.831	84.06
289.062	98.06
289.293	89.06
289.524	94.06
289.755	95.06
289.986	85.06
290.217	99.06
290.448	82.06
290.679	88.06
290.91	90.06
291.141	96.06
291.371	93.06
291.602	95.06
291.833	83.06
292.064	83.06
292.295	85.06
292.526	98.06
292.757	93.06
292.987	100.06
293.218	111.06
293.449	93.06
293.68	81.06
293.91	85.06
294.141	89.06
294.372	96.06
294.603	80.06
294.833	90.06
295.064	91.06
295.295	99.06
295.525	106.06
295.756	117.06
295.987	141.06
296.217	202.06
296.448	174.06
296.679	93.06
296.909	104.06
297.14	87.06
297.37	92.06
297.601	92.06
297.831	108.06
298.062	90.06
298.292	104.06
298.523	96.06
298.753	97.06
298.984	95.06
299.214	90.06
299.445	104.06
299.675	106.06
299.905	120.06
300.136	105.06
300.366	94.06
300.597	108.06
300.827	101.06
301.057	124.06
301.288	128.06
301.518	109.06
301.748	106.06
301.979	120.06
302.209	112.06
302.439	98.06
302.669	93.06
302.9	86.06
303.13	104.06
303.36	126.06
303.59	162.06
303.82	164.06
304.051	120.06
304.281	108.06
304.511	101.06
304.741	98.06
304.971	91.06
305.201	74.06
305.431	80.06
305.661	93.06
305.891	100.06
306.121	99.06
306.352	113.06
306.582	130.06
306.812	121.06
307.042	152.06
307.272	198.06
307.502	207.06
307.731	201.06
307.961	151.06
308.191	94.06
308.421	83.06
308.651	98.06
308.881	99.06
309.111	106.06
309.341	110.06
309.571	102.06
309.8	118.06
310.03	127.06
310.26	121.06
310.49	102.06
310.72	122.06
310.949	147.06
311.179	128.06
311.409	102.06
311.639	93.06
311.868	104.06
312.098	90.06
312.328	103.06
312.557	116.06
312.787	139.06
313.017	126.06
313.246	110.06
313.476	111.06
313.706	107.06
313.935	121.06
314.165	114.06
314.394	128.06
314.624	115.06
314.853	123.06
315.083	110.06
315.312	91.06
315.542	109.06
315.771	121.06
316.001	93.06
316.23	83.06
316.46	98.06
316.689	94.06
316.919	97.06
317.148	110.06
317.377	112.06
317.607	97.06
317.836	99.06
318.065	107.06
318.295	90.06
318.524	90.06
318.753	110.06
318.983	110.06
319.212	125.06
319.441	136.06
319.67	140.06
319.9	114.06
320.129	102.06
320.358	97.06
320.587	126.06
320.816	110.06
321.046	126.06
321.275	106.06
321.504	98.06
321.733	96.06
321.962	101.06
322.191	126.06
322.42	124.06
322.649	128.06
322.878	138.06
323.108	141.06
323.337	157.06
323.566	175.06
323.795	194.06
324.024	270.06
324.253	521.06
324.482	1086.06
324.71	2160.06
324.939	2836.06
325.168	1050.06
325.397	335.06
325.626	191.06
325.855	135.06
326.084	151.06
326.313	178.06
326.542	170.06
326.77	282.06
326.999	541.06
327.228	1082.06
327.457	1954.06
327.686	1635.06
327.914	653.06
328.143	694.06
328.372	854.06
328.6	471.06
328.829	228.06
329.058	242.06
329.287	248.06
329.515	223.06
329.744	326.06
329.972	609.06
330.201	1308.06
330.43	1860.06
330.658	841.06
330.887	367.06
331.115	234.06
331.344	152.06
331.572	130.06
331.801	156.06
332.03	150.06
332.258	124.06
332.486	127.06
332.715	123.06
332.943	121.06
333.172	151.06
333.4	168.06
333.629	185.06
333.857	286.06
334.085	538.06
334.314	1131.06
334.542	2234.06
334.771	2068.06
334.999	550.06
335.227	210.06
335.455	140.06
335.684	141.06
335.912	112.06
336.14	126.06
336.369	133.06
336.597	124.06
336.825	112.06
337.053	115.06
337.281	106.06
337.51	91.06
337.738	97.06
337.966	111.06
338.194	118.06
338.422	115.06
338.65	106.06
338.878	94.06
339.106	92.06
339.334	98.06
339.562	88.06
339.79	99.06
340.018	98.06
340.246	113.06
340.474	96.06
340.702	95.06
340.93	95.06
341.158	88.06
341.386	110.06
341.614	124.06
341.842	106.06
342.07	99.06
342.298	119.06
342.526	102.06
342.754	101.06
342.981	105.06
343.209	99.06
343.437	99.06
343.665	96.06
343.893	96.06
344.12	78.06
344.348	99.06
344.576	86.06
344.804	94.06
345.031	117.06
345.259	124.06
345.487	88.06
345.714	82.06
345.942	104.06
346.17	104.06
346.397	94.06
346.625	108.06
346.853	98.06
347.08	94.06
347.308	116.06
347.535	114.06
347.763	136.06
347.99	120.06
348.218	106.06
348.445	145.06
348.673	136.06
348.9	111.06
349.128	86.06
349.355	96.06
349.583	93.06
349.81	90.06
350.037	98.06
350.265	113.06
350.492	115.06
350.72	104.06
350.947	120.06
351.174	134.06
351.402	136.06
351.629	115.06
351.856	112.06
352.083	121.06
352.311	129.06
352.538	136.06
352.765	160.06
352.992	134.06
353.22	154.06
353.447	120.06
353.674	116.06
353.901	100.06
354.128	97.06
354.355	85.06
354.583	105.06
354.81	102.06
355.037	101.06
355.264	88.06
355.491	103.06
355.718	94.06
355.945	83.06
356.172	99.06
356.399	97.06
356.626	96.06
356.853	104.06
357.08	106.06
357.307	106.06
357.534	96.06
357.761	94.06
357.988	103.06
358.215	106.06
358.441	100.06
358.668	99.06
358.895	91.06
359.122	99.06
359.349	86.06
359.576	114.06
359.802	117.06
360.029	182.06
360.256	162.06
360.483	121.06
360.709	112.06
360.936	102.06
361.163	108.06
361.39	95.06
361.616	118.06
361.843	115.06
362.07	108.06
362.296	126.06
362.523	90.06
362.749	111.06
362.976	117.06
363.203	122.06
363.429	98.06
363.656	97.06
363.882	111.06
364.109	81.06
364.335	112.06
364.562	116.06
364.788	104.06
365.015	99.06
365.241	124.06
365.468	134.06
365.694	143.06
365.92	120.06
366.147	105.06
366.373	104.06
366.599	102.06
366.826	112.06
367.052	100.06
367.278	103.06
367.505	90.06
367.731	108.06
367.957	100.06
368.184	99.06
368.41	126.06
368.636	155.06
368.862	163.06
369.089	149.06
369.315	121.06
369.541	107.06
369.767	103.06
369.993	114.06
370.219	96.06
370.445	98.06
370.672	99.06
370.898	97.06
371.124	94.06
371.35	78.06
371.576	90.06
371.802	89.06
372.028	98.06
372.254	99.06
372.48	79.06
372.706	78.06
372.932	91.06
373.158	113.06
373.384	93.06
373.61	92.06
373.835	99.06
374.061	104.06
374.287	99.06
374.513	102.06
374.739	97.06
374.965	97.06
375.191	92.06
375.416	88.06
375.642	96.06
375.868	94.06
376.094	96.06
376.319	88.06
376.545	86.06
376.771	91.06
376.997	115.06
377.222	97.06
377.448	81.06
377.674	93.06
377.899	89.06
378.125	93.06
378.35	86.06
378.576	89.06
378.802	92.06
379.027	89.06
379.253	97.06
379.478	93.06
379.704	97.06
379.929	89.06
380.155	101.06
380.38	103.06
380.606	92.06
380.831	107.06
381.057	100.06
381.282	97.06
381.507	94.06
381.733	96.06
381.958	103.06
382.184	95.06
382.409	98.06
382.634	95.06
382.86	92.06
383.085	114.06
383.31	105.06
383.535	99.06
383.761	105.06
383.986	92.06
384.211	92.06
384.436	98.06
384.662	97.06
384.887	105.06
385.112	108.06
385.337	111.06
385.562	84.06
385.787	103.06
386.013	120.06
386.238	129.06
386.463	117.06
386.688	120.06
386.913	99.06
387.138	101.06
387.363	95.06
387.588	95.06
387.813	107.06
388.038	108.06
388.263	107.06
388.488	115.06
388.713	100.06
388.938	100.06
389.163	105.06
389.387	106.06
389.612	93.06
389.837	89.06
390.062	98.06
390.287	99.06
390.512	95.06
390.736	92.06
390.961	88.06
391.186	95.06
391.411	93.06
391.636	90.06
391.86	99.06
392.085	90.06
392.31	80.06
392.534	88.06
392.759	94.06
392.984	83.06
393.208	94.06
393.433	93.06
393.658	79.06
393.882	97.06
394.107	91.06
394.331	81.06
394.556	97.06
394.78	103.06
395.005	83.06
395.229	102.06
395.454	90.06
395.678	89.06
395.903	93.06
396.127	92.06
396.352	78.06
396.576	87.06
396.801	96.06
397.025	90.06
397.249	81.06
397.474	108.06
397.698	102.06
397.922	99.06
398.147	95.06
398.371	81.06
398.595	90.06
398.82	87.06
399.044	73.06
399.268	90.06
399.492	80.06
399.717	92.06
399.941	81.06
400.165	89.06
400.389	90.06
400.613	97.06
400.837	98.06
401.062	95.06
401.286	87.06
401.51	109.06
401.734	94.06
401.958	124.06
402.182	187.06
402.406	278.06
402.63	193.06
402.854	91.06
403.078	97.06
403.302	104.06
403.526	96.06
403.75	93.06
403.974	85.06
404.198	90.06
404.422	96.06
404.645	87.06
404.869	106.06
405.093	104.06
405.317	141.06
405.541	150.06
405.765	123.06
405.988	161.06
406.212	309.06
406.436	477.06
406.66	266.06
406.883	128.06
407.107	109.06
407.331	93.06
407.555	108.06
407.778	114.06
408.002	105.06
408.226	106.06
408.449	100.06
408.673	86.06
408.896	106.06
409.12	93.06
409.344	88.06
409.567	80.06
409.791	84.06
410.014	97.06
410.238	89.06
410.461	85.06
410.685	84.06
410.908	102.06
411.132	127.06
411.355	102.06
411.578	100.06
411.802	93.06
412.025	108.06
412.249	118.06
412.472	106.06
412.695	131.06
412.919	115.06
413.142	106.06
413.365	93.06
413.589	90.06
413.812	92.06
414.035	87.06
414.258	96.06
414.482	98.06
414.705	92.06
414.928	91.06
415.151	87.06
415.374	94.06
415.597	96.06
415.821	106.06
416.044	102.06
416.267	101.06
416.49	107.06
416.713	93.06
416.936	82.06
417.159	98.06
417.382	105.06
417.605	118.06
417.828	123.06
418.051	105.06
418.274	85.06
418.497	85.06
418.72	82.06
418.943	90.06
419.166	96.06
419.389	93.06
419.611	92.06
419.834	88.06
420.057	90.06
420.28	89.06
420.503	87.06
420.726	100.06
420.948	95.06
421.171	104.06
421.394	116.06
421.617	90.06
421.839	83.06
422.062	86.06
422.285	90.06
422.507	105.06
422.73	114.06
422.953	90.06
423.175	94.06
423.398	92.06
423.621	95.06
423.843	80.06
424.066	87.06
424.288	104.06
424.511	100.06
424.733	114.06
424.956	125.06
425.178	129.06
425.401	118.06
425.623	105.06
425.846	99.06
426.068	99.06
426.291	95.06
426.513	105.06
426.735	105.06
426.958	102.06
427.18	130.06
427.402	205.06
427.625	315.06
427.847	252.06
428.069	209.06
428.292	137.06
428.514	115.06
428.736	95.06
428.958	94.06
429.181	88.06
429.403	95.06
429.625	96.06
429.847	114.06
430.069	115.06
430.292	104.06
430.514	104.06
430.736	96.06
430.958	81.06
431.18	90.06
431.402	96.06
431.624	86.06
431.846	92.06
432.068	97.06
432.29	82.06
432.512	89.06
432.734	102.06
432.956	93.06
433.178	104.06
433.4	106.06
433.622	101.06
433.844	109.06
434.066	91.06
434.287	98.06
434.509	87.06
434.731	113.06
434.953	99.06
435.175	82.06
435.397	82.06
435.618	104.06
435.84	106.06
436.062	137.06
436.284	118.06
436.505	100.06
436.727	107.06
436.949	100.06
437.17	108.06
437.392	90.06
437.614	122.06
437.835	145.06
438.057	176.06
438.278	136.06
438.5	117.06
438.721	140.06
438.943	111.06
439.165	84.06
439.386	92.06
439.608	107.06
439.829	113.06
440.05	161.06
440.272	179.06
440.493	112.06
440.715	104.06
440.936	97.06
441.158	91.06
441.379	92.06
441.6	127.06
441.822	113.06
442.043	119.06
442.264	124.06
442.486	117.06
442.707	98.06
442.928	137.06
443.149	198.06
443.371	187.06
443.592	146.06
443.813	137.06
444.034	107.06
444.255	94.06
444.476	100.06
444.698	110.06
444.919	94.06
445.14	152.06
445.361	141.06
445.582	144.06
445.803	188.06
446.024	180.06
446.245	167.06
446.466	124.06
446.687	107.06
446.908	105.06
447.129	103.06
447.35	104.06
447.571	100.06
447.792	106.06
448.013	117.06
448.234	134.06
448.455	130.06
448.675	143.06
448.896	154.06
449.117	121.06
449.338	116.06
449.559	145.06
449.779	130.06
450	100.06
450.221	105.06
450.442	92.06
450.662	122.06
450.883	156.06
451.104	156.06
451.324	123.06
451.545	94.06
451.766	80.06
451.986	104.06
452.207	98.06
452.428	99.06
452.648	121.06
452.869	155.06
453.089	159.06
453.31	182.06
453.53	121.06
453.751	118.06
453.971	125.06
454.192	174.06
454.412	122.06
454.633	89.06
454.853	89.06
455.073	85.06
455.294	96.06
455.514	118.06
455.734	95.06
455.955	98.06
456.175	92.06
456.395	89.06
456.616	98.06
456.836	93.06
457.056	103.06
457.276	74.06
457.497	95.06
457.717	88.06
457.937	99.06
458.157	83.06
458.377	118.06
458.598	146.06
458.818	271.06
459.038	282.06
459.258	161.06
459.478	96.06
459.698	97.06
459.918	95.06
460.138	92.06
460.358	90.06
460.578	106.06
460.798	111.06
461.018	94.06
461.238	88.06
461.458	84.06
461.678	87.06
461.898	103.06
462.118	97.06
462.338	87.06
462.558	89.06
462.777	97.06
462.997	107.06
463.217	129.06
463.437	96.06
463.657	88.06
463.876	88.06
464.096	106.06
464.316	120.06
464.536	114.06
464.755	103.06
464.975	151.06
465.195	317.06
465.414	336.06
465.634	137.06
465.854	111.06
466.073	98.06
466.293	84.06
466.512	85.06
466.732	91.06
466.951	108.06
467.171	108.06
467.391	133.06
467.61	176.06
467.829	272.06
468.049	781.06
468.268	1217.06
468.488	281.06
468.707	122.06
468.927	101.06
469.146	106.06
469.365	96.06
469.585	105.06
469.804	126.06
470.023	137.06
470.243	108.06
470.462	143.06
470.681	174.06
470.901	125.06
471.12	96.06
471.339	99.06
471.558	131.06
471.777	178.06
471.997	360.06
472.216	1500.06
472.435	3526.06
472.654	782.06
472.873	179.06
473.092	116.06
473.311	103.06
473.53	94.06
473.749	99.06
473.968	122.06
474.187	140.06
474.406	117.06
474.625	100.06
474.844	98.06
475.063	91.06
475.282	84.06
475.501	81.06
475.72	96.06
475.939	88.06
476.158	107.06
476.377	101.06
476.596	90.06
476.814	109.06
477.033	113.06
477.252	96.06
477.471	105.06
477.69	84.06
477.908	96.06
478.127	95.06
478.346	104.06
478.564	105.06
478.783	114.06
479.002	108.06
479.22	127.06
479.439	148.06
479.658	174.06
479.876	148.06
480.095	127.06
480.313	171.06
480.532	205.06
480.751	363.06
480.969	1344.06
481.188	5944.06
481.406	3292.06
481.624	457.06
481.843	158.06
482.061	128.06
482.28	121.06
482.498	103.06
482.717	100.06
482.935	98.06
483.153	105.06
483.372	107.06
483.59	110.06
483.808	105.06
484.027	104.06
484.245	118.06
484.463	101.06
484.681	100.06
484.9	95.06
485.118	98.06
485.336	106.06
485.554	107.06
485.772	95.06
485.99	107.06
486.209	127.06
486.427	113.06
486.645	137.06
486.863	151.06
487.081	125.06
487.299	118.06
487.517	99.06
487.735	95.06
487.953	86.06
488.171	91.06
488.389	113.06
488.607	104.06
488.825	97.06
489.043	97.06
489.261	97.06
489.479	81.06
489.696	88.06
489.914	94.06
490.132	87.06
490.35	97.06
490.568	93.06
490.786	85.06
491.003	96.06
491.221	111.06
491.439	110.06
491.657	91.06
491.874	94.06
492.092	101.06
492.31	102.06
492.527	100.06
492.745	103.06
492.963	116.06
493.18	98.06
493.398	99.06
493.615	103.06
493.833	114.06
494.05	84.06
494.268	77.06
494.485	85.06
494.703	91.06
494.92	90.06
495.138	87.06
495.355	97.06
495.573	88.06
495.79	99.06
496.008	104.06
496.225	98.06
496.442	91.06
496.66	93.06
496.877	95.06
497.094	94.06
497.312	84.06
497.529	96.06
497.746	92.06
497.963	86.06
498.181	96.06
498.398	116.06
498.615	108.06
498.832	110.06
499.049	96.06
499.267	97.06
499.484	98.06
499.701	95.06
499.918	88.06
500.135	94.06
500.352	104.06
500.569	104.06
500.786	90.06
501.003	92.06
501.22	92.06
501.437	86.06
501.654	113.06
501.871	151.06
502.088	116.06
502.305	104.06
502.522	90.06
502.739	95.06
502.956	93.06
503.172	96.06
503.389	102.06
503.606	142.06
503.823	118.06
504.04	98.06
504.256	103.06
504.473	95.06
504.69	105.06
504.907	89.06
505.123	99.06
505.34	92.06
505.557	106.06
505.773	101.06
505.99	91.06
506.207	111.06
506.423	88.06
506.64	95.06
506.856	108.06
507.073	95.06
507.289	112.06
507.506	107.06
507.722	151.06
507.939	158.06
508.155	125.06
508.372	107.06
508.588	99.06
508.805	97.06
509.021	114.06
509.238	118.06
509.454	127.06
509.67	121.06
509.887	141.06
510.103	183.06
510.319	346.06
510.536	1406.06
510.752	5162.06
510.968	1283.06
511.184	222.06
511.401	158.06
511.617	120.06
511.833	115.06
512.049	88.06
512.265	83.06
512.481	86.06
512.698	97.06
512.914	100.06
513.13	120.06
513.346	113.06
513.562	116.06
513.778	109.06
513.994	119.06
514.21	142.06
514.426	172.06
514.642	233.06
514.858	203.06
515.074	292.06
515.29	1076.06
515.506	4190.06
515.721	1366.06
515.937	292.06
516.153	172.06
516.369	134.06
516.585	115.06
516.801	113.06
517.016	101.06
517.232	103.06
517.448	90.06
517.664	111.06
517.879	115.06
518.095	95.06
518.311	113.06
518.527	108.06
518.742	88.06
518.958	99.06
519.173	108.06
519.389	104.06
519.605	106.06
519.82	120.06
520.036	128.06
520.251	190.06
520.467	148.06
520.682	146.06
520.898	135.06
521.113	163.06
521.329	234.06
521.544	413.06
521.76	1390.06
521.975	6900.06
522.19	3981.06
522.406	729.06
522.621	211.06
522.836	136.06
523.052	119.06
523.267	113.06
523.482	110.06
523.698	116.06
523.913	185.06
524.128	130.06
524.343	99.06
524.559	92.06
524.774	100.06
524.989	119.06
525.204	117.06
525.419	123.06
525.634	104.06
525.849	97.06
526.064	88.06
526.28	97.06
526.495	108.06
526.71	102.06
526.925	88.06
527.14	102.06
527.355	89.06
527.57	102.06
527.785	90.06
527.999	84.06
528.214	98.06
528.429	108.06
528.644	109.06
528.859	87.06
529.074	111.06
529.289	178.06
529.503	366.06
529.718	131.06
529.933	95.06
530.148	108.06
530.363	101.06
530.577	98.06
530.792	90.06
531.007	105.06
531.221	95.06
531.436	96.06
531.651	89.06
531.865	100.06
532.08	102.06
532.295	97.06
532.509	78.06
532.724	102.06
532.938	89.06
533.153	91.06
533.367	93.06
533.582	104.06
533.796	81.06
534.011	104.06
534.225	93.06
534.44	82.06
534.654	86.06
534.868	101.06
535.083	107.06
535.297	102.06
535.511	118.06
535.726	131.06
535.94	115.06
536.154	101.06
536.369	96.06
536.583	99.06
536.797	99.06
537.011	85.06
537.225	103.06
537.44	98.06
537.654	95.06
537.868	87.06
538.082	112.06
538.296	102.06
538.51	105.06
538.724	94.06
538.938	83.06
539.153	106.06
539.367	131.06
539.581	113.06
539.795	106.06
540.009	97.06
540.222	108.06
540.436	94.06
540.65	86.06
540.864	97.06
541.078	113.06
541.292	98.06
541.506	93.06
541.72	97.06
541.934	82.06
542.147	110.06
542.361	95.06
542.575	94.06
542.789	88.06
543.002	109.06
543.216	102.06
543.43	107.06
543.644	98.06
543.857	90.06
544.071	90.06
544.285	97.06
544.498	93.06
544.712	87.06
544.925	94.06
545.139	100.06
545.352	84.06
545.566	93.06
545.779	103.06
545.993	94.06
546.206	95.06
546.42	85.06
546.633	86.06
546.847	101.06
547.06	97.06
547.274	97.06
547.487	90.06
547.7	89.06
547.914	103.06
548.127	83.06
548.34	81.06
548.554	104.06
548.767	82.06
548.98	93.06
549.193	87.06
549.407	97.06
549.62	98.06
549.833	98.06
550.046	91.06
550.259	94.06
550.473	83.06
550.686	99.06
550.899	100.06
551.112	100.06
551.325	97.06
551.538	107.06
551.751	84.06
551.964	80.06
552.177	110.06
552.39	99.06
552.603	108.06
552.816	83.06
553.029	109.06
553.242	94.06
553.455	127.06
553.667	139.06
553.88	134.06
554.093	115.06
554.306	127.06
554.519	131.06
554.732	96.06
554.944	114.06
555.157	97.06
555.37	87.06
555.583	100.06
555.795	98.06
556.008	90.06
556.221	101.06
556.433	101.06
556.646	99.06
556.859	89.06
557.071	80.06
557.284	85.06
557.496	86.06
557.709	90.06
557.921	91.06
558.134	97.06
558.346	101.06
558.559	81.06
558.771	92.06
558.984	99.06
559.196	82.06
559.409	91.06
559.621	91.06
559.833	103.06
560.046	106.06
560.258	115.06
560.47	151.06
560.683	123.06
560.895	93.06
561.107	78.06
561.32	89.06
561.532	87.06
561.744	90.06
561.956	97.06
562.168	89.06
562.381	106.06
562.593	100.06
562.805	107.06
563.017	105.06
563.229	87.06
563.441	82.06
563.653	95.06
563.865	82.06
564.077	93.06
564.289	97.06
564.501	94.06
564.713	100.06
564.925	97.06
565.137	123.06
565.349	102.06
565.561	83.06
565.773	96.06
565.985	104.06
566.197	95.06
566.408	88.06
566.62	82.06
566.832	96.06
567.044	94.06
567.255	96.06
567.467	98.06
567.679	100.06
567.891	89.06
568.102	98.06
568.314	98.06
568.526	93.06
568.737	87.06
568.949	97.06
569.161	88.06
569.372	93.06
569.584	89.06
569.795	97.06
570.007	157.06
570.218	462.06
570.43	220.06
570.641	94.06
570.853	86.06
571.064	91.06
571.276	90.06
571.487	88.06
571.698	94.06
571.91	91.06
572.121	96.06
572.333	90.06
572.544	96.06
572.755	94.06
572.966	91.06
573.178	92.06
573.389	91.06
573.6	99.06
573.811	98.06
574.023	91.06
574.234	71.06
574.445	84.06
574.656	88.06
574.867	79.06
575.078	90.06
575.289	92.06
575.501	97.06
575.712	93.06
575.923	86.06
576.134	96.06
576.345	89.06
576.556	94.06
576.767	97.06
576.978	103.06
577.188	98.06
577.399	91.06
577.61	99.06
577.821	119.06
578.032	140.06
578.243	487.06
578.454	1646.06
578.665	379.06
578.875	122.06
579.086	97.06
579.297	96.06
579.508	104.06
579.718	66.06
579.929	97.06
580.14	90.06
580.35	87.06
580.561	86.06
580.772	82.06
580.982	83.06
581.193	91.06
581.403	94.06
581.614	78.06
581.825	88.06
582.035	82.06
582.246	91.06
582.456	92.06
582.667	92.06
582.877	81.06
583.087	86.06
583.298	100.06
583.508	79.06
583.719	95.06
583.929	86.06
584.139	91.06
584.35	101.06
584.56	78.06
584.77	88.06
584.981	88.06
585.191	96.06
585.401	101.06
585.611	91.06
585.821	92.06
586.032	93.06
586.242	96.06
586.452	100.06
586.662	86.06
586.872	90.06
587.082	97.06
587.292	75.06
587.502	93.06
587.713	88.06
587.923	88.06
588.133	99.06
588.343	106.06
588.553	94.06
588.762	93.06
588.972	138.06
589.182	305.06
589.392	187.06
589.602	130.06
589.812	204.06
590.022	108.06
590.232	101.06
590.441	81.06
590.651	82.06
590.861	96.06
591.071	81.06
591.281	88.06
591.49	79.06
591.7	81.06
591.91	82.06
592.119	95.06
592.329	81.06
592.539	112.06
592.748	92.06
592.958	81.06
593.167	92.06
593.377	100.06
593.587	89.06
593.796	81.06
594.006	83.06
594.215	90.06
594.424	84.06
594.634	95.06
594.843	95.06
595.053	90.06
595.262	99.06
595.472	103.06
595.681	83.06
595.89	95.06
596.1	86.06
596.309	80.06
596.518	81.06
596.727	83.06
596.937	88.06
597.146	83.06
597.355	97.06
597.564	87.06
597.774	99.06
597.983	96.06
598.192	78.06
598.401	87.06
598.61	96.06
598.819	87.06
599.028	92.06
599.237	99.06
599.446	87.06
599.655	103.06
599.864	88.06
600.073	70.06
600.282	99.06
600.491	90.06
600.7	94.06
600.909	110.06
601.118	90.06
601.327	88.06
601.536	83.06
601.745	89.06
601.953	93.06
602.162	82.06
602.371	88.06
602.58	88.06
602.789	87.06
602.997	91.06
603.206	94.06
603.415	98.06
603.623	85.06
603.832	75.06
604.041	87.06
604.249	83.06
604.458	89.06
604.666	91.06
604.875	93.06
605.084	79.06
605.292	87.06
605.501	85.06
605.709	84.06
605.918	95.06
606.126	83.06
606.334	72.06
606.543	95.06
606.751	99.06
606.96	82.06
607.168	98.06
607.376	103.06
607.585	95.06
607.793	93.06
608.001	90.06
608.21	86.06
608.418	82.06
608.626	85.06
608.834	82.06
609.043	81.06
609.251	77.06
609.459	88.06
609.667	96.06
609.875	96.06
610.083	86.06
610.291	87.06
610.499	87.06
610.707	96.06
610.916	83.06
611.124	83.06
611.332	89.06
611.54	103.06
611.748	89.06
611.955	93.06
612.163	90.06
612.371	83.06
612.579	77.06
612.787	85.06
612.995	84.06
613.203	92.06
613.411	80.06
613.618	82.06
613.826	94.06
614.034	70.06
614.242	86.06
614.449	97.06
614.657	95.06
614.865	89.06
615.072	90.06
615.28	74.06
615.488	86.06
615.695	86.06
615.903	92.06
616.111	80.06
616.318	92.06
616.526	96.06
616.733	89.06
616.941	80.06
617.148	88.06
617.356	83.06
617.563	90.06
617.771	89.06
617.978	80.06
618.185	82.06
618.393	88.06
618.6	87.06
618.807	102.06
619.015	90.06
619.222	90.06
619.429	82.06
619.637	90.06
619.844	90.06
620.051	88.06
620.258	93.06
620.466	95.06
620.673	93.06
620.88	85.06
621.087	90.06
621.294	80.06
621.501	96.06
621.708	77.06
621.915	82.06
622.122	99.06
622.329	102.06
622.536	78.06
622.743	89.06
622.95	70.06
623.157	78.06
623.364	92.06
623.571	78.06
623.778	86.06
623.985	91.06
624.192	73.06
624.399	77.06
624.606	82.06
624.812	87.06
625.019	82.06
625.226	78.06
625.433	107.06
625.639	88.06
625.846	86.06
626.053	87.06
626.259	75.06
626.466	90.06
626.673	92.06
626.879	91.06
627.086	101.06
627.293	81.06
627.499	88.06
627.706	100.06
627.912	86.06
628.119	90.06
628.325	99.06
628.532	96.06
628.738	86.06
628.945	93.06
629.151	95.06
629.357	85.06
629.564	85.06
629.77	87.06
629.976	83.06
630.183	87.06
630.389	75.06
630.595	89.06
630.802	85.06
631.008	84.06
631.214	106.06
631.42	86.06
631.627	85.06
631.833	90.06
632.039	77.06
632.245	88.06
632.451	91.06
632.657	86.06
632.863	97.06
633.069	88.06
633.275	93.06
633.481	91.06
633.688	91.06
633.893	85.06
634.099	84.06
634.305	74.06
634.511	95.06
634.717	88.06
634.923	84.06
635.129	82.06
635.335	79.06
635.541	87.06
635.747	98.06
635.952	108.06
636.158	150.06
636.364	510.06
636.57	436.06
636.775	157.06
636.981	104.06
637.187	91.06
637.392	94.06
637.598	90.06
637.804	89.06
638.009	92.06
638.215	102.06
638.421	100.06
638.626	87.06
638.832	86.06
639.037	72.06
639.243	83.06
639.448	94.06
639.654	96.06
639.859	83.06
640.065	76.06
640.27	82.06
640.475	90.06
640.681	83.06
640.886	86.06
641.091	93.06
641.297	88.06
641.502	74.06
641.707	74.06
641.913	97.06
642.118	80.06
642.323	88.06
642.528	92.06
642.733	82.06
642.939	80.06
643.144	81.06
643.349	82.06
643.554	105.06
643.759	88.06
643.964	91.06
644.169	91.06
644.374	85.06
644.579	91.06
644.784	82.06
644.989	88.06
645.194	79.06
645.399	84.06
645.604	91.06
645.809	98.06
646.014	79.06
646.219	77.06
646.423	72.06
646.628	81.06
646.833	88.06
647.038	84.06
647.243	97.06
647.447	89.06
647.652	105.06
647.857	87.06
648.062	94.06
648.266	84.06
648.471	106.06
648.676	103.06
648.88	90.06
649.085	84.06
649.289	90.06
649.494	114.06
649.698	124.06
649.903	104.06
650.107	79.06
650.312	84.06
650.516	67.06
650.721	80.06
650.925	77.06
651.13	74.06
651.334	84.06
651.539	84.06
651.743	83.06
651.947	91.06
652.152	86.06
652.356	88.06
652.56	75.06
652.764	81.06
652.969	93.06
653.173	79.06
653.377	92.06
653.581	82.06
653.785	93.06
653.99	83.06
654.194	83.06
654.398	76.06
654.602	82.06
654.806	86.06
655.01	108.06
655.214	97.06
655.418	89.06
655.622	82.06
655.826	90.06
656.03	91.06
656.234	91.06
656.438	116.06
656.642	94.06
656.846	101.06
657.049	106.06
657.253	95.06
657.457	106.06
657.661	85.06
657.865	98.06
658.068	82.06
658.272	96.06
658.476	82.06
658.68	78.06
658.883	91.06
659.087	76.06
659.291	80.06
659.494	89.06
659.698	68.06
659.901	88.06
660.105	84.06
660.309	91.06
660.512	83.06
660.716	78.06
660.919	83.06
661.123	85.06
661.326	96.06
661.53	98.06
661.733	77.06
661.936	69.06
662.14	71.06
662.343	78.06
662.546	57.06
662.75	100.06
662.953	88.06
663.156	88.06
663.36	73.06
663.563	86.06
663.766	83.06
663.969	87.06
664.173	72.06
664.376	73.06
664.579	74.06
664.782	91.06
664.985	75.06
665.188	89.06
665.391	77.06
665.594	78.06
665.797	89.06
666	99.06
666.203	80.06
666.406	93.06
666.609	78.06
666.812	89.06
667.015	79.06
667.218	95.06
667.421	91.06
667.624	87.06
667.827	84.06
668.03	71.06
668.232	89.06
668.435	57.06
668.638	83.06
668.841	66.06
669.043	80.06
669.246	80.06
669.449	95.06
669.651	94.06
669.854	70.06
670.057	97.06
670.259	96.06
670.462	82.06
670.665	78.06
670.867	95.06
671.07	82.06
671.272	87.06
671.475	92.06
671.677	78.06
671.88	86.06
672.082	85.06
672.284	90.06
672.487	77.06
672.689	88.06
672.892	95.06
