Data from Circ_1999_H10_HRD10591_00083.txt Node
Date: Wed Jan 03 11:23:29 EST 2024
User: Yrep
Spectrometer: HR+D1059
Trigger mode: 1
Integration Time (sec): 1.000000E-1
Scans to average: 1
Electric dark correction enabled: true
Nonlinearity correction enabled: false
Boxcar width: 0
XAxis mode: Wavelengths
Number of Pixels in Spectrum: 2048
>>>>>Begin Spectral Data<<<<<
223.165	-15
223.4	-15
223.635	-15
223.869	-12
224.104	-20
224.338	-25
224.573	-22
224.808	-19
225.042	0
225.277	-14
225.511	-7
225.746	15
225.98	2
226.215	9
226.449	16
226.683	19
226.918	43
227.152	30
227.387	37
227.621	41
227.856	50
228.09	44
228.324	51
228.559	67
228.793	62
229.027	68
229.262	80
229.496	66
229.73	109
229.964	107
230.199	84
230.433	77
230.667	83
230.901	87
231.136	83
231.37	90
231.604	88
231.838	82
232.072	83
232.306	88
232.541	72
232.775	81
233.009	83
233.243	74
233.477	93
233.711	84
233.945	80
234.179	76
234.413	74
234.647	76
234.881	76
235.115	79
235.349	72
235.583	79
235.817	93
236.051	83
236.285	93
236.519	76
236.753	73
236.987	88
237.221	94
237.455	96
237.689	77
237.922	93
238.156	74
238.39	81
238.624	96
238.858	75
239.091	79
239.325	105
239.559	104
239.793	96
240.027	89
240.26	71
240.494	69
240.728	71
240.961	84
241.195	77
241.429	83
241.662	78
241.896	100
242.13	95
242.363	57
242.597	83
242.83	79
243.064	88
243.298	87
243.531	71
243.765	84
243.998	75
244.232	84
244.465	102
244.699	83
244.932	99
245.166	83
245.399	91
245.633	79
245.866	85
246.099	85
246.333	73
246.566	74
246.8	86
247.033	74
247.266	89
247.5	88
247.733	82
247.966	91
248.2	81
248.433	82
248.666	79
248.899	85
249.133	94
249.366	95
249.599	103
249.832	98
250.066	80
250.299	87
250.532	91
250.765	90
250.998	99
251.231	84
251.465	102
251.698	96
251.931	101
252.164	107
252.397	87
252.63	98
252.863	87
253.096	83
253.329	80
253.562	80
253.795	82
254.028	87
254.261	72
254.494	85
254.727	87
254.96	85
255.193	82
255.426	91
255.659	105
255.892	93
256.124	103
256.357	76
256.59	83
256.823	98
257.056	87
257.289	96
257.521	100
257.754	82
257.987	103
258.22	93
258.452	119
258.685	110
258.918	92
259.151	93
259.383	89
259.616	99
259.849	84
260.081	94
260.314	98
260.547	90
260.779	103
261.012	124
261.244	113
261.477	112
261.71	125
261.942	159
262.175	169
262.407	112
262.64	93
262.872	101
263.105	88
263.337	75
263.57	83
263.802	92
264.035	96
264.267	84
264.499	77
264.732	79
264.964	101
265.197	99
265.429	83
265.661	86
265.894	88
266.126	82
266.358	77
266.591	97
266.823	88
267.055	98
267.287	88
267.52	99
267.752	79
267.984	87
268.216	83
268.448	90
268.681	86
268.913	98
269.145	81
269.377	94
269.609	82
269.841	91
270.073	85
270.306	87
270.538	87
270.77	92
271.002	96
271.234	91
271.466	112
271.698	101
271.93	99
272.162	89
272.394	98
272.626	90
272.858	85
273.09	85
273.322	83
273.553	85
273.785	94
274.017	86
274.249	100
274.481	94
274.713	87
274.945	103
275.176	97
275.408	116
275.64	130
275.872	139
276.104	128
276.335	116
276.567	147
276.799	186
277.031	210
277.262	279
277.494	192
277.726	103
277.957	99
278.189	94
278.421	107
278.652	95
278.884	108
279.115	100
279.347	96
279.579	118
279.81	160
280.042	239
280.273	331
280.505	227
280.736	128
280.968	91
281.199	95
281.431	113
281.662	108
281.894	100
282.125	130
282.356	169
282.588	224
282.819	156
283.051	108
283.282	86
283.513	101
283.745	97
283.976	100
284.207	93
284.439	87
284.67	95
284.901	79
285.132	91
285.364	95
285.595	84
285.826	100
286.057	104
286.288	91
286.52	101
286.751	91
286.982	94
287.213	101
287.444	82
287.675	101
287.906	96
288.138	104
288.369	97
288.6	110
288.831	95
289.062	89
289.293	88
289.524	91
289.755	84
289.986	86
290.217	87
290.448	83
290.679	87
290.91	97
291.141	101
291.371	90
291.602	97
291.833	86
292.064	97
292.295	98
292.526	96
292.757	99
292.987	96
293.218	93
293.449	99
293.68	100
293.91	98
294.141	114
294.372	89
294.603	87
294.833	120
295.064	89
295.295	98
295.525	108
295.756	121
295.987	134
296.217	212
296.448	178
296.679	123
296.909	96
297.14	96
297.37	94
297.601	88
297.831	96
298.062	107
298.292	110
298.523	89
298.753	107
298.984	94
299.214	89
299.445	100
299.675	106
299.905	112
300.136	92
300.366	86
300.597	110
300.827	112
301.057	124
301.288	127
301.518	122
301.748	93
301.979	111
302.209	99
302.439	94
302.669	98
302.9	95
303.13	99
303.36	115
303.59	159
303.82	169
304.051	120
304.281	97
304.511	95
304.741	85
304.971	101
305.201	95
305.431	88
305.661	95
305.891	94
306.121	115
306.352	128
306.582	147
306.812	132
307.042	149
307.272	219
307.502	238
307.731	225
307.961	144
308.191	111
308.421	101
308.651	108
308.881	113
309.111	103
309.341	109
309.571	108
309.8	124
310.03	120
310.26	122
310.49	108
310.72	112
310.949	147
311.179	131
311.409	107
311.639	102
311.868	98
312.098	112
312.328	113
312.557	132
312.787	144
313.017	127
313.246	117
313.476	107
313.706	87
313.935	121
314.165	123
314.394	132
314.624	124
314.853	121
315.083	107
315.312	100
315.542	106
315.771	102
316.001	108
316.23	100
316.46	79
316.689	101
316.919	104
317.148	106
317.377	111
317.607	112
317.836	111
318.065	100
318.295	83
318.524	99
318.753	94
318.983	96
319.212	123
319.441	133
319.67	127
319.9	112
320.129	105
320.358	107
320.587	115
320.816	120
321.046	123
321.275	100
321.504	107
321.733	107
321.962	103
322.191	123
322.42	116
322.649	131
322.878	149
323.108	148
323.337	167
323.566	189
323.795	221
324.024	302
324.253	545
324.482	1181
324.71	2395
324.939	3134
325.168	1176
325.397	329
325.626	199
325.855	169
326.084	153
326.313	173
326.542	203
326.77	283
326.999	553
327.228	1147
327.457	2123
327.686	1800
327.914	704
328.143	740
328.372	959
328.6	520
328.829	245
329.058	245
329.287	249
329.515	238
329.744	334
329.972	679
330.201	1439
330.43	2092
330.658	908
330.887	407
331.115	263
331.344	138
331.572	141
331.801	146
332.03	157
332.258	122
332.486	115
332.715	127
332.943	142
333.172	151
333.4	159
333.629	192
333.857	320
334.085	616
334.314	1281
334.542	2563
334.771	2365
334.999	571
335.227	218
335.455	153
335.684	128
335.912	125
336.14	127
336.369	140
336.597	143
336.825	116
337.053	105
337.281	107
337.51	115
337.738	116
337.966	105
338.194	135
338.422	120
338.65	93
338.878	99
339.106	97
339.334	86
339.562	118
339.79	98
340.018	113
340.246	120
340.474	120
340.702	105
340.93	107
341.158	101
341.386	102
341.614	113
341.842	97
342.07	102
342.298	102
342.526	95
342.754	103
342.981	92
343.209	99
343.437	99
343.665	91
343.893	101
344.12	101
344.348	98
344.576	98
344.804	108
345.031	101
345.259	131
345.487	104
345.714	110
345.942	90
346.17	101
346.397	100
346.625	97
346.853	109
347.08	101
347.308	100
347.535	110
347.763	109
347.99	120
348.218	120
348.445	131
348.673	132
348.9	114
349.128	100
349.355	99
349.583	110
349.81	112
350.037	110
350.265	102
350.492	117
350.72	109
350.947	115
351.174	129
351.402	138
351.629	111
351.856	108
352.083	147
352.311	132
352.538	147
352.765	132
352.992	139
353.22	136
353.447	116
353.674	111
353.901	90
354.128	92
354.355	106
354.583	120
354.81	105
355.037	117
355.264	90
355.491	87
355.718	94
355.945	99
356.172	85
356.399	79
356.626	96
356.853	91
357.08	87
357.307	97
357.534	86
357.761	81
357.988	89
358.215	84
358.441	95
358.668	80
358.895	93
359.122	99
359.349	95
359.576	97
359.802	135
360.029	157
360.256	161
360.483	133
360.709	100
360.936	106
361.163	115
361.39	113
361.616	123
361.843	109
362.07	118
362.296	115
362.523	106
362.749	106
362.976	105
363.203	105
363.429	88
363.656	105
363.882	98
364.109	105
364.335	94
364.562	109
364.788	109
365.015	104
365.241	115
365.468	153
365.694	130
365.92	108
366.147	116
366.373	113
366.599	114
366.826	85
367.052	95
367.278	109
367.505	96
367.731	102
367.957	114
368.184	112
368.41	113
368.636	140
368.862	152
369.089	141
369.315	143
369.541	113
369.767	96
369.993	86
370.219	101
370.445	96
370.672	99
370.898	99
371.124	93
371.35	105
371.576	107
371.802	89
372.028	98
372.254	89
372.48	85
372.706	87
372.932	92
373.158	84
373.384	99
373.61	93
373.835	83
374.061	108
374.287	103
374.513	87
374.739	94
374.965	91
375.191	91
375.416	98
375.642	97
375.868	102
376.094	107
376.319	80
376.545	108
376.771	93
376.997	87
377.222	88
377.448	95
377.674	95
377.899	93
378.125	85
378.35	106
378.576	105
378.802	90
379.027	93
379.253	97
379.478	103
379.704	95
379.929	101
380.155	93
380.38	113
380.606	99
380.831	98
381.057	104
381.282	101
381.507	105
381.733	115
381.958	96
382.184	108
382.409	97
382.634	116
382.86	105
383.085	95
383.31	95
383.535	100
383.761	100
383.986	110
384.211	87
384.436	88
384.662	94
384.887	87
385.112	98
385.337	101
385.562	98
385.787	110
386.013	122
386.238	125
386.463	116
386.688	108
386.913	97
387.138	115
387.363	112
387.588	100
387.813	95
388.038	108
388.263	117
388.488	107
388.713	107
388.938	112
389.163	98
389.387	88
389.612	80
389.837	91
390.062	84
390.287	88
390.512	99
390.736	79
390.961	101
391.186	97
391.411	85
391.636	97
391.86	98
392.085	96
392.31	94
392.534	97
392.759	97
392.984	88
393.208	90
393.433	95
393.658	92
393.882	103
394.107	83
394.331	93
394.556	98
394.78	94
395.005	84
395.229	79
395.454	94
395.678	91
395.903	96
396.127	97
396.352	101
396.576	83
396.801	99
397.025	81
397.249	82
397.474	94
397.698	87
397.922	96
398.147	97
398.371	109
398.595	89
398.82	89
399.044	86
399.268	91
399.492	99
399.717	99
399.941	111
400.165	93
400.389	103
400.613	88
400.837	96
401.062	81
401.286	99
401.51	99
401.734	115
401.958	122
402.182	195
402.406	287
402.63	181
402.854	117
403.078	93
403.302	91
403.526	93
403.75	100
403.974	83
404.198	93
404.422	95
404.645	84
404.869	107
405.093	126
405.317	163
405.541	169
405.765	148
405.988	183
406.212	283
406.436	447
406.66	279
406.883	138
407.107	118
407.331	117
407.555	122
407.778	125
408.002	100
408.226	111
408.449	90
408.673	91
408.896	91
409.12	96
409.344	96
409.567	88
409.791	90
410.014	99
410.238	88
410.461	97
410.685	84
410.908	98
411.132	122
411.355	103
411.578	114
411.802	91
412.025	107
412.249	99
412.472	115
412.695	156
412.919	107
413.142	97
413.365	95
413.589	81
413.812	88
414.035	99
414.258	97
414.482	94
414.705	108
414.928	104
415.151	104
415.374	88
415.597	106
415.821	100
416.044	95
416.267	82
416.49	95
416.713	89
416.936	90
417.159	107
417.382	103
417.605	113
417.828	129
418.051	105
418.274	97
418.497	84
418.72	97
418.943	91
419.166	91
419.389	80
419.611	94
419.834	90
420.057	103
420.28	91
420.503	99
420.726	84
420.948	105
421.171	116
421.394	111
421.617	93
421.839	101
422.062	92
422.285	100
422.507	105
422.73	119
422.953	102
423.175	81
423.398	91
423.621	96
423.843	94
424.066	93
424.288	111
424.511	101
424.733	118
424.956	145
425.178	128
425.401	113
425.623	108
425.846	99
426.068	118
426.291	106
426.513	100
426.735	109
426.958	107
427.18	132
427.402	216
427.625	323
427.847	291
428.069	245
428.292	147
428.514	94
428.736	89
428.958	98
429.181	81
429.403	98
429.625	97
429.847	87
430.069	124
430.292	104
430.514	84
430.736	91
430.958	108
431.18	99
431.402	103
431.624	98
431.846	86
432.068	103
432.29	115
432.512	111
432.734	100
432.956	103
433.178	98
433.4	109
433.622	105
433.844	98
434.066	115
434.287	111
434.509	88
434.731	99
434.953	92
435.175	85
435.397	90
435.618	90
435.84	106
436.062	148
436.284	130
436.505	97
436.727	100
436.949	102
437.17	88
437.392	91
437.614	114
437.835	140
438.057	171
438.278	141
438.5	128
438.721	149
438.943	122
439.165	104
439.386	83
439.608	103
439.829	126
440.05	157
440.272	207
440.493	125
440.715	98
440.936	92
441.158	99
441.379	93
441.6	124
441.822	111
442.043	105
442.264	132
442.486	127
442.707	108
442.928	131
443.149	203
443.371	168
443.592	132
443.813	140
444.034	123
444.255	93
444.476	86
444.698	95
444.919	97
445.14	147
445.361	135
445.582	151
445.803	196
446.024	201
446.245	191
446.466	137
446.687	95
446.908	92
447.129	98
447.35	98
447.571	115
447.792	90
448.013	127
448.234	148
448.455	130
448.675	139
448.896	152
449.117	115
449.338	105
449.559	143
449.779	162
450	96
450.221	104
450.442	108
450.662	109
450.883	143
451.104	173
451.324	107
451.545	97
451.766	95
451.986	100
452.207	100
452.428	111
452.648	126
452.869	147
453.089	151
453.31	170
453.53	116
453.751	123
453.971	140
454.192	171
454.412	120
454.633	100
454.853	96
455.073	100
455.294	104
455.514	121
455.734	110
455.955	97
456.175	84
456.395	97
456.616	77
456.836	80
457.056	96
457.276	76
457.497	93
457.717	96
457.937	107
458.157	98
458.377	107
458.598	155
458.818	275
459.038	285
459.258	174
459.478	112
459.698	83
459.918	90
460.138	90
460.358	82
460.578	90
460.798	91
461.018	88
461.238	98
461.458	105
461.678	107
461.898	93
462.118	95
462.338	67
462.558	97
462.777	94
462.997	114
463.217	121
463.437	109
463.657	112
463.876	113
464.096	97
464.316	97
464.536	112
464.755	119
464.975	151
465.195	318
465.414	304
465.634	119
465.854	89
466.073	100
466.293	84
466.512	94
466.732	91
466.951	111
467.171	127
467.391	121
467.61	191
467.829	284
468.049	857
468.268	1270
468.488	275
468.707	124
468.927	111
469.146	100
469.365	95
469.585	106
469.804	123
470.023	121
470.243	124
470.462	149
470.681	175
470.901	123
471.12	127
471.339	120
471.558	147
471.777	194
471.997	431
472.216	1646
472.435	3810
472.654	835
472.873	215
473.092	114
473.311	115
473.53	104
473.749	109
473.968	121
474.187	140
474.406	112
474.625	110
474.844	105
475.063	93
475.282	99
475.501	101
475.72	111
475.939	104
476.158	95
476.377	83
476.596	113
476.814	100
477.033	115
477.252	116
477.471	108
477.69	107
477.908	84
478.127	102
478.346	108
478.564	114
478.783	115
479.002	113
479.22	126
479.439	138
479.658	169
479.876	126
480.095	135
480.313	163
480.532	189
480.751	375
480.969	1476
481.188	6453
481.406	3596
481.624	476
481.843	166
482.061	130
482.28	112
482.498	100
482.717	109
482.935	101
483.153	106
483.372	90
483.59	107
483.808	91
484.027	104
484.245	107
484.463	109
484.681	94
484.9	108
485.118	113
485.336	104
485.554	102
485.772	102
485.99	115
486.209	112
486.427	124
486.645	129
486.863	153
487.081	112
487.299	105
487.517	92
487.735	103
487.953	102
488.171	105
488.389	103
488.607	114
488.825	118
489.043	108
489.261	95
489.479	95
489.696	100
489.914	91
490.132	75
490.35	83
490.568	92
490.786	86
491.003	90
491.221	102
491.439	113
491.657	104
491.874	102
492.092	94
492.31	109
492.527	110
492.745	104
492.963	105
493.18	91
493.398	95
493.615	93
493.833	87
494.05	103
494.268	101
494.485	94
494.703	103
494.92	94
495.138	87
495.355	89
495.573	89
495.79	101
496.008	123
496.225	88
496.442	105
496.66	96
496.877	92
497.094	99
497.312	101
497.529	107
497.746	105
497.963	108
498.181	104
498.398	86
498.615	109
498.832	124
499.049	104
499.267	115
499.484	98
499.701	96
499.918	98
500.135	105
500.352	104
500.569	114
500.786	92
501.003	97
501.22	90
501.437	98
501.654	121
501.871	160
502.088	113
502.305	100
502.522	99
502.739	94
502.956	90
503.172	115
503.389	119
503.606	141
503.823	127
504.04	116
504.256	99
504.473	87
504.69	94
504.907	103
505.123	99
505.34	94
505.557	94
505.773	101
505.99	99
506.207	84
506.423	102
506.64	112
506.856	107
507.073	94
507.289	103
507.506	99
507.722	184
507.939	161
508.155	102
508.372	104
508.588	107
508.805	107
509.021	121
509.238	109
509.454	119
509.67	116
509.887	133
510.103	176
510.319	322
510.536	1337
510.752	4963
510.968	1256
511.184	227
511.401	144
511.617	123
511.833	117
512.049	101
512.265	93
512.481	99
512.698	103
512.914	118
513.13	109
513.346	110
513.562	101
513.778	112
513.994	116
514.21	128
514.426	185
514.642	242
514.858	195
515.074	294
515.29	1035
515.506	3968
515.721	1335
515.937	285
516.153	162
516.369	126
516.585	118
516.801	133
517.016	113
517.232	119
517.448	104
517.664	100
517.879	105
518.095	106
518.311	101
518.527	131
518.742	114
518.958	109
519.173	107
519.389	114
519.605	109
519.82	126
520.036	140
520.251	151
520.467	159
520.682	139
520.898	128
521.113	171
521.329	227
521.544	423
521.76	1395
521.975	6732
522.19	3877
522.406	702
522.621	222
522.836	144
523.052	116
523.267	100
523.482	93
523.698	121
523.913	188
524.128	140
524.343	120
524.559	112
524.774	103
524.989	123
525.204	143
525.419	122
525.634	100
525.849	83
526.064	122
526.28	97
526.495	92
526.71	89
526.925	99
527.14	87
527.355	108
527.57	101
527.785	105
527.999	80
528.214	88
528.429	112
528.644	101
528.859	102
529.074	116
529.289	171
529.503	392
529.718	153
529.933	103
530.148	93
530.363	99
530.577	97
530.792	86
531.007	83
531.221	98
531.436	101
531.651	108
531.865	103
532.08	94
532.295	89
532.509	93
532.724	100
532.938	103
533.153	87
533.367	93
533.582	95
533.796	84
534.011	92
534.225	88
534.44	92
534.654	83
534.868	99
535.083	95
535.297	126
535.511	122
535.726	132
535.94	115
536.154	110
536.369	104
536.583	101
536.797	101
537.011	99
537.225	97
537.44	85
537.654	90
537.868	103
538.082	103
538.296	96
538.51	94
538.724	90
538.938	97
539.153	116
539.367	132
539.581	109
539.795	98
540.009	84
540.222	96
540.436	93
540.65	91
540.864	102
541.078	114
541.292	103
541.506	100
541.72	94
541.934	92
542.147	98
542.361	92
542.575	95
542.789	104
543.002	99
543.216	106
543.43	115
543.644	91
543.857	101
544.071	96
544.285	86
544.498	100
544.712	105
544.925	99
545.139	94
545.352	95
545.566	90
545.779	92
545.993	90
546.206	94
546.42	106
546.633	91
546.847	97
547.06	107
547.274	95
547.487	86
547.7	92
547.914	100
548.127	86
548.34	100
548.554	84
548.767	105
548.98	95
549.193	103
549.407	91
549.62	91
549.833	85
550.046	96
550.259	90
550.473	114
550.686	96
550.899	95
551.112	95
551.325	100
551.538	110
551.751	102
551.964	95
552.177	100
552.39	98
552.603	90
552.816	97
553.029	98
553.242	79
553.455	111
553.667	128
553.88	132
554.093	117
554.306	127
554.519	132
554.732	106
554.944	89
555.157	108
555.37	86
555.583	96
555.795	108
556.008	102
556.221	81
556.433	96
556.646	93
556.859	91
557.071	80
557.284	91
557.496	99
557.709	95
557.921	108
558.134	98
558.346	100
558.559	99
558.771	96
558.984	81
559.196	95
559.409	91
559.621	103
559.833	106
560.046	104
560.258	128
560.47	167
560.683	118
560.895	93
561.107	90
561.32	92
561.532	85
561.744	90
561.956	101
562.168	88
562.381	91
562.593	77
562.805	95
563.017	93
563.229	99
563.441	99
563.653	113
563.865	100
564.077	85
564.289	98
564.501	91
564.713	87
564.925	106
565.137	137
565.349	85
565.561	98
565.773	106
565.985	90
566.197	90
566.408	77
566.62	104
566.832	99
567.044	92
567.255	83
567.467	90
567.679	97
567.891	88
568.102	82
568.314	84
568.526	94
568.737	83
568.949	101
569.161	81
569.372	88
569.584	89
569.795	103
570.007	144
570.218	435
570.43	205
570.641	97
570.853	91
571.064	90
571.276	81
571.487	82
571.698	108
571.91	108
572.121	87
572.333	96
572.544	92
572.755	85
572.966	97
573.178	94
573.389	114
573.6	86
573.811	92
574.023	89
574.234	87
574.445	88
574.656	93
574.867	93
575.078	85
575.289	73
575.501	93
575.712	97
575.923	100
576.134	97
576.345	86
576.556	100
576.767	97
576.978	98
577.188	109
577.399	100
577.61	101
577.821	115
578.032	153
578.243	459
578.454	1552
578.665	352
578.875	135
579.086	100
579.297	90
579.508	96
579.718	98
579.929	96
580.14	93
580.35	96
580.561	99
580.772	80
580.982	83
581.193	88
581.403	85
581.614	96
581.825	95
582.035	115
582.246	93
582.456	82
582.667	91
582.877	76
583.087	82
583.298	75
583.508	98
583.719	94
583.929	105
584.139	100
584.35	87
584.56	106
584.77	96
584.981	99
585.191	87
585.401	88
585.611	87
585.821	107
586.032	97
586.242	101
586.452	100
586.662	93
586.872	94
587.082	100
587.292	101
587.502	81
587.713	94
587.923	103
588.133	89
588.343	92
588.553	87
588.762	80
588.972	103
589.182	172
589.392	123
589.602	112
589.812	137
590.022	99
590.232	91
590.441	101
590.651	83
590.861	86
591.071	90
591.281	106
591.49	92
591.7	80
591.91	83
592.119	86
592.329	106
592.539	111
592.748	99
592.958	105
593.167	79
593.377	91
593.587	104
593.796	100
594.006	96
594.215	92
594.424	88
594.634	98
594.843	92
595.053	87
595.262	96
595.472	89
595.681	77
595.89	85
596.1	86
596.309	87
596.518	99
596.727	95
596.937	90
597.146	96
597.355	80
597.564	99
597.774	100
597.983	80
598.192	93
598.401	89
598.61	96
598.819	91
599.028	101
599.237	106
599.446	92
599.655	98
599.864	88
600.073	93
600.282	96
600.491	85
600.7	91
600.909	86
601.118	96
601.327	85
601.536	83
601.745	82
601.953	97
602.162	90
602.371	93
602.58	84
602.789	87
602.997	84
603.206	88
603.415	83
603.623	97
603.832	96
604.041	109
604.249	91
604.458	83
604.666	92
604.875	91
605.084	84
605.292	87
605.501	92
605.709	83
605.918	82
606.126	89
606.334	77
606.543	79
606.751	82
606.96	100
607.168	97
607.376	104
607.585	107
607.793	110
608.001	85
608.21	91
608.418	100
608.626	83
608.834	90
609.043	94
609.251	95
609.459	83
609.667	80
609.875	94
610.083	94
610.291	79
610.499	85
610.707	88
610.916	87
611.124	99
611.332	98
611.54	79
611.748	92
611.955	94
612.163	96
612.371	76
612.579	88
612.787	92
612.995	93
613.203	91
613.411	89
613.618	94
613.826	104
614.034	95
614.242	93
614.449	91
614.657	107
614.865	94
615.072	93
615.28	92
615.488	95
615.695	86
615.903	115
616.111	90
616.318	106
616.526	93
616.733	88
616.941	103
617.148	94
617.356	82
617.563	101
617.771	86
617.978	85
618.185	96
618.393	101
618.6	82
618.807	97
619.015	89
619.222	92
619.429	91
619.637	92
619.844	98
620.051	98
620.258	91
620.466	84
620.673	97
620.88	95
621.087	72
621.294	73
621.501	90
621.708	96
621.915	98
622.122	89
622.329	97
622.536	90
622.743	97
622.95	82
623.157	87
623.364	93
623.571	102
623.778	90
623.985	85
624.192	93
624.399	85
624.606	107
624.812	84
625.019	92
625.226	88
625.433	90
625.639	90
625.846	84
626.053	91
626.259	106
626.466	100
626.673	87
626.879	77
627.086	80
627.293	82
627.499	96
627.706	100
627.912	82
628.119	81
628.325	77
628.532	97
628.738	84
628.945	80
629.151	90
629.357	81
629.564	79
629.77	77
629.976	87
630.183	86
630.389	84
630.595	85
630.802	85
631.008	80
631.214	90
631.42	89
631.627	99
631.833	87
632.039	70
632.245	83
632.451	78
632.657	88
632.863	91
633.069	82
633.275	91
633.481	76
633.688	95
633.893	86
634.099	78
634.305	96
634.511	84
634.717	100
634.923	74
635.129	87
635.335	89
635.541	105
635.747	98
635.952	109
636.158	165
636.364	562
636.57	466
636.775	157
636.981	104
637.187	97
637.392	92
637.598	81
637.804	81
638.009	104
638.215	90
638.421	84
638.626	77
638.832	79
639.037	92
639.243	83
639.448	99
639.654	92
639.859	93
640.065	100
640.27	95
640.475	82
640.681	79
640.886	78
641.091	74
641.297	88
641.502	94
641.707	87
641.913	88
642.118	103
642.323	100
642.528	100
642.733	103
642.939	87
643.144	80
643.349	75
643.554	88
643.759	91
643.964	79
644.169	106
644.374	92
644.579	88
644.784	88
644.989	88
645.194	93
645.399	89
645.604	92
645.809	97
646.014	93
646.219	83
646.423	94
646.628	93
646.833	79
647.038	83
647.243	93
647.447	89
647.652	91
647.857	83
648.062	93
648.266	84
648.471	107
648.676	113
648.88	98
649.085	95
649.289	91
649.494	116
649.698	148
649.903	97
650.107	87
650.312	90
650.516	82
650.721	92
650.925	81
651.13	78
651.334	106
651.539	85
651.743	80
651.947	77
652.152	91
652.356	81
652.56	87
652.764	82
652.969	94
653.173	86
653.377	74
653.581	83
653.785	88
653.99	93
654.194	87
654.398	91
654.602	98
654.806	94
655.01	114
655.214	90
655.418	89
655.622	87
655.826	72
656.03	91
656.234	88
656.438	106
656.642	92
656.846	96
657.049	82
657.253	76
657.457	84
657.661	103
657.865	88
658.068	83
658.272	95
658.476	88
658.68	68
658.883	77
659.087	72
659.291	88
659.494	82
659.698	89
659.901	83
660.105	66
660.309	84
660.512	88
660.716	95
660.919	78
661.123	78
661.326	101
661.53	82
661.733	89
661.936	93
662.14	86
662.343	83
662.546	81
662.75	80
662.953	79
663.156	67
663.36	78
663.563	97
663.766	92
663.969	92
664.173	79
664.376	87
664.579	76
664.782	80
664.985	85
665.188	88
665.391	88
665.594	84
665.797	90
666	78
666.203	88
666.406	72
666.609	80
666.812	77
667.015	85
667.218	76
667.421	77
667.624	73
667.827	91
668.03	78
668.232	74
668.435	84
668.638	83
668.841	105
669.043	92
669.246	77
669.449	73
669.651	68
669.854	80
670.057	83
670.259	83
670.462	88
670.665	82
670.867	70
671.07	80
671.272	95
671.475	81
671.677	78
671.88	84
672.082	98
672.284	83
672.487	81
672.689	97
672.892	100
