Data from Circ_1981_H10_HRD10591_00088.txt Node
Date: Wed Jan 03 12:34:38 EST 2024
User: Yrep
Spectrometer: HR+D1059
Trigger mode: 1
Integration Time (sec): 1.000000E-1
Scans to average: 1
Electric dark correction enabled: true
Nonlinearity correction enabled: false
Boxcar width: 0
XAxis mode: Wavelengths
Number of Pixels in Spectrum: 2048
>>>>>Begin Spectral Data<<<<<
223.165	-17.88
223.4	-17.88
223.635	-17.88
223.869	-24.88
224.104	-24.88
224.338	-6.88
224.573	-8.88
224.808	-8.88
225.042	-14.88
225.277	-24.88
225.511	0.12
225.746	5.12
225.98	14.12
226.215	20.12
226.449	10.12
226.683	28.12
226.918	20.12
227.152	34.12
227.387	36.12
227.621	44.12
227.856	49.12
228.09	44.12
228.324	57.12
228.559	44.12
228.793	62.12
229.027	51.12
229.262	66.12
229.496	69.12
229.73	85.12
229.964	102.12
230.199	86.12
230.433	82.12
230.667	89.12
230.901	63.12
231.136	92.12
231.37	74.12
231.604	77.12
231.838	72.12
232.072	80.12
232.306	93.12
232.541	74.12
232.775	72.12
233.009	86.12
233.243	86.12
233.477	80.12
233.711	70.12
233.945	95.12
234.179	72.12
234.413	99.12
234.647	86.12
234.881	76.12
235.115	86.12
235.349	70.12
235.583	72.12
235.817	68.12
236.051	78.12
236.285	73.12
236.519	80.12
236.753	84.12
236.987	71.12
237.221	76.12
237.455	100.12
237.689	74.12
237.922	88.12
238.156	69.12
238.39	85.12
238.624	64.12
238.858	83.12
239.091	70.12
239.325	84.12
239.559	82.12
239.793	66.12
240.027	70.12
240.26	98.12
240.494	81.12
240.728	85.12
240.961	87.12
241.195	97.12
241.429	90.12
241.662	76.12
241.896	72.12
242.13	67.12
242.363	77.12
242.597	80.12
242.83	76.12
243.064	76.12
243.298	74.12
243.531	84.12
243.765	72.12
243.998	90.12
244.232	71.12
244.465	83.12
244.699	98.12
244.932	77.12
245.166	84.12
245.399	82.12
245.633	72.12
245.866	74.12
246.099	77.12
246.333	74.12
246.566	69.12
246.8	78.12
247.033	81.12
247.266	77.12
247.5	73.12
247.733	81.12
247.966	84.12
248.2	81.12
248.433	72.12
248.666	88.12
248.899	76.12
249.133	67.12
249.366	96.12
249.599	107.12
249.832	85.12
250.066	77.12
250.299	72.12
250.532	73.12
250.765	93.12
250.998	81.12
251.231	73.12
251.465	85.12
251.698	75.12
251.931	82.12
252.164	75.12
252.397	86.12
252.63	77.12
252.863	60.12
253.096	96.12
253.329	76.12
253.562	88.12
253.795	76.12
254.028	92.12
254.261	69.12
254.494	66.12
254.727	88.12
254.96	69.12
255.193	83.12
255.426	80.12
255.659	77.12
255.892	70.12
256.124	67.12
256.357	87.12
256.59	82.12
256.823	81.12
257.056	91.12
257.289	77.12
257.521	76.12
257.754	76.12
257.987	65.12
258.22	75.12
258.452	85.12
258.685	87.12
258.918	89.12
259.151	87.12
259.383	81.12
259.616	79.12
259.849	85.12
260.081	84.12
260.314	80.12
260.547	68.12
260.779	85.12
261.012	90.12
261.244	74.12
261.477	93.12
261.71	86.12
261.942	106.12
262.175	128.12
262.407	96.12
262.64	101.12
262.872	89.12
263.105	92.12
263.337	80.12
263.57	88.12
263.802	97.12
264.035	92.12
264.267	74.12
264.499	84.12
264.732	71.12
264.964	84.12
265.197	74.12
265.429	80.12
265.661	82.12
265.894	77.12
266.126	72.12
266.358	84.12
266.591	82.12
266.823	70.12
267.055	77.12
267.287	88.12
267.52	83.12
267.752	76.12
267.984	87.12
268.216	79.12
268.448	94.12
268.681	84.12
268.913	80.12
269.145	84.12
269.377	71.12
269.609	88.12
269.841	84.12
270.073	99.12
270.306	98.12
270.538	76.12
270.77	93.12
271.002	84.12
271.234	98.12
271.466	82.12
271.698	75.12
271.93	94.12
272.162	83.12
272.394	90.12
272.626	86.12
272.858	96.12
273.09	86.12
273.322	78.12
273.553	95.12
273.785	91.12
274.017	99.12
274.249	81.12
274.481	73.12
274.713	88.12
274.945	93.12
275.176	92.12
275.408	94.12
275.64	86.12
275.872	86.12
276.104	91.12
276.335	88.12
276.567	110.12
276.799	122.12
277.031	90.12
277.262	98.12
277.494	100.12
277.726	86.12
277.957	81.12
278.189	92.12
278.421	83.12
278.652	82.12
278.884	90.12
279.115	92.12
279.347	92.12
279.579	85.12
279.81	98.12
280.042	98.12
280.273	92.12
280.505	90.12
280.736	86.12
280.968	89.12
281.199	83.12
281.431	94.12
281.662	98.12
281.894	90.12
282.125	90.12
282.356	126.12
282.588	158.12
282.819	127.12
283.051	90.12
283.282	94.12
283.513	86.12
283.745	81.12
283.976	90.12
284.207	88.12
284.439	88.12
284.67	87.12
284.901	90.12
285.132	85.12
285.364	92.12
285.595	92.12
285.826	77.12
286.057	89.12
286.288	106.12
286.52	81.12
286.751	84.12
286.982	94.12
287.213	100.12
287.444	115.12
287.675	88.12
287.906	102.12
288.138	81.12
288.369	85.12
288.6	100.12
288.831	79.12
289.062	105.12
289.293	77.12
289.524	72.12
289.755	84.12
289.986	89.12
290.217	94.12
290.448	93.12
290.679	72.12
290.91	93.12
291.141	70.12
291.371	94.12
291.602	102.12
291.833	86.12
292.064	90.12
292.295	92.12
292.526	105.12
292.757	94.12
292.987	92.12
293.218	87.12
293.449	91.12
293.68	96.12
293.91	92.12
294.141	86.12
294.372	85.12
294.603	84.12
294.833	90.12
295.064	93.12
295.295	81.12
295.525	97.12
295.756	102.12
295.987	125.12
296.217	157.12
296.448	131.12
296.679	89.12
296.909	100.12
297.14	85.12
297.37	104.12
297.601	77.12
297.831	88.12
298.062	84.12
298.292	90.12
298.523	98.12
298.753	105.12
298.984	90.12
299.214	94.12
299.445	97.12
299.675	82.12
299.905	93.12
300.136	96.12
300.366	84.12
300.597	93.12
300.827	96.12
301.057	100.12
301.288	123.12
301.518	110.12
301.748	88.12
301.979	98.12
302.209	92.12
302.439	96.12
302.669	86.12
302.9	80.12
303.13	88.12
303.36	92.12
303.59	94.12
303.82	117.12
304.051	100.12
304.281	83.12
304.511	84.12
304.741	89.12
304.971	89.12
305.201	86.12
305.431	85.12
305.661	84.12
305.891	90.12
306.121	98.12
306.352	104.12
306.582	99.12
306.812	98.12
307.042	81.12
307.272	108.12
307.502	100.12
307.731	98.12
307.961	79.12
308.191	88.12
308.421	99.12
308.651	93.12
308.881	93.12
309.111	96.12
309.341	98.12
309.571	90.12
309.8	96.12
310.03	110.12
310.26	108.12
310.49	124.12
310.72	99.12
310.949	97.12
311.179	116.12
311.409	102.12
311.639	99.12
311.868	94.12
312.098	90.12
312.328	87.12
312.557	109.12
312.787	115.12
313.017	102.12
313.246	105.12
313.476	93.12
313.706	94.12
313.935	92.12
314.165	107.12
314.394	122.12
314.624	105.12
314.853	100.12
315.083	90.12
315.312	101.12
315.542	88.12
315.771	107.12
316.001	85.12
316.23	86.12
316.46	89.12
316.689	93.12
316.919	110.12
317.148	104.12
317.377	114.12
317.607	102.12
317.836	86.12
318.065	108.12
318.295	101.12
318.524	91.12
318.753	94.12
318.983	100.12
319.212	104.12
319.441	106.12
319.67	103.12
319.9	91.12
320.129	91.12
320.358	106.12
320.587	120.12
320.816	119.12
321.046	120.12
321.275	110.12
321.504	88.12
321.733	96.12
321.962	105.12
322.191	89.12
322.42	106.12
322.649	99.12
322.878	115.12
323.108	117.12
323.337	135.12
323.566	146.12
323.795	164.12
324.024	216.12
324.253	442.12
324.482	968.12
324.71	1983.12
324.939	2757.12
325.168	983.12
325.397	288.12
325.626	178.12
325.855	139.12
326.084	130.12
326.313	144.12
326.542	147.12
326.77	266.12
326.999	519.12
327.228	1028.12
327.457	1997.12
327.686	1541.12
327.914	423.12
328.143	232.12
328.372	170.12
328.6	145.12
328.829	140.12
329.058	150.12
329.287	163.12
329.515	122.12
329.744	115.12
329.972	104.12
330.201	131.12
330.43	169.12
330.658	161.12
330.887	194.12
331.115	162.12
331.344	104.12
331.572	111.12
331.801	106.12
332.03	117.12
332.258	107.12
332.486	100.12
332.715	91.12
332.943	92.12
333.172	91.12
333.4	102.12
333.629	104.12
333.857	124.12
334.085	120.12
334.314	130.12
334.542	158.12
334.771	156.12
334.999	121.12
335.227	102.12
335.455	96.12
335.684	85.12
335.912	92.12
336.14	93.12
336.369	107.12
336.597	105.12
336.825	110.12
337.053	104.12
337.281	118.12
337.51	88.12
337.738	103.12
337.966	105.12
338.194	120.12
338.422	101.12
338.65	99.12
338.878	105.12
339.106	97.12
339.334	98.12
339.562	81.12
339.79	89.12
340.018	102.12
340.246	107.12
340.474	102.12
340.702	104.12
340.93	94.12
341.158	89.12
341.386	100.12
341.614	90.12
341.842	96.12
342.07	79.12
342.298	90.12
342.526	95.12
342.754	87.12
342.981	94.12
343.209	82.12
343.437	96.12
343.665	106.12
343.893	94.12
344.12	95.12
344.348	99.12
344.576	95.12
344.804	100.12
345.031	101.12
345.259	103.12
345.487	117.12
345.714	88.12
345.942	98.12
346.17	100.12
346.397	98.12
346.625	97.12
346.853	94.12
347.08	103.12
347.308	97.12
347.535	105.12
347.763	113.12
347.99	93.12
348.218	100.12
348.445	114.12
348.673	109.12
348.9	105.12
349.128	93.12
349.355	82.12
349.583	94.12
349.81	97.12
350.037	108.12
350.265	90.12
350.492	98.12
350.72	96.12
350.947	112.12
351.174	141.12
351.402	127.12
351.629	111.12
351.856	100.12
352.083	114.12
352.311	109.12
352.538	117.12
352.765	121.12
352.992	122.12
353.22	124.12
353.447	113.12
353.674	103.12
353.901	116.12
354.128	98.12
354.355	93.12
354.583	105.12
354.81	97.12
355.037	91.12
355.264	104.12
355.491	92.12
355.718	82.12
355.945	99.12
356.172	98.12
356.399	80.12
356.626	104.12
356.853	104.12
357.08	93.12
357.307	103.12
357.534	76.12
357.761	86.12
357.988	90.12
358.215	103.12
358.441	84.12
358.668	93.12
358.895	91.12
359.122	86.12
359.349	83.12
359.576	94.12
359.802	106.12
360.029	127.12
360.256	136.12
360.483	106.12
360.709	93.12
360.936	100.12
361.163	90.12
361.39	115.12
361.616	106.12
361.843	86.12
362.07	111.12
362.296	103.12
362.523	98.12
362.749	110.12
362.976	71.12
363.203	95.12
363.429	109.12
363.656	92.12
363.882	81.12
364.109	94.12
364.335	98.12
364.562	78.12
364.788	100.12
365.015	88.12
365.241	120.12
365.468	117.12
365.694	112.12
365.92	101.12
366.147	96.12
366.373	92.12
366.599	102.12
366.826	87.12
367.052	92.12
367.278	87.12
367.505	105.12
367.731	116.12
367.957	77.12
368.184	84.12
368.41	105.12
368.636	116.12
368.862	114.12
369.089	119.12
369.315	92.12
369.541	95.12
369.767	90.12
369.993	87.12
370.219	93.12
370.445	88.12
370.672	92.12
370.898	96.12
371.124	86.12
371.35	87.12
371.576	88.12
371.802	91.12
372.028	92.12
372.254	83.12
372.48	98.12
372.706	86.12
372.932	73.12
373.158	75.12
373.384	88.12
373.61	94.12
373.835	102.12
374.061	89.12
374.287	101.12
374.513	80.12
374.739	92.12
374.965	89.12
375.191	91.12
375.416	72.12
375.642	91.12
375.868	99.12
376.094	105.12
376.319	71.12
376.545	85.12
376.771	84.12
376.997	83.12
377.222	102.12
377.448	103.12
377.674	87.12
377.899	93.12
378.125	86.12
378.35	81.12
378.576	86.12
378.802	91.12
379.027	96.12
379.253	103.12
379.478	77.12
379.704	92.12
379.929	98.12
380.155	94.12
380.38	89.12
380.606	98.12
380.831	99.12
381.057	94.12
381.282	96.12
381.507	94.12
381.733	85.12
381.958	88.12
382.184	93.12
382.409	98.12
382.634	96.12
382.86	113.12
383.085	94.12
383.31	107.12
383.535	93.12
383.761	105.12
383.986	105.12
384.211	113.12
384.436	88.12
384.662	100.12
384.887	100.12
385.112	105.12
385.337	102.12
385.562	103.12
385.787	84.12
386.013	118.12
386.238	125.12
386.463	96.12
386.688	116.12
386.913	103.12
387.138	118.12
387.363	88.12
387.588	98.12
387.813	85.12
388.038	90.12
388.263	114.12
388.488	97.12
388.713	90.12
388.938	100.12
389.163	88.12
389.387	92.12
389.612	95.12
389.837	99.12
390.062	96.12
390.287	108.12
390.512	83.12
390.736	96.12
390.961	96.12
391.186	92.12
391.411	82.12
391.636	80.12
391.86	98.12
392.085	76.12
392.31	83.12
392.534	92.12
392.759	81.12
392.984	84.12
393.208	98.12
393.433	85.12
393.658	90.12
393.882	97.12
394.107	97.12
394.331	91.12
394.556	84.12
394.78	70.12
395.005	91.12
395.229	84.12
395.454	81.12
395.678	87.12
395.903	76.12
396.127	87.12
396.352	90.12
396.576	89.12
396.801	100.12
397.025	86.12
397.249	92.12
397.474	92.12
397.698	92.12
397.922	92.12
398.147	94.12
398.371	77.12
398.595	88.12
398.82	86.12
399.044	92.12
399.268	92.12
399.492	88.12
399.717	87.12
399.941	85.12
400.165	102.12
400.389	94.12
400.613	94.12
400.837	92.12
401.062	99.12
401.286	83.12
401.51	81.12
401.734	99.12
401.958	101.12
402.182	128.12
402.406	178.12
402.63	140.12
402.854	114.12
403.078	109.12
403.302	88.12
403.526	91.12
403.75	84.12
403.974	70.12
404.198	100.12
404.422	83.12
404.645	88.12
404.869	86.12
405.093	97.12
405.317	114.12
405.541	101.12
405.765	111.12
405.988	122.12
406.212	186.12
406.436	295.12
406.66	172.12
406.883	110.12
407.107	112.12
407.331	98.12
407.555	104.12
407.778	102.12
408.002	105.12
408.226	90.12
408.449	98.12
408.673	90.12
408.896	96.12
409.12	93.12
409.344	80.12
409.567	83.12
409.791	81.12
410.014	88.12
410.238	90.12
410.461	89.12
410.685	91.12
410.908	95.12
411.132	100.12
411.355	101.12
411.578	84.12
411.802	86.12
412.025	105.12
412.249	93.12
412.472	112.12
412.695	109.12
412.919	92.12
413.142	84.12
413.365	80.12
413.589	86.12
413.812	93.12
414.035	92.12
414.258	95.12
414.482	89.12
414.705	99.12
414.928	93.12
415.151	91.12
415.374	94.12
415.597	94.12
415.821	81.12
416.044	81.12
416.267	88.12
416.49	68.12
416.713	98.12
416.936	96.12
417.159	94.12
417.382	100.12
417.605	85.12
417.828	106.12
418.051	92.12
418.274	82.12
418.497	88.12
418.72	93.12
418.943	98.12
419.166	96.12
419.389	109.12
419.611	85.12
419.834	75.12
420.057	77.12
420.28	91.12
420.503	87.12
420.726	88.12
420.948	86.12
421.171	87.12
421.394	87.12
421.617	73.12
421.839	100.12
422.062	96.12
422.285	93.12
422.507	121.12
422.73	115.12
422.953	100.12
423.175	95.12
423.398	83.12
423.621	77.12
423.843	71.12
424.066	93.12
424.288	116.12
424.511	86.12
424.733	110.12
424.956	125.12
425.178	111.12
425.401	108.12
425.623	103.12
425.846	103.12
426.068	95.12
426.291	107.12
426.513	95.12
426.735	88.12
426.958	91.12
427.18	110.12
427.402	177.12
427.625	212.12
427.847	171.12
428.069	125.12
428.292	101.12
428.514	83.12
428.736	91.12
428.958	73.12
429.181	94.12
429.403	83.12
429.625	95.12
429.847	101.12
430.069	121.12
430.292	97.12
430.514	76.12
430.736	85.12
430.958	83.12
431.18	73.12
431.402	75.12
431.624	81.12
431.846	78.12
432.068	73.12
432.29	84.12
432.512	81.12
432.734	88.12
432.956	87.12
433.178	103.12
433.4	98.12
433.622	88.12
433.844	80.12
434.066	97.12
434.287	93.12
434.509	88.12
434.731	98.12
434.953	86.12
435.175	88.12
435.397	96.12
435.618	89.12
435.84	102.12
436.062	146.12
436.284	146.12
436.505	115.12
436.727	106.12
436.949	106.12
437.17	84.12
437.392	83.12
437.614	87.12
437.835	128.12
438.057	162.12
438.278	139.12
438.5	115.12
438.721	142.12
438.943	119.12
439.165	87.12
439.386	102.12
439.608	105.12
439.829	114.12
440.05	142.12
440.272	198.12
440.493	109.12
440.715	86.12
440.936	81.12
441.158	76.12
441.379	97.12
441.6	112.12
441.822	99.12
442.043	102.12
442.264	129.12
442.486	121.12
442.707	97.12
442.928	112.12
443.149	149.12
443.371	149.12
443.592	126.12
443.813	151.12
444.034	118.12
444.255	98.12
444.476	90.12
444.698	92.12
444.919	83.12
445.14	122.12
445.361	132.12
445.582	148.12
445.803	189.12
446.024	180.12
446.245	175.12
446.466	135.12
446.687	100.12
446.908	89.12
447.129	95.12
447.35	90.12
447.571	97.12
447.792	96.12
448.013	122.12
448.234	125.12
448.455	128.12
448.675	139.12
448.896	158.12
449.117	110.12
449.338	112.12
449.559	149.12
449.779	161.12
450	101.12
450.221	91.12
450.442	93.12
450.662	112.12
450.883	135.12
451.104	123.12
451.324	100.12
451.545	77.12
451.766	81.12
451.986	72.12
452.207	95.12
452.428	82.12
452.648	109.12
452.869	110.12
453.089	128.12
453.31	124.12
453.53	113.12
453.751	84.12
453.971	120.12
454.192	125.12
454.412	110.12
454.633	91.12
454.853	89.12
455.073	81.12
455.294	92.12
455.514	116.12
455.734	92.12
455.955	105.12
456.175	85.12
456.395	72.12
456.616	84.12
456.836	104.12
457.056	76.12
457.276	76.12
457.497	94.12
457.717	90.12
457.937	80.12
458.157	101.12
458.377	105.12
458.598	123.12
458.818	214.12
459.038	226.12
459.258	152.12
459.478	94.12
459.698	85.12
459.918	84.12
460.138	84.12
460.358	84.12
460.578	86.12
460.798	89.12
461.018	84.12
461.238	88.12
461.458	103.12
461.678	72.12
461.898	96.12
462.118	83.12
462.338	68.12
462.558	86.12
462.777	90.12
462.997	98.12
463.217	98.12
463.437	80.12
463.657	88.12
463.876	99.12
464.096	96.12
464.316	97.12
464.536	100.12
464.755	110.12
464.975	116.12
465.195	229.12
465.414	220.12
465.634	106.12
465.854	88.12
466.073	84.12
466.293	86.12
466.512	83.12
466.732	89.12
466.951	81.12
467.171	86.12
467.391	87.12
467.61	112.12
467.829	113.12
468.049	114.12
468.268	110.12
468.488	78.12
468.707	77.12
468.927	81.12
469.146	96.12
469.365	84.12
469.585	103.12
469.804	102.12
470.023	113.12
470.243	120.12
470.462	110.12
470.681	123.12
470.901	91.12
471.12	85.12
471.339	90.12
471.558	97.12
471.777	92.12
471.997	88.12
472.216	112.12
472.435	160.12
472.654	98.12
472.873	93.12
473.092	85.12
473.311	94.12
473.53	88.12
473.749	87.12
473.968	104.12
474.187	121.12
474.406	121.12
474.625	86.12
474.844	97.12
475.063	85.12
475.282	81.12
475.501	81.12
475.72	93.12
475.939	77.12
476.158	93.12
476.377	88.12
476.596	85.12
476.814	100.12
477.033	89.12
477.252	99.12
477.471	80.12
477.69	90.12
477.908	75.12
478.127	91.12
478.346	76.12
478.564	89.12
478.783	103.12
479.002	95.12
479.22	88.12
479.439	115.12
479.658	123.12
479.876	93.12
480.095	91.12
480.313	90.12
480.532	98.12
480.751	93.12
480.969	117.12
481.188	221.12
481.406	169.12
481.624	99.12
481.843	96.12
482.061	85.12
482.28	81.12
482.498	87.12
482.717	107.12
482.935	94.12
483.153	77.12
483.372	87.12
483.59	84.12
483.808	88.12
484.027	79.12
484.245	82.12
484.463	100.12
484.681	105.12
484.9	94.12
485.118	103.12
485.336	105.12
485.554	84.12
485.772	104.12
485.99	113.12
486.209	96.12
486.427	107.12
486.645	110.12
486.863	128.12
487.081	109.12
487.299	90.12
487.517	96.12
487.735	98.12
487.953	85.12
488.171	106.12
488.389	101.12
488.607	115.12
488.825	94.12
489.043	98.12
489.261	89.12
489.479	97.12
489.696	62.12
489.914	79.12
490.132	93.12
490.35	81.12
490.568	102.12
490.786	86.12
491.003	95.12
491.221	99.12
491.439	97.12
491.657	86.12
491.874	72.12
492.092	106.12
492.31	93.12
492.527	93.12
492.745	90.12
492.963	84.12
493.18	92.12
493.398	109.12
493.615	88.12
493.833	90.12
494.05	90.12
494.268	83.12
494.485	80.12
494.703	95.12
494.92	88.12
495.138	82.12
495.355	85.12
495.573	92.12
495.79	88.12
496.008	96.12
496.225	96.12
496.442	92.12
496.66	97.12
496.877	93.12
497.094	87.12
497.312	88.12
497.529	86.12
497.746	88.12
497.963	91.12
498.181	96.12
498.398	102.12
498.615	118.12
498.832	110.12
499.049	85.12
499.267	104.12
499.484	93.12
499.701	92.12
499.918	93.12
500.135	73.12
500.352	80.12
500.569	98.12
500.786	99.12
501.003	94.12
501.22	100.12
501.437	106.12
501.654	105.12
501.871	117.12
502.088	88.12
502.305	84.12
502.522	90.12
502.739	86.12
502.956	90.12
503.172	83.12
503.389	98.12
503.606	125.12
503.823	90.12
504.04	83.12
504.256	96.12
504.473	106.12
504.69	82.12
504.907	106.12
505.123	100.12
505.34	85.12
505.557	90.12
505.773	103.12
505.99	90.12
506.207	86.12
506.423	86.12
506.64	88.12
506.856	86.12
507.073	90.12
507.289	96.12
507.506	100.12
507.722	140.12
507.939	134.12
508.155	105.12
508.372	100.12
508.588	86.12
508.805	89.12
509.021	102.12
509.238	94.12
509.454	97.12
509.67	100.12
509.887	106.12
510.103	115.12
510.319	226.12
510.536	839.12
510.752	2740.12
510.968	727.12
511.184	168.12
511.401	114.12
511.617	103.12
511.833	97.12
512.049	98.12
512.265	78.12
512.481	97.12
512.698	97.12
512.914	92.12
513.13	107.12
513.346	110.12
513.562	97.12
513.778	108.12
513.994	94.12
514.21	117.12
514.426	122.12
514.642	149.12
514.858	155.12
515.074	198.12
515.29	578.12
515.506	2101.12
515.721	738.12
515.937	192.12
516.153	133.12
516.369	96.12
516.585	101.12
516.801	93.12
517.016	105.12
517.232	96.12
517.448	94.12
517.664	108.12
517.879	105.12
518.095	90.12
518.311	88.12
518.527	76.12
518.742	96.12
518.958	90.12
519.173	101.12
519.389	92.12
519.605	104.12
519.82	96.12
520.036	102.12
520.251	142.12
520.467	116.12
520.682	105.12
520.898	120.12
521.113	126.12
521.329	144.12
521.544	266.12
521.76	797.12
521.975	3489.12
522.19	2073.12
522.406	418.12
522.621	145.12
522.836	114.12
523.052	114.12
523.267	107.12
523.482	98.12
523.698	122.12
523.913	155.12
524.128	119.12
524.343	94.12
524.559	100.12
524.774	104.12
524.989	95.12
525.204	128.12
525.419	117.12
525.634	109.12
525.849	94.12
526.064	85.12
526.28	84.12
526.495	100.12
526.71	101.12
526.925	89.12
527.14	97.12
527.355	93.12
527.57	91.12
527.785	87.12
527.999	95.12
528.214	86.12
528.429	87.12
528.644	97.12
528.859	92.12
529.074	121.12
529.289	171.12
529.503	251.12
529.718	116.12
529.933	105.12
530.148	86.12
530.363	103.12
530.577	87.12
530.792	93.12
531.007	112.12
531.221	84.12
531.436	106.12
531.651	93.12
531.865	104.12
532.08	88.12
532.295	93.12
532.509	92.12
532.724	97.12
532.938	104.12
533.153	98.12
533.367	82.12
533.582	101.12
533.796	101.12
534.011	94.12
534.225	97.12
534.44	87.12
534.654	90.12
534.868	92.12
535.083	89.12
535.297	76.12
535.511	112.12
535.726	115.12
535.94	107.12
536.154	104.12
536.369	92.12
536.583	89.12
536.797	81.12
537.011	108.12
537.225	92.12
537.44	81.12
537.654	88.12
537.868	105.12
538.082	96.12
538.296	87.12
538.51	82.12
538.724	102.12
538.938	102.12
539.153	107.12
539.367	121.12
539.581	101.12
539.795	102.12
540.009	92.12
540.222	93.12
540.436	89.12
540.65	97.12
540.864	90.12
541.078	92.12
541.292	81.12
541.506	87.12
541.72	105.12
541.934	82.12
542.147	91.12
542.361	96.12
542.575	72.12
542.789	103.12
543.002	82.12
543.216	101.12
543.43	90.12
543.644	97.12
543.857	80.12
544.071	96.12
544.285	98.12
544.498	94.12
544.712	89.12
544.925	90.12
545.139	86.12
545.352	100.12
545.566	78.12
545.779	84.12
545.993	91.12
546.206	86.12
546.42	89.12
546.633	90.12
546.847	87.12
547.06	93.12
547.274	93.12
547.487	88.12
547.7	88.12
547.914	92.12
548.127	81.12
548.34	88.12
548.554	92.12
548.767	96.12
548.98	97.12
549.193	85.12
549.407	82.12
549.62	85.12
549.833	100.12
550.046	81.12
550.259	88.12
550.473	86.12
550.686	88.12
550.899	82.12
551.112	80.12
551.325	80.12
551.538	77.12
551.751	82.12
551.964	93.12
552.177	98.12
552.39	85.12
552.603	77.12
552.816	93.12
553.029	91.12
553.242	99.12
553.455	100.12
553.667	104.12
553.88	118.12
554.093	86.12
554.306	91.12
554.519	88.12
554.732	82.12
554.944	90.12
555.157	81.12
555.37	105.12
555.583	87.12
555.795	96.12
556.008	93.12
556.221	84.12
556.433	91.12
556.646	84.12
556.859	100.12
557.071	99.12
557.284	94.12
557.496	86.12
557.709	85.12
557.921	90.12
558.134	96.12
558.346	110.12
558.559	73.12
558.771	77.12
558.984	81.12
559.196	86.12
559.409	85.12
559.621	98.12
559.833	69.12
560.046	68.12
560.258	94.12
560.47	100.12
560.683	84.12
560.895	96.12
561.107	82.12
561.32	71.12
561.532	99.12
561.744	105.12
561.956	93.12
562.168	91.12
562.381	97.12
562.593	91.12
562.805	88.12
563.017	92.12
563.229	78.12
563.441	103.12
563.653	104.12
563.865	76.12
564.077	96.12
564.289	93.12
564.501	92.12
564.713	94.12
564.925	100.12
565.137	98.12
565.349	98.12
565.561	88.12
565.773	89.12
565.985	85.12
566.197	90.12
566.408	84.12
566.62	81.12
566.832	87.12
567.044	87.12
567.255	81.12
567.467	75.12
567.679	70.12
567.891	89.12
568.102	93.12
568.314	105.12
568.526	82.12
568.737	89.12
568.949	66.12
569.161	77.12
569.372	95.12
569.584	88.12
569.795	96.12
570.007	121.12
570.218	247.12
570.43	153.12
570.641	93.12
570.853	80.12
571.064	91.12
571.276	75.12
571.487	77.12
571.698	81.12
571.91	86.12
572.121	85.12
572.333	97.12
572.544	86.12
572.755	88.12
572.966	96.12
573.178	90.12
573.389	90.12
573.6	78.12
573.811	95.12
574.023	85.12
574.234	90.12
574.445	100.12
574.656	84.12
574.867	85.12
575.078	81.12
575.289	92.12
575.501	90.12
575.712	85.12
575.923	82.12
576.134	110.12
576.345	83.12
576.556	86.12
576.767	81.12
576.978	84.12
577.188	97.12
577.399	99.12
577.61	110.12
577.821	110.12
578.032	116.12
578.243	281.12
578.454	810.12
578.665	224.12
578.875	105.12
579.086	92.12
579.297	77.12
579.508	106.12
579.718	88.12
579.929	76.12
580.14	88.12
580.35	89.12
580.561	92.12
580.772	80.12
580.982	100.12
581.193	95.12
581.403	81.12
581.614	92.12
581.825	81.12
582.035	99.12
582.246	88.12
582.456	82.12
582.667	82.12
582.877	89.12
583.087	80.12
583.298	92.12
583.508	78.12
583.719	82.12
583.929	71.12
584.139	80.12
584.35	71.12
584.56	88.12
584.77	90.12
584.981	77.12
585.191	89.12
585.401	105.12
585.611	81.12
585.821	84.12
586.032	81.12
586.242	78.12
586.452	88.12
586.662	82.12
586.872	91.12
587.082	68.12
587.292	83.12
587.502	89.12
587.713	91.12
587.923	81.12
588.133	65.12
588.343	76.12
588.553	75.12
588.762	97.12
588.972	96.12
589.182	97.12
589.392	91.12
589.602	82.12
589.812	88.12
590.022	85.12
590.232	74.12
590.441	93.12
590.651	103.12
590.861	101.12
591.071	90.12
591.281	97.12
591.49	84.12
591.7	81.12
591.91	96.12
592.119	90.12
592.329	85.12
592.539	90.12
592.748	84.12
592.958	88.12
593.167	76.12
593.377	73.12
593.587	82.12
593.796	93.12
594.006	74.12
594.215	78.12
594.424	84.12
594.634	74.12
594.843	77.12
595.053	81.12
595.262	84.12
595.472	86.12
595.681	86.12
595.89	75.12
596.1	92.12
596.309	80.12
596.518	90.12
596.727	92.12
596.937	81.12
597.146	94.12
597.355	82.12
597.564	92.12
597.774	87.12
597.983	90.12
598.192	75.12
598.401	89.12
598.61	70.12
598.819	88.12
599.028	75.12
599.237	94.12
599.446	91.12
599.655	80.12
599.864	98.12
600.073	94.12
600.282	95.12
600.491	86.12
600.7	85.12
600.909	89.12
601.118	77.12
601.327	101.12
601.536	102.12
601.745	88.12
601.953	76.12
602.162	81.12
602.371	98.12
602.58	80.12
602.789	82.12
602.997	85.12
603.206	96.12
603.415	81.12
603.623	80.12
603.832	88.12
604.041	77.12
604.249	95.12
604.458	84.12
604.666	90.12
604.875	80.12
605.084	66.12
605.292	87.12
605.501	96.12
605.709	98.12
605.918	78.12
606.126	85.12
606.334	79.12
606.543	74.12
606.751	85.12
606.96	85.12
607.168	91.12
607.376	84.12
607.585	97.12
607.793	75.12
608.001	91.12
608.21	89.12
608.418	96.12
608.626	80.12
608.834	93.12
609.043	87.12
609.251	81.12
609.459	86.12
609.667	84.12
609.875	77.12
610.083	75.12
610.291	78.12
610.499	82.12
610.707	75.12
610.916	80.12
611.124	80.12
611.332	80.12
611.54	90.12
611.748	81.12
611.955	99.12
612.163	76.12
612.371	92.12
612.579	75.12
612.787	94.12
612.995	72.12
613.203	94.12
613.411	85.12
613.618	94.12
613.826	88.12
614.034	91.12
614.242	81.12
614.449	97.12
614.657	93.12
614.865	89.12
615.072	94.12
615.28	89.12
615.488	94.12
615.695	78.12
615.903	94.12
616.111	105.12
616.318	99.12
616.526	91.12
616.733	93.12
616.941	93.12
617.148	92.12
617.356	81.12
617.563	82.12
617.771	80.12
617.978	80.12
618.185	87.12
618.393	96.12
618.6	85.12
618.807	86.12
619.015	90.12
619.222	89.12
619.429	91.12
619.637	77.12
619.844	103.12
620.051	86.12
620.258	96.12
620.466	81.12
620.673	67.12
620.88	93.12
621.087	90.12
621.294	91.12
621.501	81.12
621.708	84.12
621.915	94.12
622.122	99.12
622.329	72.12
622.536	83.12
622.743	98.12
622.95	89.12
623.157	99.12
623.364	90.12
623.571	89.12
623.778	88.12
623.985	99.12
624.192	85.12
624.399	87.12
624.606	84.12
624.812	84.12
625.019	81.12
625.226	65.12
625.433	82.12
625.639	76.12
625.846	82.12
626.053	84.12
626.259	68.12
626.466	89.12
626.673	80.12
626.879	100.12
627.086	92.12
627.293	80.12
627.499	104.12
627.706	89.12
627.912	95.12
628.119	95.12
628.325	84.12
628.532	69.12
628.738	77.12
628.945	85.12
629.151	69.12
629.357	93.12
629.564	95.12
629.77	77.12
629.976	93.12
630.183	80.12
630.389	91.12
630.595	91.12
630.802	78.12
631.008	84.12
631.214	96.12
631.42	92.12
631.627	68.12
631.833	72.12
632.039	73.12
632.245	80.12
632.451	76.12
632.657	87.12
632.863	81.12
633.069	82.12
633.275	85.12
633.481	89.12
633.688	88.12
633.893	89.12
634.099	85.12
634.305	93.12
634.511	82.12
634.717	85.12
634.923	84.12
635.129	82.12
635.335	96.12
635.541	80.12
635.747	82.12
635.952	82.12
636.158	77.12
636.364	87.12
636.57	105.12
636.775	94.12
636.981	85.12
637.187	76.12
637.392	82.12
637.598	83.12
637.804	82.12
638.009	99.12
638.215	93.12
638.421	76.12
638.626	89.12
638.832	91.12
639.037	76.12
639.243	84.12
639.448	91.12
639.654	90.12
639.859	91.12
640.065	70.12
640.27	88.12
640.475	85.12
640.681	72.12
640.886	84.12
641.091	77.12
641.297	86.12
641.502	86.12
641.707	93.12
641.913	109.12
642.118	93.12
642.323	84.12
642.528	85.12
642.733	96.12
642.939	82.12
643.144	93.12
643.349	69.12
643.554	97.12
643.759	77.12
643.964	81.12
644.169	73.12
644.374	80.12
644.579	74.12
644.784	74.12
644.989	76.12
645.194	83.12
645.399	85.12
645.604	65.12
645.809	81.12
646.014	89.12
646.219	69.12
646.423	68.12
646.628	68.12
646.833	90.12
647.038	77.12
647.243	90.12
647.447	94.12
647.652	85.12
647.857	87.12
648.062	84.12
648.266	88.12
648.471	68.12
648.676	89.12
648.88	87.12
649.085	84.12
649.289	74.12
649.494	91.12
649.698	121.12
649.903	110.12
650.107	96.12
650.312	89.12
650.516	84.12
650.721	86.12
650.925	89.12
651.13	101.12
651.334	68.12
651.539	81.12
651.743	94.12
651.947	82.12
652.152	85.12
652.356	92.12
652.56	86.12
652.764	77.12
652.969	93.12
653.173	86.12
653.377	72.12
653.581	85.12
653.785	86.12
653.99	84.12
654.194	77.12
654.398	84.12
654.602	84.12
654.806	105.12
655.01	109.12
655.214	102.12
655.418	75.12
655.622	82.12
655.826	90.12
656.03	98.12
656.234	100.12
656.438	78.12
656.642	86.12
656.846	88.12
657.049	80.12
657.253	78.12
657.457	89.12
657.661	84.12
657.865	91.12
658.068	99.12
658.272	72.12
658.476	82.12
658.68	85.12
658.883	88.12
659.087	83.12
659.291	78.12
659.494	74.12
659.698	70.12
659.901	78.12
660.105	87.12
660.309	71.12
660.512	89.12
660.716	88.12
660.919	81.12
661.123	82.12
661.326	80.12
661.53	76.12
661.733	70.12
661.936	66.12
662.14	72.12
662.343	88.12
662.546	90.12
662.75	101.12
662.953	70.12
663.156	82.12
663.36	74.12
663.563	87.12
663.766	78.12
663.969	96.12
664.173	86.12
664.376	74.12
664.579	88.12
664.782	73.12
664.985	83.12
665.188	78.12
665.391	84.12
665.594	82.12
665.797	82.12
666	84.12
666.203	90.12
666.406	88.12
666.609	81.12
666.812	80.12
667.015	88.12
667.218	79.12
667.421	81.12
667.624	78.12
667.827	84.12
668.03	79.12
668.232	74.12
668.435	84.12
668.638	82.12
668.841	80.12
669.043	72.12
669.246	75.12
669.449	86.12
669.651	81.12
669.854	76.12
670.057	75.12
670.259	78.12
670.462	88.12
670.665	77.12
670.867	78.12
671.07	79.12
671.272	83.12
671.475	71.12
671.677	92.12
671.88	80.12
672.082	82.12
672.284	58.12
672.487	75.12
672.689	75.12
672.892	78.12
