Data from Circ_1981_H10_HRD10591_00090.txt Node
Date: Wed Jan 03 12:34:39 EST 2024
User: Yrep
Spectrometer: HR+D1059
Trigger mode: 1
Integration Time (sec): 1.000000E-1
Scans to average: 1
Electric dark correction enabled: true
Nonlinearity correction enabled: false
Boxcar width: 0
XAxis mode: Wavelengths
Number of Pixels in Spectrum: 2048
>>>>>Begin Spectral Data<<<<<
223.165	-12.81
223.4	-12.81
223.635	-12.81
223.869	-24.81
224.104	-10.81
224.338	-13.81
224.573	-29.81
224.808	-22.81
225.042	-10.81
225.277	0.19
225.511	-9.81
225.746	9.19
225.98	11.19
226.215	11.19
226.449	23.19
226.683	23.19
226.918	30.19
227.152	27.19
227.387	31.19
227.621	44.19
227.856	41.19
228.09	53.19
228.324	47.19
228.559	64.19
228.793	173.19
229.027	449.19
229.262	556.19
229.496	669.19
229.73	877.19
229.964	889.19
230.199	577.19
230.433	542.19
230.667	507.19
230.901	477.19
231.136	458.19
231.37	475.19
231.604	461.19
231.838	480.19
232.072	464.19
232.306	487.19
232.541	501.19
232.775	486.19
233.009	488.19
233.243	506.19
233.477	505.19
233.711	501.19
233.945	513.19
234.179	550.19
234.413	527.19
234.647	545.19
234.881	543.19
235.115	544.19
235.349	577.19
235.583	569.19
235.817	635.19
236.051	676.19
236.285	660.19
236.519	646.19
236.753	748.19
236.987	992.19
237.221	1486.19
237.455	1626.19
237.689	981.19
237.922	803.19
238.156	784.19
238.39	713.19
238.624	678.19
238.858	674.19
239.091	670.19
239.325	698.19
239.559	710.19
239.793	743.19
240.027	824.19
240.26	991.19
240.494	1071.19
240.728	1049.19
240.961	993.19
241.195	857.19
241.429	831.19
241.662	813.19
241.896	804.19
242.13	797.19
242.363	826.19
242.597	833.19
242.83	889.19
243.064	877.19
243.298	863.19
243.531	864.19
243.765	883.19
243.998	905.19
244.232	885.19
244.465	957.19
244.699	940.19
244.932	963.19
245.166	937.19
245.399	938.19
245.633	946.19
245.866	967.19
246.099	957.19
246.333	998.19
246.566	999.19
246.8	1021.19
247.033	1093.19
247.266	1105.19
247.5	1153.19
247.733	1256.19
247.966	1201.19
248.2	1201.19
248.433	1247.19
248.666	1279.19
248.899	1449.19
249.133	1585.19
249.366	1586.19
249.599	1421.19
249.832	1311.19
250.066	1300.19
250.299	1354.19
250.532	1503.19
250.765	1692.19
250.998	1880.19
251.231	1768.19
251.465	1581.19
251.698	1531.19
251.931	1458.19
252.164	1461.19
252.397	1491.19
252.63	1557.19
252.863	1683.19
253.096	1805.19
253.329	1893.19
253.562	1743.19
253.795	1655.19
254.028	1612.19
254.261	1719.19
254.494	1939.19
254.727	2358.19
254.96	2445.19
255.193	2052.19
255.426	1877.19
255.659	1755.19
255.892	1824.19
256.124	1876.19
256.357	1818.19
256.59	1665.19
256.823	1609.19
257.056	1609.19
257.289	1639.19
257.521	1675.19
257.754	1643.19
257.987	1587.19
258.22	1637.19
258.452	1592.19
258.685	1612.19
258.918	1671.19
259.151	1744.19
259.383	1814.19
259.616	1797.19
259.849	1873.19
260.081	2091.19
260.314	2319.19
260.547	2129.19
260.779	1924.19
261.012	1909.19
261.244	1814.19
261.477	1766.19
261.71	1800.19
261.942	1836.19
262.175	1925.19
262.407	1800.19
262.64	1722.19
262.872	1745.19
263.105	1739.19
263.337	1711.19
263.57	1716.19
263.802	1773.19
264.035	1719.19
264.267	1727.19
264.499	1758.19
264.732	1782.19
264.964	1793.19
265.197	1761.19
265.429	1822.19
265.661	1787.19
265.894	1777.19
266.126	1824.19
266.358	1786.19
266.591	1856.19
266.823	1949.19
267.055	1960.19
267.287	1957.19
267.52	1944.19
267.752	1932.19
267.984	1959.19
268.216	1967.19
268.448	1990.19
268.681	2081.19
268.913	2251.19
269.145	2465.19
269.377	2506.19
269.609	2337.19
269.841	2331.19
270.073	2489.19
270.306	2857.19
270.538	3012.19
270.77	2807.19
271.002	2591.19
271.234	2589.19
271.466	2751.19
271.698	2942.19
271.93	2897.19
272.162	2997.19
272.394	2832.19
272.626	2639.19
272.858	2469.19
273.09	2413.19
273.322	2310.19
273.553	2341.19
273.785	2273.19
274.017	2332.19
274.249	2376.19
274.481	2369.19
274.713	2398.19
274.945	2443.19
275.176	2427.19
275.408	2358.19
275.64	2352.19
275.872	2345.19
276.104	2399.19
276.335	2435.19
276.567	2517.19
276.799	2723.19
277.031	3016.19
277.262	3135.19
277.494	2945.19
277.726	2703.19
277.957	2643.19
278.189	2546.19
278.421	2519.19
278.652	2507.19
278.884	2461.19
279.115	2466.19
279.347	2477.19
279.579	2438.19
279.81	2451.19
280.042	2451.19
280.273	2500.19
280.505	2498.19
280.736	2481.19
280.968	2518.19
281.199	2482.19
281.431	2496.19
281.662	2544.19
281.894	2543.19
282.125	2590.19
282.356	2784.19
282.588	3013.19
282.819	2797.19
283.051	2594.19
283.282	2605.19
283.513	2604.19
283.745	2730.19
283.976	2759.19
284.207	2716.19
284.439	2701.19
284.67	2683.19
284.901	2701.19
285.132	2700.19
285.364	2701.19
285.595	2683.19
285.826	2675.19
286.057	2731.19
286.288	2771.19
286.52	2743.19
286.751	2741.19
286.982	2747.19
287.213	2791.19
287.444	2803.19
287.675	2892.19
287.906	2999.19
288.138	3081.19
288.369	2969.19
288.6	2995.19
288.831	2956.19
289.062	2915.19
289.293	2855.19
289.524	2872.19
289.755	2929.19
289.986	2868.19
290.217	2872.19
290.448	2883.19
290.679	2906.19
290.91	2854.19
291.141	2857.19
291.371	2860.19
291.602	2896.19
291.833	2846.19
292.064	2842.19
292.295	2917.19
292.526	2909.19
292.757	2866.19
292.987	2872.19
293.218	2854.19
293.449	2921.19
293.68	2872.19
293.91	2896.19
294.141	2894.19
294.372	2902.19
294.603	2967.19
294.833	2928.19
295.064	2957.19
295.295	2947.19
295.525	2936.19
295.756	3041.19
295.987	3132.19
296.217	3349.19
296.448	3249.19
296.679	3033.19
296.909	2958.19
297.14	3000.19
297.37	3041.19
297.601	3102.19
297.831	3096.19
298.062	3153.19
298.292	3110.19
298.523	3215.19
298.753	3227.19
298.984	3165.19
299.214	3133.19
299.445	3163.19
299.675	3145.19
299.905	3225.19
300.136	3220.19
300.366	3208.19
300.597	3239.19
300.827	3313.19
301.057	3415.19
301.288	3487.19
301.518	3431.19
301.748	3454.19
301.979	3462.19
302.209	3520.19
302.439	3455.19
302.669	3441.19
302.9	3366.19
303.13	3368.19
303.36	3371.19
303.59	3418.19
303.82	3483.19
304.051	3412.19
304.281	3412.19
304.511	3320.19
304.741	3325.19
304.971	3328.19
305.201	3319.19
305.431	3291.19
305.661	3318.19
305.891	3291.19
306.121	3334.19
306.352	3325.19
306.582	3405.19
306.812	3287.19
307.042	3295.19
307.272	3375.19
307.502	3328.19
307.731	3332.19
307.961	3375.19
308.191	3316.19
308.421	3367.19
308.651	3377.19
308.881	3358.19
309.111	3446.19
309.341	3399.19
309.571	3478.19
309.8	3575.19
310.03	3674.19
310.26	3736.19
310.49	3696.19
310.72	3831.19
310.949	4010.19
311.179	3939.19
311.409	3723.19
311.639	3700.19
311.868	3799.19
312.098	3757.19
312.328	3857.19
312.557	4106.19
312.787	4185.19
313.017	3981.19
313.246	3848.19
313.476	3781.19
313.706	3902.19
313.935	3938.19
314.165	4115.19
314.394	4093.19
314.624	4095.19
314.853	3954.19
315.083	3872.19
315.312	3876.19
315.542	3781.19
315.771	3728.19
316.001	3707.19
316.23	3720.19
316.46	3795.19
316.689	3795.19
316.919	3880.19
317.148	3943.19
317.377	3905.19
317.607	3899.19
317.836	3833.19
318.065	3752.19
318.295	3765.19
318.524	3704.19
318.753	3755.19
318.983	3771.19
319.212	3769.19
319.441	3799.19
319.67	3849.19
319.9	3767.19
320.129	3735.19
320.358	3798.19
320.587	3831.19
320.816	3904.19
321.046	3997.19
321.275	3940.19
321.504	3935.19
321.733	3896.19
321.962	4071.19
322.191	4092.19
322.42	4298.19
322.649	4312.19
322.878	4374.19
323.108	4500.19
323.337	4639.19
323.566	4901.19
323.795	5161.19
324.024	5827.19
324.253	7611.19
324.482	11604.19
324.71	15633.19
324.939	15633.19
325.168	13613.19
325.397	6759.19
325.626	5312.19
325.855	4941.19
326.084	4811.19
326.313	4891.19
326.542	5045.19
326.77	5779.19
326.999	7347.19
327.228	10792.19
327.457	14949.19
327.686	14362.19
327.914	7621.19
328.143	6141.19
328.372	5891.19
328.6	5567.19
328.829	5488.19
329.058	5871.19
329.287	5795.19
329.515	5266.19
329.744	4967.19
329.972	5153.19
330.201	5408.19
330.43	5864.19
330.658	6055.19
330.887	6427.19
331.115	5844.19
331.344	5176.19
331.572	5068.19
331.801	5216.19
332.03	5233.19
332.258	5110.19
332.486	5109.19
332.715	5157.19
332.943	5291.19
333.172	5499.19
333.4	5638.19
333.629	5763.19
333.857	5815.19
334.085	5890.19
334.314	6015.19
334.542	6300.19
334.771	6222.19
334.999	5589.19
335.227	5392.19
335.455	5226.19
335.684	5175.19
335.912	5076.19
336.14	5063.19
336.369	5139.19
336.597	5169.19
336.825	5052.19
337.053	4955.19
337.281	4854.19
337.51	4895.19
337.738	4848.19
337.966	4811.19
338.194	4837.19
338.422	4755.19
338.65	4678.19
338.878	4552.19
339.106	4545.19
339.334	4600.19
339.562	4529.19
339.79	4496.19
340.018	4489.19
340.246	4541.19
340.474	4517.19
340.702	4484.19
340.93	4464.19
341.158	4519.19
341.386	4503.19
341.614	4562.19
341.842	4432.19
342.07	4416.19
342.298	4372.19
342.526	4323.19
342.754	4398.19
342.981	4421.19
343.209	4437.19
343.437	4645.19
343.665	4968.19
343.893	5251.19
344.12	5230.19
344.348	5041.19
344.576	4858.19
344.804	4852.19
345.031	4835.19
345.259	4764.19
345.487	4589.19
345.714	4480.19
345.942	4330.19
346.17	4344.19
346.397	4295.19
346.625	4337.19
346.853	4362.19
347.08	4313.19
347.308	4362.19
347.535	4451.19
347.763	4468.19
347.99	4405.19
348.218	4517.19
348.445	4513.19
348.673	4346.19
348.9	4299.19
349.128	4193.19
349.355	4113.19
349.583	4150.19
349.81	4121.19
350.037	4128.19
350.265	4079.19
350.492	4093.19
350.72	4151.19
350.947	4185.19
351.174	4315.19
351.402	4433.19
351.629	4254.19
351.856	4302.19
352.083	4437.19
352.311	4445.19
352.538	4500.19
352.765	4387.19
352.992	4313.19
353.22	4199.19
353.447	4263.19
353.674	4140.19
353.901	4039.19
354.128	4061.19
354.355	4015.19
354.583	4027.19
354.81	4054.19
355.037	4019.19
355.264	4009.19
355.491	3974.19
355.718	3971.19
355.945	3980.19
356.172	4043.19
356.399	3956.19
356.626	3969.19
356.853	4045.19
357.08	4005.19
357.307	4001.19
357.534	3989.19
357.761	3991.19
357.988	4060.19
358.215	4032.19
358.441	4099.19
358.668	4068.19
358.895	4124.19
359.122	4095.19
359.349	4216.19
359.576	4357.19
359.802	4624.19
360.029	4905.19
360.256	4891.19
360.483	4629.19
360.709	4321.19
360.936	4306.19
361.163	4279.19
361.39	4407.19
361.616	4383.19
361.843	4312.19
362.07	4346.19
362.296	4320.19
362.523	4289.19
362.749	4327.19
362.976	4195.19
363.203	4206.19
363.429	4135.19
363.656	4192.19
363.882	4112.19
364.109	4100.19
364.335	4105.19
364.562	4102.19
364.788	4117.19
365.015	4147.19
365.241	4119.19
365.468	4264.19
365.694	4232.19
365.92	4260.19
366.147	4123.19
366.373	4103.19
366.599	4108.19
366.826	4089.19
367.052	4110.19
367.278	4120.19
367.505	4117.19
367.731	4192.19
367.957	4141.19
368.184	4223.19
368.41	4259.19
368.636	4395.19
368.862	4349.19
369.089	4238.19
369.315	4244.19
369.541	4152.19
369.767	4267.19
369.993	4213.19
370.219	4245.19
370.445	4257.19
370.672	4311.19
370.898	4311.19
371.124	4359.19
371.35	4325.19
371.576	4374.19
371.802	4355.19
372.028	4293.19
372.254	4276.19
372.48	4426.19
372.706	4495.19
372.932	4475.19
373.158	4442.19
373.384	4459.19
373.61	4351.19
373.835	4426.19
374.061	4453.19
374.287	4565.19
374.513	4485.19
374.739	4674.19
374.965	4807.19
375.191	4825.19
375.416	4641.19
375.642	4542.19
375.868	4590.19
376.094	4463.19
376.319	4424.19
376.545	4443.19
376.771	4439.19
376.997	4351.19
377.222	4413.19
377.448	4345.19
377.674	4304.19
377.899	4285.19
378.125	4331.19
378.35	4304.19
378.576	4315.19
378.802	4334.19
379.027	4327.19
379.253	4323.19
379.478	4357.19
379.704	4317.19
379.929	4434.19
380.155	4395.19
380.38	4351.19
380.606	4397.19
380.831	4372.19
381.057	4379.19
381.282	4373.19
381.507	4447.19
381.733	4425.19
381.958	4513.19
382.184	4541.19
382.409	4529.19
382.634	4567.19
382.86	4624.19
383.085	4681.19
383.31	4735.19
383.535	4791.19
383.761	4875.19
383.986	4908.19
384.211	5002.19
384.436	5063.19
384.662	5110.19
384.887	5183.19
385.112	5149.19
385.337	5255.19
385.562	5192.19
385.787	5228.19
386.013	5368.19
386.238	5391.19
386.463	5318.19
386.688	5312.19
386.913	5202.19
387.138	5146.19
387.363	5238.19
387.588	5107.19
387.813	5211.19
388.038	5169.19
388.263	5228.19
388.488	5191.19
388.713	5166.19
388.938	5205.19
389.163	5191.19
389.387	5134.19
389.612	5073.19
389.837	5098.19
390.062	5099.19
390.287	5090.19
390.512	5032.19
390.736	5189.19
390.961	5307.19
391.186	5344.19
391.411	5525.19
391.636	5654.19
391.86	5838.19
392.085	5826.19
392.31	5782.19
392.534	5617.19
392.759	5557.19
392.984	5423.19
393.208	5379.19
393.433	5415.19
393.658	5383.19
393.882	5392.19
394.107	5345.19
394.331	5439.19
394.556	5374.19
394.78	5503.19
395.005	5590.19
395.229	5539.19
395.454	5664.19
395.678	5898.19
395.903	5900.19
396.127	5871.19
396.352	5673.19
396.576	5488.19
396.801	5445.19
397.025	5698.19
397.249	5718.19
397.474	5809.19
397.698	5780.19
397.922	5967.19
398.147	6130.19
398.371	6200.19
398.595	6308.19
398.82	6563.19
399.044	7067.19
399.268	7858.19
399.492	8860.19
399.717	9663.19
399.941	9367.19
400.165	8776.19
400.389	8019.19
400.613	7304.19
400.837	6787.19
401.062	6683.19
401.286	6585.19
401.51	6519.19
401.734	6480.19
401.958	6646.19
402.182	6777.19
402.406	6922.19
402.63	6938.19
402.854	7061.19
403.078	7046.19
403.302	7294.19
403.526	7414.19
403.75	7428.19
403.974	7439.19
404.198	7419.19
404.422	7636.19
404.645	7541.19
404.869	7403.19
405.093	7813.19
405.317	8069.19
405.541	7952.19
405.765	7392.19
405.988	7387.19
406.212	7491.19
406.436	7797.19
406.66	7942.19
406.883	7749.19
407.107	8368.19
407.331	8944.19
407.555	9473.19
407.778	9137.19
408.002	8286.19
408.226	7891.19
408.449	7812.19
408.673	7651.19
408.896	7876.19
409.12	7967.19
409.344	7605.19
409.567	7188.19
409.791	7108.19
410.014	7016.19
410.238	6993.19
410.461	7051.19
410.685	7066.19
410.908	7183.19
411.132	7466.19
411.355	7401.19
411.578	7077.19
411.802	6840.19
412.025	6821.19
412.249	7061.19
412.472	7251.19
412.695	7385.19
412.919	6898.19
413.142	6633.19
413.365	6504.19
413.589	6499.19
413.812	6368.19
414.035	6341.19
414.258	6414.19
414.482	6389.19
414.705	6500.19
414.928	6446.19
415.151	6458.19
415.374	6398.19
415.597	6372.19
415.821	6181.19
416.044	6300.19
416.267	6314.19
416.49	6285.19
416.713	6234.19
416.936	6333.19
417.159	6344.19
417.382	6434.19
417.605	6442.19
417.828	6625.19
418.051	6761.19
418.274	6541.19
418.497	6426.19
418.72	6629.19
418.943	6500.19
419.166	6864.19
419.389	7215.19
419.611	7216.19
419.834	7033.19
420.057	6903.19
420.28	6814.19
420.503	6616.19
420.726	6556.19
420.948	6724.19
421.171	7177.19
421.394	7181.19
421.617	6544.19
421.839	6563.19
422.062	6597.19
422.285	6853.19
422.507	7465.19
422.73	8093.19
422.953	7421.19
423.175	7077.19
423.398	7063.19
423.621	7066.19
423.843	7375.19
424.066	7255.19
424.288	7203.19
424.511	7409.19
424.733	7874.19
424.956	8331.19
425.178	7859.19
425.401	8043.19
425.623	7839.19
425.846	6891.19
426.068	6686.19
426.291	6619.19
426.513	6603.19
426.735	6730.19
426.958	7201.19
427.18	8035.19
427.402	9265.19
427.625	9502.19
427.847	8106.19
428.069	7173.19
428.292	6625.19
428.514	6122.19
428.736	6027.19
428.958	6068.19
429.181	5852.19
429.403	5946.19
429.625	6123.19
429.847	6375.19
430.069	6931.19
430.292	6475.19
430.514	5923.19
430.736	5968.19
430.958	5795.19
431.18	5731.19
431.402	5743.19
431.624	5678.19
431.846	5807.19
432.068	5770.19
432.29	5795.19
432.512	5813.19
432.734	5865.19
432.956	5805.19
433.178	5927.19
433.4	5945.19
433.622	5791.19
433.844	5830.19
434.066	5846.19
434.287	5942.19
434.509	6183.19
434.731	6400.19
434.953	6510.19
435.175	6742.19
435.397	6776.19
435.618	6732.19
435.84	7086.19
436.062	7976.19
436.284	7943.19
436.505	6693.19
436.727	6302.19
436.949	6014.19
437.17	5898.19
437.392	5865.19
437.614	6055.19
437.835	6501.19
438.057	7553.19
438.278	8167.19
438.5	8002.19
438.721	8848.19
438.943	7741.19
439.165	6450.19
439.386	6368.19
439.608	6380.19
439.829	6495.19
440.05	6978.19
440.272	7371.19
440.493	6676.19
440.715	6262.19
440.936	6219.19
441.158	6309.19
441.379	6333.19
441.6	6683.19
441.822	6947.19
442.043	7390.19
442.264	8348.19
442.486	7961.19
442.707	6971.19
442.928	6908.19
443.149	7158.19
443.371	7398.19
443.592	7817.19
443.813	8914.19
444.034	8802.19
444.255	7620.19
444.476	7345.19
444.698	7623.19
444.919	7657.19
445.14	7465.19
445.361	7391.19
445.582	7596.19
445.803	8415.19
446.024	9033.19
446.245	8574.19
446.466	7591.19
446.687	6595.19
446.908	6177.19
447.129	6000.19
447.35	5767.19
447.571	5717.19
447.792	5571.19
448.013	5803.19
448.234	5949.19
448.455	6559.19
448.675	7881.19
448.896	8250.19
449.117	6784.19
449.338	6953.19
449.559	8473.19
449.779	8644.19
450	6615.19
450.221	5852.19
450.442	5682.19
450.662	5609.19
450.883	5803.19
451.104	5986.19
451.324	5667.19
451.545	5522.19
451.766	5337.19
451.986	5164.19
452.207	5177.19
452.428	5114.19
452.648	5221.19
452.869	5224.19
453.089	5303.19
453.31	5385.19
453.53	5144.19
453.751	5117.19
453.971	5193.19
454.192	5351.19
454.412	5128.19
454.633	4951.19
454.853	4971.19
455.073	4973.19
455.294	5470.19
455.514	6096.19
455.734	5519.19
455.955	4894.19
456.175	4823.19
456.395	4693.19
456.616	4674.19
456.836	4710.19
457.056	4599.19
457.276	4609.19
457.497	4763.19
457.717	4793.19
457.937	4929.19
458.157	4944.19
458.377	5072.19
458.598	5472.19
458.818	6330.19
459.038	7210.19
459.258	7009.19
459.478	6099.19
459.698	5902.19
459.918	5931.19
460.138	6069.19
460.358	6320.19
460.578	6341.19
460.798	6397.19
461.018	6433.19
461.238	6231.19
461.458	6233.19
461.678	6172.19
461.898	6246.19
462.118	6385.19
462.338	6774.19
462.558	6842.19
462.777	7163.19
462.997	7675.19
463.217	8079.19
463.437	7830.19
463.657	7260.19
463.876	7070.19
464.096	7184.19
464.316	7159.19
464.536	7317.19
464.755	6980.19
464.975	6965.19
465.195	7351.19
465.414	7515.19
465.634	6389.19
465.854	5931.19
466.073	5732.19
466.293	5500.19
466.512	5382.19
466.732	5228.19
466.951	5340.19
467.171	5213.19
467.391	5362.19
467.61	5504.19
467.829	5502.19
468.049	5310.19
468.268	5201.19
468.488	5054.19
468.707	5059.19
468.927	5054.19
469.146	5033.19
469.365	5109.19
469.585	5150.19
469.804	5384.19
470.023	5578.19
470.243	5467.19
470.462	5615.19
470.681	5806.19
470.901	5654.19
471.12	5421.19
471.339	5426.19
471.558	5310.19
471.777	5305.19
471.997	5219.19
472.216	5251.19
472.435	5568.19
472.654	5327.19
472.873	5033.19
473.092	5023.19
473.311	5037.19
473.53	5086.19
473.749	5182.19
473.968	5751.19
474.187	6915.19
474.406	6423.19
474.625	5358.19
474.844	5098.19
475.063	5064.19
475.282	5110.19
475.501	5196.19
475.72	5116.19
475.939	5216.19
476.158	5219.19
476.377	5258.19
476.596	5263.19
476.814	5403.19
477.033	5485.19
477.252	5463.19
477.471	5541.19
477.69	5727.19
477.908	5759.19
478.127	5949.19
478.346	6032.19
478.564	6159.19
478.783	6225.19
479.002	6356.19
479.22	6375.19
479.439	6456.19
479.658	6644.19
479.876	6809.19
480.095	6975.19
480.313	7473.19
480.532	7238.19
480.751	7017.19
480.969	7120.19
481.188	7524.19
481.406	7324.19
481.624	6665.19
481.843	6336.19
482.061	6275.19
482.28	6131.19
482.498	6079.19
482.717	6027.19
482.935	6030.19
483.153	6025.19
483.372	5937.19
483.59	5997.19
483.808	6026.19
484.027	6016.19
484.245	6071.19
484.463	6067.19
484.681	6212.19
484.9	6167.19
485.118	6267.19
485.336	6299.19
485.554	6394.19
485.772	6371.19
485.99	6382.19
486.209	6444.19
486.427	6454.19
486.645	6499.19
486.863	6661.19
487.081	6563.19
487.299	6442.19
487.517	6374.19
487.735	6396.19
487.953	6366.19
488.171	6448.19
488.389	6409.19
488.607	6496.19
488.825	6298.19
489.043	6477.19
489.261	6531.19
489.479	6582.19
489.696	6525.19
489.914	6635.19
490.132	6741.19
490.35	6772.19
490.568	6854.19
490.786	6947.19
491.003	6996.19
491.221	7178.19
491.439	7357.19
491.657	7363.19
491.874	7389.19
492.092	7443.19
492.31	7380.19
492.527	7451.19
492.745	7579.19
492.963	7543.19
493.18	7641.19
493.398	7769.19
493.615	7838.19
493.833	7909.19
494.05	7815.19
494.268	7613.19
494.485	7711.19
494.703	7687.19
494.92	7616.19
495.138	7680.19
495.355	7695.19
495.573	7732.19
495.79	7747.19
496.008	7744.19
496.225	7725.19
496.442	7735.19
496.66	7757.19
496.877	7807.19
497.094	7828.19
497.312	8016.19
497.529	8240.19
497.746	8369.19
497.963	8582.19
498.181	9061.19
498.398	9313.19
498.615	9674.19
498.832	10183.19
499.049	10636.19
499.267	11199.19
499.484	11910.19
499.701	12717.19
499.918	13482.19
500.135	14258.19
500.352	14849.19
500.569	14971.19
500.786	14847.19
501.003	14416.19
501.22	13793.19
501.437	13104.19
501.654	12360.19
501.871	11696.19
502.088	10973.19
502.305	10254.19
502.522	9784.19
502.739	9393.19
502.956	9006.19
503.172	8704.19
503.389	8479.19
503.606	8416.19
503.823	8297.19
504.04	8251.19
504.256	8296.19
504.473	8307.19
504.69	8359.19
504.907	8141.19
505.123	7752.19
505.34	7621.19
505.557	7345.19
505.773	7332.19
505.99	7202.19
506.207	7224.19
506.423	7195.19
506.64	7009.19
506.856	6923.19
507.073	6891.19
507.289	6755.19
507.506	6762.19
507.722	6957.19
507.939	7035.19
508.155	6730.19
508.372	6531.19
508.588	6486.19
508.805	6435.19
509.021	6626.19
509.238	6733.19
509.454	6696.19
509.67	6571.19
509.887	6359.19
510.103	6390.19
510.319	6544.19
510.536	8015.19
510.752	12295.19
510.968	7815.19
511.184	6227.19
511.401	6169.19
511.617	6119.19
511.833	6137.19
512.049	6004.19
512.265	5971.19
512.481	6053.19
512.698	5995.19
512.914	6073.19
513.13	6015.19
513.346	6028.19
513.562	6008.19
513.778	6028.19
513.994	6073.19
514.21	6250.19
514.426	6524.19
514.642	6975.19
514.858	7039.19
515.074	7602.19
515.29	9437.19
515.506	12835.19
515.721	8880.19
515.937	7272.19
516.153	6897.19
516.369	6833.19
516.585	6864.19
516.801	6900.19
517.016	7080.19
517.232	7256.19
517.448	7518.19
517.664	7676.19
517.879	7739.19
518.095	7563.19
518.311	7407.19
518.527	7183.19
518.742	7040.19
518.958	6799.19
519.173	6562.19
519.389	6515.19
519.605	6316.19
519.82	6243.19
520.036	6371.19
520.251	6643.19
520.467	6684.19
520.682	6584.19
520.898	6552.19
521.113	6819.19
521.329	7159.19
521.544	8091.19
521.76	10630.19
521.975	15301.19
522.19	12675.19
522.406	7622.19
522.621	6388.19
522.836	6008.19
523.052	5716.19
523.267	5505.19
523.482	5469.19
523.698	5388.19
523.913	5360.19
524.128	5321.19
524.343	5172.19
524.559	5141.19
524.774	5083.19
524.989	5001.19
525.204	5203.19
525.419	5136.19
525.634	5037.19
525.849	4891.19
526.064	4876.19
526.28	4895.19
526.495	4871.19
526.71	4859.19
526.925	4839.19
527.14	4801.19
527.355	4893.19
527.57	4821.19
527.785	4813.19
527.999	4837.19
528.214	4793.19
528.429	4795.19
528.644	4803.19
528.859	4808.19
529.074	4874.19
529.289	5116.19
529.503	5887.19
529.718	5453.19
529.933	5081.19
530.148	4876.19
530.363	4852.19
530.577	4827.19
530.792	4771.19
531.007	4739.19
531.221	4793.19
531.436	4745.19
531.651	4705.19
531.865	4727.19
532.08	4699.19
532.295	4708.19
532.509	4686.19
532.724	4707.19
532.938	4705.19
533.153	4727.19
533.367	4663.19
533.582	4755.19
533.796	4634.19
534.011	4663.19
534.225	4615.19
534.44	4642.19
534.654	4611.19
534.868	4533.19
535.083	4685.19
535.297	4574.19
535.511	4604.19
535.726	4696.19
535.94	4667.19
536.154	4555.19
536.369	4548.19
536.583	4390.19
536.797	4349.19
537.011	4421.19
537.225	4355.19
537.44	4377.19
537.654	4371.19
537.868	4427.19
538.082	4399.19
538.296	4424.19
538.51	4416.19
538.724	4359.19
538.938	4275.19
539.153	4316.19
539.367	4486.19
539.581	4397.19
539.795	4372.19
540.009	4266.19
540.222	4313.19
540.436	4272.19
540.65	4358.19
540.864	4351.19
541.078	4415.19
541.292	4307.19
541.506	4255.19
541.72	4187.19
541.934	4113.19
542.147	4169.19
542.361	4123.19
542.575	4081.19
542.789	4173.19
543.002	4210.19
543.216	4235.19
543.43	4291.19
543.644	4186.19
543.857	4183.19
544.071	4237.19
544.285	4219.19
544.498	4197.19
544.712	4173.19
544.925	4201.19
545.139	4173.19
545.352	4221.19
545.566	4180.19
545.779	4133.19
545.993	4204.19
546.206	4136.19
546.42	4184.19
546.633	4197.19
546.847	4128.19
547.06	4105.19
547.274	4137.19
547.487	4118.19
547.7	4080.19
547.914	4123.19
548.127	4199.19
548.34	4167.19
548.554	4165.19
548.767	4111.19
548.98	4108.19
549.193	4215.19
549.407	4209.19
549.62	4251.19
549.833	4265.19
550.046	4197.19
550.259	4202.19
550.473	4084.19
550.686	4089.19
550.899	4055.19
551.112	4000.19
551.325	4013.19
551.538	4027.19
551.751	4022.19
551.964	4110.19
552.177	4112.19
552.39	4165.19
552.603	4311.19
552.816	4382.19
553.029	4401.19
553.242	4488.19
553.455	4545.19
553.667	4578.19
553.88	4530.19
554.093	4423.19
554.306	4388.19
554.519	4310.19
554.732	4153.19
554.944	4055.19
555.157	4002.19
555.37	3905.19
555.583	3852.19
555.795	3864.19
556.008	3747.19
556.221	3681.19
556.433	3620.19
556.646	3564.19
556.859	3604.19
557.071	3528.19
557.284	3562.19
557.496	3458.19
557.709	3452.19
557.921	3467.19
558.134	3452.19
558.346	3424.19
558.559	3390.19
558.771	3342.19
558.984	3354.19
559.196	3339.19
559.409	3373.19
559.621	3303.19
559.833	3339.19
560.046	3289.19
560.258	3327.19
560.47	3305.19
560.683	3313.19
560.895	3320.19
561.107	3375.19
561.32	3288.19
561.532	3311.19
561.744	3327.19
561.956	3280.19
562.168	3319.19
562.381	3273.19
562.593	3307.19
562.805	3341.19
563.017	3340.19
563.229	3397.19
563.441	3409.19
563.653	3422.19
563.865	3429.19
564.077	3451.19
564.289	3418.19
564.501	3490.19
564.713	3604.19
564.925	3709.19
565.137	3881.19
565.349	3814.19
565.561	3908.19
565.773	4029.19
565.985	4145.19
566.197	4482.19
566.408	4784.19
566.62	5052.19
566.832	5349.19
567.044	5420.19
567.255	5358.19
567.467	5542.19
567.679	5828.19
567.891	6247.19
568.102	6187.19
568.314	5792.19
568.526	5335.19
568.737	4778.19
568.949	4546.19
569.161	4185.19
569.372	3984.19
569.584	3779.19
569.795	3606.19
570.007	3620.19
570.218	3881.19
570.43	3557.19
570.641	3383.19
570.853	3324.19
571.064	3449.19
571.276	3332.19
571.487	3222.19
571.698	3112.19
571.91	3046.19
572.121	3003.19
572.333	2951.19
572.544	2933.19
572.755	2800.19
572.966	2817.19
573.178	2751.19
573.389	2750.19
573.6	2725.19
573.811	2735.19
574.023	2631.19
574.234	2638.19
574.445	2633.19
574.656	2697.19
574.867	2626.19
575.078	2652.19
575.289	2597.19
575.501	2594.19
575.712	2516.19
575.923	2546.19
576.134	2545.19
576.345	2523.19
576.556	2517.19
576.767	2462.19
576.978	2515.19
577.188	2468.19
577.399	2489.19
577.61	2439.19
577.821	2431.19
578.032	2438.19
578.243	2822.19
578.454	4070.19
578.665	2701.19
578.875	2365.19
579.086	2329.19
579.297	2346.19
579.508	2315.19
579.718	2235.19
579.929	2256.19
580.14	2214.19
580.35	2230.19
580.561	2206.19
580.772	2213.19
580.982	2206.19
581.193	2171.19
581.403	2153.19
581.614	2190.19
581.825	2206.19
582.035	2156.19
582.246	2158.19
582.456	2139.19
582.667	2134.19
582.877	2188.19
583.087	2176.19
583.298	2121.19
583.508	2122.19
583.719	2144.19
583.929	2119.19
584.139	2133.19
584.35	2125.19
584.56	2113.19
584.77	2085.19
584.981	2103.19
585.191	2144.19
585.401	2088.19
585.611	2111.19
585.821	2079.19
586.032	2084.19
586.242	2099.19
586.452	2031.19
586.662	1989.19
586.872	2010.19
587.082	2038.19
587.292	2051.19
587.502	2027.19
587.713	2044.19
587.923	1997.19
588.133	2001.19
588.343	2014.19
588.553	2015.19
588.762	2027.19
588.972	2015.19
589.182	2022.19
589.392	2087.19
589.602	2025.19
589.812	2057.19
590.022	2021.19
590.232	2035.19
590.441	2015.19
590.651	2092.19
590.861	2093.19
591.071	2094.19
591.281	2131.19
591.49	2163.19
591.7	2137.19
591.91	2181.19
592.119	2218.19
592.329	2243.19
592.539	2380.19
592.748	2428.19
592.958	2525.19
593.167	2520.19
593.377	2545.19
593.587	2641.19
593.796	2601.19
594.006	2581.19
594.215	2656.19
594.424	2551.19
594.634	2527.19
594.843	2415.19
595.053	2304.19
595.262	2298.19
595.472	2220.19
595.681	2115.19
595.89	2056.19
596.1	2041.19
596.309	1984.19
596.518	1912.19
596.727	1933.19
596.937	1885.19
597.146	1853.19
597.355	1842.19
597.564	1787.19
597.774	1832.19
597.983	1753.19
598.192	1747.19
598.401	1742.19
598.61	1730.19
598.819	1735.19
599.028	1688.19
599.237	1669.19
599.446	1689.19
599.655	1696.19
599.864	1675.19
600.073	1647.19
600.282	1677.19
600.491	1652.19
600.7	1687.19
600.909	1613.19
601.118	1655.19
601.327	1634.19
601.536	1615.19
601.745	1583.19
601.953	1621.19
602.162	1609.19
602.371	1579.19
602.58	1605.19
602.789	1552.19
602.997	1561.19
603.206	1580.19
603.415	1540.19
603.623	1519.19
603.832	1508.19
604.041	1558.19
604.249	1521.19
604.458	1497.19
604.666	1490.19
604.875	1517.19
605.084	1484.19
605.292	1473.19
605.501	1462.19
605.709	1499.19
605.918	1476.19
606.126	1457.19
606.334	1460.19
606.543	1481.19
606.751	1444.19
606.96	1459.19
607.168	1452.19
607.376	1460.19
607.585	1437.19
607.793	1441.19
608.001	1456.19
608.21	1460.19
608.418	1442.19
608.626	1440.19
608.834	1445.19
609.043	1423.19
609.251	1410.19
609.459	1377.19
609.667	1410.19
609.875	1414.19
610.083	1405.19
610.291	1404.19
610.499	1401.19
610.707	1397.19
610.916	1419.19
611.124	1399.19
611.332	1418.19
611.54	1442.19
611.748	1417.19
611.955	1396.19
612.163	1353.19
612.371	1361.19
612.579	1364.19
612.787	1359.19
612.995	1353.19
613.203	1365.19
613.411	1303.19
613.618	1358.19
613.826	1347.19
614.034	1357.19
614.242	1355.19
614.449	1330.19
614.657	1344.19
614.865	1348.19
615.072	1347.19
615.28	1344.19
615.488	1357.19
615.695	1381.19
615.903	1390.19
616.111	1381.19
616.318	1387.19
616.526	1385.19
616.733	1403.19
616.941	1367.19
617.148	1339.19
617.356	1377.19
617.563	1369.19
617.771	1365.19
617.978	1345.19
618.185	1372.19
618.393	1321.19
618.6	1319.19
618.807	1343.19
619.015	1364.19
619.222	1342.19
619.429	1345.19
619.637	1333.19
619.844	1312.19
620.051	1324.19
620.258	1274.19
620.466	1261.19
620.673	1239.19
620.88	1213.19
621.087	1205.19
621.294	1238.19
621.501	1256.19
621.708	1268.19
621.915	1269.19
622.122	1265.19
622.329	1257.19
622.536	1217.19
622.743	1206.19
622.95	1203.19
623.157	1190.19
623.364	1173.19
623.571	1180.19
623.778	1184.19
623.985	1189.19
624.192	1175.19
624.399	1150.19
624.606	1136.19
624.812	1133.19
625.019	1135.19
625.226	1150.19
625.433	1136.19
625.639	1109.19
625.846	1115.19
626.053	1140.19
626.259	1115.19
626.466	1114.19
626.673	1104.19
626.879	1117.19
627.086	1086.19
627.293	1080.19
627.499	1104.19
627.706	1109.19
627.912	1097.19
628.119	1073.19
628.325	1072.19
628.532	1061.19
628.738	1052.19
628.945	1020.19
629.151	1054.19
629.357	1053.19
629.564	1025.19
629.77	1044.19
629.976	1025.19
630.183	1001.19
630.389	1012.19
630.595	993.19
630.802	971.19
631.008	1000.19
631.214	1005.19
631.42	976.19
631.627	1008.19
631.833	973.19
632.039	951.19
632.245	924.19
632.451	964.19
632.657	924.19
632.863	916.19
633.069	952.19
633.275	923.19
633.481	897.19
633.688	923.19
633.893	903.19
634.099	945.19
634.305	904.19
634.511	903.19
634.717	869.19
634.923	876.19
635.129	890.19
635.335	888.19
635.541	898.19
635.747	887.19
635.952	884.19
636.158	876.19
636.364	918.19
636.57	896.19
636.775	860.19
636.981	867.19
637.187	886.19
637.392	862.19
637.598	859.19
637.804	853.19
638.009	882.19
638.215	832.19
638.421	817.19
638.626	833.19
638.832	805.19
639.037	821.19
639.243	805.19
639.448	800.19
639.654	811.19
639.859	793.19
640.065	775.19
640.27	800.19
640.475	791.19
640.681	792.19
640.886	809.19
641.091	820.19
641.297	775.19
641.502	771.19
641.707	758.19
641.913	787.19
642.118	791.19
642.323	782.19
642.528	768.19
642.733	742.19
642.939	759.19
643.144	738.19
643.349	764.19
643.554	765.19
643.759	739.19
643.964	737.19
644.169	739.19
644.374	740.19
644.579	751.19
644.784	758.19
644.989	729.19
645.194	738.19
645.399	728.19
645.604	737.19
645.809	736.19
646.014	734.19
646.219	754.19
646.423	760.19
646.628	709.19
646.833	753.19
647.038	753.19
647.243	748.19
647.447	753.19
647.652	768.19
647.857	784.19
648.062	779.19
648.266	812.19
648.471	807.19
648.676	840.19
648.88	853.19
649.085	823.19
649.289	792.19
649.494	871.19
649.698	1010.19
649.903	848.19
650.107	756.19
650.312	719.19
650.516	682.19
650.721	663.19
650.925	650.19
651.13	609.19
651.334	629.19
651.539	590.19
651.743	611.19
651.947	580.19
652.152	571.19
652.356	567.19
652.56	554.19
652.764	544.19
652.969	555.19
653.173	513.19
653.377	517.19
653.581	504.19
653.785	492.19
653.99	491.19
654.194	487.19
654.398	501.19
654.602	487.19
654.806	493.19
655.01	583.19
655.214	511.19
655.418	476.19
655.622	465.19
655.826	476.19
656.03	467.19
656.234	475.19
656.438	491.19
656.642	486.19
656.846	439.19
657.049	415.19
657.253	384.19
657.457	370.19
657.661	335.19
657.865	313.19
658.068	289.19
658.272	288.19
658.476	285.19
658.68	257.19
658.883	233.19
659.087	226.19
659.291	220.19
659.494	235.19
659.698	213.19
659.901	204.19
660.105	186.19
660.309	177.19
660.512	180.19
660.716	164.19
660.919	156.19
661.123	146.19
661.326	159.19
661.53	151.19
661.733	144.19
661.936	135.19
662.14	122.19
662.343	115.19
662.546	118.19
662.75	111.19
662.953	97.19
663.156	110.19
663.36	90.19
663.563	102.19
663.766	108.19
663.969	98.19
664.173	96.19
664.376	103.19
664.579	97.19
664.782	97.19
664.985	90.19
665.188	88.19
665.391	75.19
665.594	97.19
665.797	75.19
666	96.19
666.203	71.19
666.406	73.19
666.609	95.19
666.812	95.19
667.015	78.19
667.218	84.19
667.421	79.19
667.624	103.19
667.827	100.19
668.03	85.19
668.232	72.19
668.435	77.19
668.638	87.19
668.841	96.19
669.043	89.19
669.246	90.19
669.449	92.19
669.651	85.19
669.854	80.19
670.057	93.19
670.259	65.19
670.462	93.19
670.665	84.19
670.867	84.19
671.07	86.19
671.272	80.19
671.475	78.19
671.677	80.19
671.88	74.19
672.082	94.19
672.284	99.19
672.487	83.19
672.689	83.19
672.892	80.19
