Data from BG_HRD10591_033.txt Node
Date: Fri May 16 15:33:23 EDT 2025
User: Yrep
Spectrometer: HR+D1059
Trigger mode: 1
Integration Time (sec): 1.000000E-1
Scans to average: 1
Electric dark correction enabled: true
Nonlinearity correction enabled: false
Boxcar width: 0
XAxis mode: Wavelengths
Number of Pixels in Spectrum: 2048
>>>>>Begin Spectral Data<<<<<
223.165	-11.06
223.4	-11.06
223.635	-11.06
223.869	-18.06
224.104	-23.06
224.338	-6.06
224.573	-17.06
224.808	-17.06
225.042	-0.06
225.277	-6.06
225.511	-8.06
225.746	-7.06
225.98	9.94
226.215	23.94
226.449	19.94
226.683	19.94
226.918	8.94
227.152	30.94
227.387	34.94
227.621	45.94
227.856	52.94
228.09	46.94
228.324	42.94
228.559	56.94
228.793	50.94
229.027	50.94
229.262	63.94
229.496	65.94
229.73	76.94
229.964	72.94
230.199	65.94
230.433	64.94
230.667	63.94
230.901	73.94
231.136	79.94
231.37	74.94
231.604	68.94
231.838	81.94
232.072	66.94
232.306	80.94
232.541	97.94
232.775	89.94
233.009	69.94
233.243	84.94
233.477	79.94
233.711	78.94
233.945	85.94
234.179	87.94
234.413	97.94
234.647	73.94
234.881	80.94
235.115	79.94
235.349	82.94
235.583	84.94
235.817	72.94
236.051	73.94
236.285	77.94
236.519	85.94
236.753	74.94
236.987	71.94
237.221	66.94
237.455	62.94
237.689	84.94
237.922	83.94
238.156	63.94
238.39	71.94
238.624	62.94
238.858	86.94
239.091	79.94
239.325	78.94
239.559	70.94
239.793	77.94
240.027	70.94
240.26	75.94
240.494	76.94
240.728	76.94
240.961	77.94
241.195	66.94
241.429	75.94
241.662	70.94
241.896	80.94
242.13	75.94
242.363	72.94
242.597	71.94
242.83	82.94
243.064	67.94
243.298	73.94
243.531	70.94
243.765	79.94
243.998	78.94
244.232	83.94
244.465	70.94
244.699	77.94
244.932	74.94
245.166	67.94
245.399	67.94
245.633	74.94
245.866	60.94
246.099	58.94
246.333	71.94
246.566	93.94
246.8	77.94
247.033	76.94
247.266	84.94
247.5	80.94
247.733	60.94
247.966	73.94
248.2	76.94
248.433	64.94
248.666	71.94
248.899	84.94
249.133	84.94
249.366	83.94
249.599	74.94
249.832	76.94
250.066	78.94
250.299	72.94
250.532	87.94
250.765	79.94
250.998	85.94
251.231	81.94
251.465	77.94
251.698	64.94
251.931	79.94
252.164	76.94
252.397	85.94
252.63	78.94
252.863	90.94
253.096	84.94
253.329	93.94
253.562	79.94
253.795	72.94
254.028	89.94
254.261	85.94
254.494	80.94
254.727	85.94
254.96	78.94
255.193	76.94
255.426	87.94
255.659	85.94
255.892	76.94
256.124	79.94
256.357	85.94
256.59	87.94
256.823	80.94
257.056	74.94
257.289	76.94
257.521	75.94
257.754	88.94
257.987	80.94
258.22	66.94
258.452	82.94
258.685	73.94
258.918	77.94
259.151	76.94
259.383	91.94
259.616	74.94
259.849	71.94
260.081	80.94
260.314	72.94
260.547	87.94
260.779	82.94
261.012	91.94
261.244	70.94
261.477	79.94
261.71	88.94
261.942	82.94
262.175	77.94
262.407	76.94
262.64	74.94
262.872	72.94
263.105	84.94
263.337	73.94
263.57	81.94
263.802	91.94
264.035	79.94
264.267	89.94
264.499	100.94
264.732	80.94
264.964	71.94
265.197	88.94
265.429	84.94
265.661	61.94
265.894	78.94
266.126	86.94
266.358	86.94
266.591	88.94
266.823	76.94
267.055	76.94
267.287	88.94
267.52	86.94
267.752	89.94
267.984	95.94
268.216	77.94
268.448	78.94
268.681	69.94
268.913	85.94
269.145	96.94
269.377	84.94
269.609	74.94
269.841	76.94
270.073	87.94
270.306	78.94
270.538	72.94
270.77	81.94
271.002	78.94
271.234	70.94
271.466	85.94
271.698	86.94
271.93	79.94
272.162	87.94
272.394	82.94
272.626	85.94
272.858	86.94
273.09	71.94
273.322	84.94
273.553	86.94
273.785	93.94
274.017	82.94
274.249	96.94
274.481	72.94
274.713	67.94
274.945	90.94
275.176	85.94
275.408	86.94
275.64	100.94
275.872	83.94
276.104	76.94
276.335	91.94
276.567	86.94
276.799	87.94
277.031	90.94
277.262	90.94
277.494	93.94
277.726	93.94
277.957	91.94
278.189	95.94
278.421	80.94
278.652	82.94
278.884	67.94
279.115	84.94
279.347	90.94
279.579	94.94
279.81	77.94
280.042	82.94
280.273	88.94
280.505	98.94
280.736	65.94
280.968	93.94
281.199	82.94
281.431	99.94
281.662	85.94
281.894	78.94
282.125	85.94
282.356	82.94
282.588	79.94
282.819	82.94
283.051	77.94
283.282	70.94
283.513	73.94
283.745	90.94
283.976	90.94
284.207	89.94
284.439	87.94
284.67	71.94
284.901	87.94
285.132	77.94
285.364	72.94
285.595	89.94
285.826	70.94
286.057	90.94
286.288	84.94
286.52	83.94
286.751	74.94
286.982	77.94
287.213	82.94
287.444	83.94
287.675	76.94
287.906	96.94
288.138	90.94
288.369	86.94
288.6	84.94
288.831	84.94
289.062	92.94
289.293	83.94
289.524	80.94
289.755	87.94
289.986	93.94
290.217	89.94
290.448	74.94
290.679	81.94
290.91	83.94
291.141	80.94
291.371	71.94
291.602	79.94
291.833	73.94
292.064	85.94
292.295	87.94
292.526	63.94
292.757	80.94
292.987	88.94
293.218	89.94
293.449	91.94
293.68	84.94
293.91	83.94
294.141	100.94
294.372	89.94
294.603	72.94
294.833	72.94
295.064	76.94
295.295	83.94
295.525	93.94
295.756	82.94
295.987	89.94
296.217	76.94
296.448	87.94
296.679	91.94
296.909	91.94
297.14	85.94
297.37	89.94
297.601	84.94
297.831	76.94
298.062	86.94
298.292	94.94
298.523	74.94
298.753	84.94
298.984	80.94
299.214	88.94
299.445	88.94
299.675	93.94
299.905	83.94
300.136	76.94
300.366	91.94
300.597	76.94
300.827	94.94
301.057	81.94
301.288	67.94
301.518	58.94
301.748	80.94
301.979	101.94
302.209	89.94
302.439	86.94
302.669	79.94
302.9	88.94
303.13	98.94
303.36	92.94
303.59	81.94
303.82	76.94
304.051	79.94
304.281	82.94
304.511	85.94
304.741	87.94
304.971	99.94
305.201	86.94
305.431	72.94
305.661	79.94
305.891	67.94
306.121	86.94
306.352	84.94
306.582	80.94
306.812	90.94
307.042	86.94
307.272	79.94
307.502	75.94
307.731	82.94
307.961	82.94
308.191	83.94
308.421	79.94
308.651	87.94
308.881	92.94
309.111	91.94
309.341	112.94
309.571	77.94
309.8	88.94
310.03	90.94
310.26	82.94
310.49	74.94
310.72	85.94
310.949	86.94
311.179	81.94
311.409	94.94
311.639	82.94
311.868	96.94
312.098	78.94
312.328	84.94
312.557	70.94
312.787	80.94
313.017	87.94
313.246	85.94
313.476	96.94
313.706	86.94
313.935	80.94
314.165	86.94
314.394	90.94
314.624	90.94
314.853	95.94
315.083	88.94
315.312	87.94
315.542	86.94
315.771	75.94
316.001	93.94
316.23	85.94
316.46	80.94
316.689	84.94
316.919	84.94
317.148	80.94
317.377	84.94
317.607	102.94
317.836	96.94
318.065	80.94
318.295	79.94
318.524	82.94
318.753	91.94
318.983	87.94
319.212	93.94
319.441	94.94
319.67	80.94
319.9	86.94
320.129	85.94
320.358	81.94
320.587	79.94
320.816	92.94
321.046	87.94
321.275	82.94
321.504	72.94
321.733	86.94
321.962	79.94
322.191	84.94
322.42	76.94
322.649	85.94
322.878	97.94
323.108	87.94
323.337	77.94
323.566	76.94
323.795	76.94
324.024	85.94
324.253	89.94
324.482	72.94
324.71	69.94
324.939	89.94
325.168	98.94
325.397	97.94
325.626	88.94
325.855	89.94
326.084	79.94
326.313	80.94
326.542	76.94
326.77	87.94
326.999	93.94
327.228	95.94
327.457	87.94
327.686	90.94
327.914	85.94
328.143	80.94
328.372	82.94
328.6	69.94
328.829	76.94
329.058	76.94
329.287	80.94
329.515	89.94
329.744	81.94
329.972	80.94
330.201	69.94
330.43	71.94
330.658	81.94
330.887	80.94
331.115	78.94
331.344	81.94
331.572	92.94
331.801	89.94
332.03	93.94
332.258	100.94
332.486	93.94
332.715	76.94
332.943	78.94
333.172	93.94
333.4	82.94
333.629	85.94
333.857	86.94
334.085	76.94
334.314	81.94
334.542	90.94
334.771	89.94
334.999	87.94
335.227	73.94
335.455	81.94
335.684	90.94
335.912	84.94
336.14	79.94
336.369	92.94
336.597	84.94
336.825	87.94
337.053	84.94
337.281	102.94
337.51	89.94
337.738	81.94
337.966	80.94
338.194	73.94
338.422	67.94
338.65	95.94
338.878	87.94
339.106	85.94
339.334	86.94
339.562	78.94
339.79	84.94
340.018	95.94
340.246	81.94
340.474	94.94
340.702	76.94
340.93	76.94
341.158	84.94
341.386	88.94
341.614	80.94
341.842	80.94
342.07	79.94
342.298	89.94
342.526	80.94
342.754	83.94
342.981	106.94
343.209	91.94
343.437	81.94
343.665	92.94
343.893	85.94
344.12	94.94
344.348	88.94
344.576	88.94
344.804	70.94
345.031	85.94
345.259	79.94
345.487	73.94
345.714	79.94
345.942	85.94
346.17	78.94
346.397	89.94
346.625	73.94
346.853	84.94
347.08	88.94
347.308	93.94
347.535	90.94
347.763	80.94
347.99	73.94
348.218	76.94
348.445	89.94
348.673	86.94
348.9	78.94
349.128	89.94
349.355	88.94
349.583	81.94
349.81	88.94
350.037	76.94
350.265	82.94
350.492	88.94
350.72	86.94
350.947	92.94
351.174	95.94
351.402	84.94
351.629	90.94
351.856	85.94
352.083	87.94
352.311	83.94
352.538	72.94
352.765	84.94
352.992	65.94
353.22	82.94
353.447	81.94
353.674	89.94
353.901	92.94
354.128	89.94
354.355	78.94
354.583	81.94
354.81	82.94
355.037	85.94
355.264	93.94
355.491	84.94
355.718	96.94
355.945	91.94
356.172	95.94
356.399	79.94
356.626	88.94
356.853	90.94
357.08	79.94
357.307	90.94
357.534	83.94
357.761	77.94
357.988	80.94
358.215	88.94
358.441	67.94
358.668	86.94
358.895	84.94
359.122	101.94
359.349	76.94
359.576	90.94
359.802	86.94
360.029	85.94
360.256	79.94
360.483	76.94
360.709	87.94
360.936	93.94
361.163	89.94
361.39	82.94
361.616	80.94
361.843	81.94
362.07	81.94
362.296	80.94
362.523	98.94
362.749	77.94
362.976	84.94
363.203	82.94
363.429	86.94
363.656	84.94
363.882	76.94
364.109	88.94
364.335	94.94
364.562	72.94
364.788	82.94
365.015	76.94
365.241	88.94
365.468	96.94
365.694	93.94
365.92	100.94
366.147	84.94
366.373	77.94
366.599	69.94
366.826	95.94
367.052	82.94
367.278	98.94
367.505	91.94
367.731	89.94
367.957	87.94
368.184	80.94
368.41	87.94
368.636	85.94
368.862	87.94
369.089	81.94
369.315	86.94
369.541	90.94
369.767	87.94
369.993	91.94
370.219	83.94
370.445	100.94
370.672	86.94
370.898	94.94
371.124	91.94
371.35	80.94
371.576	105.94
371.802	72.94
372.028	80.94
372.254	78.94
372.48	77.94
372.706	80.94
372.932	88.94
373.158	68.94
373.384	83.94
373.61	86.94
373.835	87.94
374.061	84.94
374.287	96.94
374.513	82.94
374.739	89.94
374.965	81.94
375.191	86.94
375.416	77.94
375.642	103.94
375.868	92.94
376.094	93.94
376.319	71.94
376.545	62.94
376.771	74.94
376.997	81.94
377.222	79.94
377.448	75.94
377.674	86.94
377.899	99.94
378.125	104.94
378.35	95.94
378.576	91.94
378.802	78.94
379.027	92.94
379.253	93.94
379.478	90.94
379.704	90.94
379.929	79.94
380.155	87.94
380.38	73.94
380.606	81.94
380.831	79.94
381.057	84.94
381.282	81.94
381.507	82.94
381.733	81.94
381.958	73.94
382.184	71.94
382.409	72.94
382.634	88.94
382.86	76.94
383.085	89.94
383.31	79.94
383.535	75.94
383.761	80.94
383.986	90.94
384.211	79.94
384.436	83.94
384.662	81.94
384.887	66.94
385.112	92.94
385.337	76.94
385.562	84.94
385.787	89.94
386.013	86.94
386.238	84.94
386.463	82.94
386.688	90.94
386.913	82.94
387.138	91.94
387.363	87.94
387.588	82.94
387.813	74.94
388.038	87.94
388.263	85.94
388.488	84.94
388.713	76.94
388.938	74.94
389.163	85.94
389.387	82.94
389.612	74.94
389.837	72.94
390.062	86.94
390.287	77.94
390.512	88.94
390.736	68.94
390.961	68.94
391.186	85.94
391.411	85.94
391.636	84.94
391.86	72.94
392.085	94.94
392.31	86.94
392.534	85.94
392.759	89.94
392.984	82.94
393.208	80.94
393.433	76.94
393.658	94.94
393.882	74.94
394.107	95.94
394.331	84.94
394.556	87.94
394.78	91.94
395.005	84.94
395.229	89.94
395.454	97.94
395.678	80.94
395.903	94.94
396.127	83.94
396.352	91.94
396.576	92.94
396.801	87.94
397.025	88.94
397.249	89.94
397.474	82.94
397.698	85.94
397.922	94.94
398.147	91.94
398.371	81.94
398.595	84.94
398.82	86.94
399.044	88.94
399.268	82.94
399.492	94.94
399.717	89.94
399.941	86.94
400.165	85.94
400.389	106.94
400.613	94.94
400.837	84.94
401.062	83.94
401.286	88.94
401.51	79.94
401.734	97.94
401.958	85.94
402.182	85.94
402.406	95.94
402.63	85.94
402.854	83.94
403.078	86.94
403.302	76.94
403.526	89.94
403.75	92.94
403.974	69.94
404.198	73.94
404.422	80.94
404.645	83.94
404.869	81.94
405.093	88.94
405.317	92.94
405.541	89.94
405.765	86.94
405.988	81.94
406.212	88.94
406.436	77.94
406.66	81.94
406.883	81.94
407.107	91.94
407.331	87.94
407.555	96.94
407.778	84.94
408.002	76.94
408.226	88.94
408.449	88.94
408.673	95.94
408.896	83.94
409.12	89.94
409.344	90.94
409.567	87.94
409.791	86.94
410.014	77.94
410.238	80.94
410.461	81.94
410.685	70.94
410.908	97.94
411.132	90.94
411.355	76.94
411.578	78.94
411.802	98.94
412.025	95.94
412.249	102.94
412.472	91.94
412.695	81.94
412.919	78.94
413.142	80.94
413.365	79.94
413.589	80.94
413.812	85.94
414.035	80.94
414.258	81.94
414.482	102.94
414.705	84.94
414.928	104.94
415.151	82.94
415.374	96.94
415.597	81.94
415.821	74.94
416.044	76.94
416.267	76.94
416.49	82.94
416.713	83.94
416.936	92.94
417.159	92.94
417.382	80.94
417.605	87.94
417.828	101.94
418.051	66.94
418.274	86.94
418.497	84.94
418.72	84.94
418.943	86.94
419.166	80.94
419.389	80.94
419.611	82.94
419.834	93.94
420.057	86.94
420.28	90.94
420.503	81.94
420.726	87.94
420.948	100.94
421.171	89.94
421.394	74.94
421.617	92.94
421.839	89.94
422.062	82.94
422.285	81.94
422.507	94.94
422.73	75.94
422.953	72.94
423.175	74.94
423.398	91.94
423.621	97.94
423.843	80.94
424.066	85.94
424.288	85.94
424.511	88.94
424.733	78.94
424.956	90.94
425.178	93.94
425.401	88.94
425.623	89.94
425.846	91.94
426.068	82.94
426.291	82.94
426.513	88.94
426.735	88.94
426.958	87.94
427.18	90.94
427.402	78.94
427.625	75.94
427.847	78.94
428.069	65.94
428.292	81.94
428.514	88.94
428.736	81.94
428.958	71.94
429.181	84.94
429.403	76.94
429.625	72.94
429.847	87.94
430.069	87.94
430.292	81.94
430.514	83.94
430.736	72.94
430.958	79.94
431.18	73.94
431.402	102.94
431.624	88.94
431.846	92.94
432.068	85.94
432.29	88.94
432.512	90.94
432.734	89.94
432.956	85.94
433.178	103.94
433.4	84.94
433.622	83.94
433.844	76.94
434.066	90.94
434.287	86.94
434.509	79.94
434.731	86.94
434.953	80.94
435.175	84.94
435.397	89.94
435.618	74.94
435.84	82.94
436.062	97.94
436.284	80.94
436.505	81.94
436.727	83.94
436.949	87.94
437.17	77.94
437.392	88.94
437.614	70.94
437.835	58.94
438.057	77.94
438.278	76.94
438.5	88.94
438.721	76.94
438.943	91.94
439.165	88.94
439.386	85.94
439.608	80.94
439.829	87.94
440.05	97.94
440.272	104.94
440.493	94.94
440.715	89.94
440.936	75.94
441.158	78.94
441.379	84.94
441.6	84.94
441.822	73.94
442.043	78.94
442.264	83.94
442.486	107.94
442.707	88.94
442.928	88.94
443.149	86.94
443.371	77.94
443.592	90.94
443.813	105.94
444.034	94.94
444.255	85.94
444.476	89.94
444.698	79.94
444.919	91.94
445.14	159.94
445.361	117.94
445.582	82.94
445.803	87.94
446.024	81.94
446.245	95.94
446.466	92.94
446.687	70.94
446.908	84.94
447.129	96.94
447.35	85.94
447.571	88.94
447.792	91.94
448.013	75.94
448.234	89.94
448.455	80.94
448.675	84.94
448.896	94.94
449.117	77.94
449.338	81.94
449.559	91.94
449.779	78.94
450	84.94
450.221	70.94
450.442	83.94
450.662	85.94
450.883	90.94
451.104	74.94
451.324	77.94
451.545	75.94
451.766	76.94
451.986	92.94
452.207	79.94
452.428	93.94
452.648	87.94
452.869	89.94
453.089	85.94
453.31	77.94
453.53	77.94
453.751	76.94
453.971	80.94
454.192	89.94
454.412	79.94
454.633	81.94
454.853	89.94
455.073	81.94
455.294	80.94
455.514	86.94
455.734	93.94
455.955	75.94
456.175	72.94
456.395	70.94
456.616	84.94
456.836	82.94
457.056	92.94
457.276	92.94
457.497	72.94
457.717	80.94
457.937	81.94
458.157	98.94
458.377	80.94
458.598	74.94
458.818	87.94
459.038	86.94
459.258	88.94
459.478	79.94
459.698	81.94
459.918	85.94
460.138	70.94
460.358	96.94
460.578	96.94
460.798	92.94
461.018	84.94
461.238	72.94
461.458	76.94
461.678	83.94
461.898	90.94
462.118	102.94
462.338	93.94
462.558	72.94
462.777	82.94
462.997	90.94
463.217	82.94
463.437	76.94
463.657	92.94
463.876	95.94
464.096	81.94
464.316	109.94
464.536	72.94
464.755	79.94
464.975	86.94
465.195	96.94
465.414	79.94
465.634	88.94
465.854	84.94
466.073	93.94
466.293	94.94
466.512	74.94
466.732	82.94
466.951	84.94
467.171	78.94
467.391	92.94
467.61	79.94
467.829	84.94
468.049	71.94
468.268	84.94
468.488	75.94
468.707	86.94
468.927	86.94
469.146	79.94
469.365	78.94
469.585	72.94
469.804	96.94
470.023	97.94
470.243	83.94
470.462	98.94
470.681	80.94
470.901	94.94
471.12	90.94
471.339	80.94
471.558	88.94
471.777	88.94
471.997	81.94
472.216	88.94
472.435	85.94
472.654	80.94
472.873	85.94
473.092	86.94
473.311	86.94
473.53	89.94
473.749	81.94
473.968	72.94
474.187	83.94
474.406	80.94
474.625	68.94
474.844	92.94
475.063	74.94
475.282	77.94
475.501	113.94
475.72	89.94
475.939	84.94
476.158	75.94
476.377	86.94
476.596	88.94
476.814	84.94
477.033	80.94
477.252	87.94
477.471	91.94
477.69	82.94
477.908	90.94
478.127	85.94
478.346	96.94
478.564	90.94
478.783	90.94
479.002	82.94
479.22	88.94
479.439	84.94
479.658	80.94
479.876	98.94
480.095	85.94
480.313	79.94
480.532	100.94
480.751	92.94
480.969	94.94
481.188	89.94
481.406	95.94
481.624	87.94
481.843	85.94
482.061	86.94
482.28	98.94
482.498	86.94
482.717	84.94
482.935	69.94
483.153	77.94
483.372	85.94
483.59	87.94
483.808	63.94
484.027	94.94
484.245	90.94
484.463	90.94
484.681	86.94
484.9	100.94
485.118	84.94
485.336	90.94
485.554	101.94
485.772	73.94
485.99	92.94
486.209	84.94
486.427	81.94
486.645	98.94
486.863	89.94
487.081	90.94
487.299	86.94
487.517	95.94
487.735	73.94
487.953	85.94
488.171	84.94
488.389	81.94
488.607	98.94
488.825	81.94
489.043	86.94
489.261	100.94
489.479	88.94
489.696	77.94
489.914	81.94
490.132	89.94
490.35	91.94
490.568	101.94
490.786	96.94
491.003	84.94
491.221	79.94
491.439	84.94
491.657	70.94
491.874	81.94
492.092	76.94
492.31	97.94
492.527	89.94
492.745	89.94
492.963	89.94
493.18	92.94
493.398	83.94
493.615	91.94
493.833	82.94
494.05	90.94
494.268	89.94
494.485	89.94
494.703	94.94
494.92	97.94
495.138	80.94
495.355	78.94
495.573	70.94
495.79	97.94
496.008	96.94
496.225	75.94
496.442	88.94
496.66	93.94
496.877	107.94
497.094	83.94
497.312	93.94
497.529	87.94
497.746	99.94
497.963	84.94
498.181	77.94
498.398	93.94
498.615	76.94
498.832	104.94
499.049	92.94
499.267	79.94
499.484	93.94
499.701	97.94
499.918	91.94
500.135	96.94
500.352	94.94
500.569	89.94
500.786	104.94
501.003	95.94
501.22	88.94
501.437	94.94
501.654	101.94
501.871	100.94
502.088	92.94
502.305	87.94
502.522	91.94
502.739	96.94
502.956	88.94
503.172	89.94
503.389	74.94
503.606	80.94
503.823	89.94
504.04	106.94
504.256	100.94
504.473	93.94
504.69	87.94
504.907	95.94
505.123	101.94
505.34	92.94
505.557	102.94
505.773	72.94
505.99	90.94
506.207	73.94
506.423	81.94
506.64	88.94
506.856	84.94
507.073	88.94
507.289	100.94
507.506	93.94
507.722	69.94
507.939	96.94
508.155	79.94
508.372	86.94
508.588	73.94
508.805	86.94
509.021	84.94
509.238	91.94
509.454	78.94
509.67	77.94
509.887	79.94
510.103	79.94
510.319	73.94
510.536	95.94
510.752	90.94
510.968	76.94
511.184	74.94
511.401	75.94
511.617	89.94
511.833	87.94
512.049	88.94
512.265	83.94
512.481	77.94
512.698	82.94
512.914	95.94
513.13	81.94
513.346	88.94
513.562	89.94
513.778	83.94
513.994	81.94
514.21	78.94
514.426	90.94
514.642	91.94
514.858	90.94
515.074	72.94
515.29	91.94
515.506	94.94
515.721	80.94
515.937	90.94
516.153	100.94
516.369	101.94
516.585	87.94
516.801	89.94
517.016	84.94
517.232	90.94
517.448	98.94
517.664	90.94
517.879	78.94
518.095	82.94
518.311	101.94
518.527	89.94
518.742	87.94
518.958	87.94
519.173	95.94
519.389	90.94
519.605	81.94
519.82	78.94
520.036	94.94
520.251	92.94
520.467	85.94
520.682	82.94
520.898	84.94
521.113	81.94
521.329	81.94
521.544	88.94
521.76	77.94
521.975	95.94
522.19	75.94
522.406	90.94
522.621	83.94
522.836	84.94
523.052	81.94
523.267	74.94
523.482	78.94
523.698	88.94
523.913	76.94
524.128	96.94
524.343	84.94
524.559	86.94
524.774	82.94
524.989	80.94
525.204	92.94
525.419	81.94
525.634	77.94
525.849	86.94
526.064	88.94
526.28	113.94
526.495	96.94
526.71	90.94
526.925	84.94
527.14	83.94
527.355	97.94
527.57	98.94
527.785	89.94
527.999	89.94
528.214	83.94
528.429	85.94
528.644	84.94
528.859	96.94
529.074	79.94
529.289	78.94
529.503	92.94
529.718	81.94
529.933	94.94
530.148	101.94
530.363	100.94
530.577	72.94
530.792	89.94
531.007	82.94
531.221	88.94
531.436	89.94
531.651	84.94
531.865	86.94
532.08	89.94
532.295	94.94
532.509	97.94
532.724	74.94
532.938	82.94
533.153	83.94
533.367	89.94
533.582	80.94
533.796	84.94
534.011	84.94
534.225	100.94
534.44	89.94
534.654	84.94
534.868	79.94
535.083	104.94
535.297	81.94
535.511	95.94
535.726	88.94
535.94	71.94
536.154	87.94
536.369	91.94
536.583	81.94
536.797	89.94
537.011	86.94
537.225	92.94
537.44	93.94
537.654	92.94
537.868	91.94
538.082	77.94
538.296	90.94
538.51	102.94
538.724	83.94
538.938	82.94
539.153	81.94
539.367	79.94
539.581	95.94
539.795	81.94
540.009	90.94
540.222	74.94
540.436	90.94
540.65	96.94
540.864	101.94
541.078	97.94
541.292	82.94
541.506	79.94
541.72	83.94
541.934	88.94
542.147	90.94
542.361	91.94
542.575	89.94
542.789	76.94
543.002	77.94
543.216	89.94
543.43	86.94
543.644	90.94
543.857	95.94
544.071	86.94
544.285	79.94
544.498	84.94
544.712	87.94
544.925	86.94
545.139	82.94
545.352	92.94
545.566	70.94
545.779	96.94
545.993	90.94
546.206	88.94
546.42	95.94
546.633	88.94
546.847	104.94
547.06	78.94
547.274	94.94
547.487	93.94
547.7	94.94
547.914	90.94
548.127	89.94
548.34	91.94
548.554	92.94
548.767	96.94
548.98	92.94
549.193	99.94
549.407	75.94
549.62	78.94
549.833	81.94
550.046	87.94
550.259	87.94
550.473	91.94
550.686	96.94
550.899	90.94
551.112	75.94
551.325	81.94
551.538	83.94
551.751	89.94
551.964	83.94
552.177	90.94
552.39	76.94
552.603	72.94
552.816	103.94
553.029	85.94
553.242	98.94
553.455	93.94
553.667	94.94
553.88	94.94
554.093	77.94
554.306	95.94
554.519	94.94
554.732	74.94
554.944	103.94
555.157	88.94
555.37	82.94
555.583	80.94
555.795	79.94
556.008	79.94
556.221	82.94
556.433	76.94
556.646	96.94
556.859	100.94
557.071	84.94
557.284	77.94
557.496	89.94
557.709	86.94
557.921	87.94
558.134	79.94
558.346	90.94
558.559	85.94
558.771	92.94
558.984	88.94
559.196	89.94
559.409	92.94
559.621	94.94
559.833	82.94
560.046	82.94
560.258	90.94
560.47	66.94
560.683	94.94
560.895	88.94
561.107	84.94
561.32	72.94
561.532	76.94
561.744	84.94
561.956	89.94
562.168	74.94
562.381	101.94
562.593	93.94
562.805	89.94
563.017	84.94
563.229	86.94
563.441	84.94
563.653	91.94
563.865	85.94
564.077	85.94
564.289	84.94
564.501	76.94
564.713	96.94
564.925	89.94
565.137	82.94
565.349	88.94
565.561	80.94
565.773	85.94
565.985	89.94
566.197	84.94
566.408	99.94
566.62	91.94
566.832	97.94
567.044	95.94
567.255	97.94
567.467	78.94
567.679	102.94
567.891	104.94
568.102	82.94
568.314	83.94
568.526	92.94
568.737	83.94
568.949	86.94
569.161	81.94
569.372	78.94
569.584	86.94
569.795	101.94
570.007	84.94
570.218	82.94
570.43	82.94
570.641	102.94
570.853	103.94
571.064	78.94
571.276	87.94
571.487	79.94
571.698	74.94
571.91	87.94
572.121	95.94
572.333	81.94
572.544	84.94
572.755	84.94
572.966	70.94
573.178	91.94
573.389	90.94
573.6	89.94
573.811	80.94
574.023	69.94
574.234	70.94
574.445	88.94
574.656	78.94
574.867	85.94
575.078	86.94
575.289	88.94
575.501	95.94
575.712	82.94
575.923	76.94
576.134	104.94
576.345	87.94
576.556	85.94
576.767	97.94
576.978	79.94
577.188	67.94
577.399	76.94
577.61	72.94
577.821	78.94
578.032	94.94
578.243	82.94
578.454	85.94
578.665	90.94
578.875	92.94
579.086	87.94
579.297	86.94
579.508	80.94
579.718	84.94
579.929	85.94
580.14	87.94
580.35	85.94
580.561	80.94
580.772	86.94
580.982	88.94
581.193	77.94
581.403	74.94
581.614	78.94
581.825	84.94
582.035	87.94
582.246	76.94
582.456	90.94
582.667	88.94
582.877	80.94
583.087	87.94
583.298	80.94
583.508	85.94
583.719	72.94
583.929	79.94
584.139	85.94
584.35	70.94
584.56	81.94
584.77	72.94
584.981	92.94
585.191	87.94
585.401	90.94
585.611	79.94
585.821	84.94
586.032	84.94
586.242	79.94
586.452	95.94
586.662	86.94
586.872	88.94
587.082	73.94
587.292	76.94
587.502	76.94
587.713	78.94
587.923	102.94
588.133	89.94
588.343	84.94
588.553	75.94
588.762	87.94
588.972	81.94
589.182	81.94
589.392	81.94
589.602	82.94
589.812	89.94
590.022	84.94
590.232	92.94
590.441	85.94
590.651	80.94
590.861	72.94
591.071	100.94
591.281	70.94
591.49	74.94
591.7	80.94
591.91	91.94
592.119	95.94
592.329	96.94
592.539	80.94
592.748	80.94
592.958	82.94
593.167	82.94
593.377	90.94
593.587	101.94
593.796	89.94
594.006	92.94
594.215	94.94
594.424	69.94
594.634	76.94
594.843	86.94
595.053	73.94
595.262	106.94
595.472	76.94
595.681	97.94
595.89	87.94
596.1	96.94
596.309	97.94
596.518	77.94
596.727	87.94
596.937	89.94
597.146	81.94
597.355	88.94
597.564	94.94
597.774	76.94
597.983	92.94
598.192	82.94
598.401	73.94
598.61	86.94
598.819	82.94
599.028	79.94
599.237	82.94
599.446	93.94
599.655	90.94
599.864	84.94
600.073	82.94
600.282	82.94
600.491	69.94
600.7	72.94
600.909	83.94
601.118	72.94
601.327	85.94
601.536	86.94
601.745	87.94
601.953	89.94
602.162	68.94
602.371	72.94
602.58	81.94
602.789	86.94
602.997	98.94
603.206	101.94
603.415	93.94
603.623	77.94
603.832	78.94
604.041	81.94
604.249	88.94
604.458	86.94
604.666	89.94
604.875	81.94
605.084	69.94
605.292	79.94
605.501	71.94
605.709	84.94
605.918	86.94
606.126	77.94
606.334	83.94
606.543	73.94
606.751	77.94
606.96	96.94
607.168	74.94
607.376	81.94
607.585	69.94
607.793	94.94
608.001	87.94
608.21	88.94
608.418	77.94
608.626	85.94
608.834	84.94
609.043	58.94
609.251	76.94
609.459	76.94
609.667	83.94
609.875	85.94
610.083	80.94
610.291	90.94
610.499	79.94
610.707	82.94
610.916	92.94
611.124	74.94
611.332	78.94
611.54	70.94
611.748	75.94
611.955	65.94
612.163	77.94
612.371	77.94
612.579	81.94
612.787	73.94
612.995	80.94
613.203	88.94
613.411	81.94
613.618	98.94
613.826	89.94
614.034	81.94
614.242	76.94
614.449	71.94
614.657	77.94
614.865	73.94
615.072	80.94
615.28	89.94
615.488	80.94
615.695	82.94
615.903	83.94
616.111	80.94
616.318	80.94
616.526	73.94
616.733	84.94
616.941	90.94
617.148	74.94
617.356	85.94
617.563	87.94
617.771	95.94
617.978	86.94
618.185	85.94
618.393	80.94
618.6	89.94
618.807	88.94
619.015	81.94
619.222	92.94
619.429	82.94
619.637	87.94
619.844	84.94
620.051	93.94
620.258	84.94
620.466	82.94
620.673	73.94
620.88	81.94
621.087	89.94
621.294	87.94
621.501	81.94
621.708	77.94
621.915	79.94
622.122	82.94
622.329	89.94
622.536	94.94
622.743	84.94
622.95	84.94
623.157	82.94
623.364	78.94
623.571	79.94
623.778	77.94
623.985	90.94
624.192	72.94
624.399	61.94
624.606	81.94
624.812	80.94
625.019	97.94
625.226	75.94
625.433	93.94
625.639	91.94
625.846	92.94
626.053	64.94
626.259	72.94
626.466	75.94
626.673	80.94
626.879	72.94
627.086	71.94
627.293	77.94
627.499	80.94
627.706	79.94
627.912	78.94
628.119	81.94
628.325	86.94
628.532	84.94
628.738	72.94
628.945	80.94
629.151	76.94
629.357	69.94
629.564	79.94
629.77	78.94
629.976	82.94
630.183	74.94
630.389	79.94
630.595	84.94
630.802	86.94
631.008	71.94
631.214	91.94
631.42	82.94
631.627	89.94
631.833	78.94
632.039	94.94
632.245	85.94
632.451	74.94
632.657	78.94
632.863	79.94
633.069	81.94
633.275	95.94
633.481	72.94
633.688	84.94
633.893	80.94
634.099	92.94
634.305	70.94
634.511	85.94
634.717	80.94
634.923	72.94
635.129	68.94
635.335	88.94
635.541	74.94
635.747	85.94
635.952	79.94
636.158	82.94
636.364	81.94
636.57	68.94
636.775	83.94
636.981	79.94
637.187	68.94
637.392	77.94
637.598	70.94
637.804	76.94
638.009	67.94
638.215	71.94
638.421	89.94
638.626	81.94
638.832	77.94
639.037	75.94
639.243	79.94
639.448	78.94
639.654	72.94
639.859	60.94
640.065	100.94
640.27	93.94
640.475	82.94
640.681	76.94
640.886	78.94
641.091	90.94
641.297	95.94
641.502	86.94
641.707	70.94
641.913	79.94
642.118	79.94
642.323	79.94
642.528	91.94
642.733	91.94
642.939	81.94
643.144	78.94
643.349	85.94
643.554	81.94
643.759	73.94
643.964	70.94
644.169	89.94
644.374	87.94
644.579	80.94
644.784	88.94
644.989	81.94
645.194	89.94
645.399	73.94
645.604	82.94
645.809	81.94
646.014	80.94
646.219	77.94
646.423	72.94
646.628	93.94
646.833	81.94
647.038	101.94
647.243	84.94
647.447	76.94
647.652	85.94
647.857	77.94
648.062	77.94
648.266	77.94
648.471	79.94
648.676	66.94
648.88	82.94
649.085	73.94
649.289	88.94
649.494	90.94
649.698	70.94
649.903	88.94
650.107	86.94
650.312	87.94
650.516	75.94
650.721	74.94
650.925	82.94
651.13	91.94
651.334	76.94
651.539	72.94
651.743	93.94
651.947	77.94
652.152	74.94
652.356	86.94
652.56	76.94
652.764	79.94
652.969	87.94
653.173	87.94
653.377	92.94
653.581	79.94
653.785	86.94
653.99	72.94
654.194	85.94
654.398	80.94
654.602	93.94
654.806	65.94
655.01	77.94
655.214	93.94
655.418	80.94
655.622	76.94
655.826	78.94
656.03	84.94
656.234	81.94
656.438	69.94
656.642	81.94
656.846	76.94
657.049	81.94
657.253	77.94
657.457	70.94
657.661	94.94
657.865	83.94
658.068	79.94
658.272	65.94
658.476	74.94
658.68	79.94
658.883	78.94
659.087	94.94
659.291	59.94
659.494	74.94
659.698	75.94
659.901	58.94
660.105	81.94
660.309	82.94
660.512	92.94
660.716	80.94
660.919	79.94
661.123	81.94
661.326	89.94
661.53	84.94
661.733	84.94
661.936	74.94
662.14	80.94
662.343	82.94
662.546	87.94
662.75	74.94
662.953	88.94
663.156	94.94
663.36	84.94
663.563	80.94
663.766	72.94
663.969	93.94
664.173	86.94
664.376	76.94
664.579	87.94
664.782	95.94
664.985	87.94
665.188	85.94
665.391	81.94
665.594	77.94
665.797	77.94
666	76.94
666.203	68.94
666.406	83.94
666.609	93.94
666.812	82.94
667.015	81.94
667.218	81.94
667.421	86.94
667.624	72.94
667.827	89.94
668.03	64.94
668.232	83.94
668.435	81.94
668.638	80.94
668.841	90.94
669.043	74.94
669.246	68.94
669.449	78.94
669.651	72.94
669.854	82.94
670.057	103.94
670.259	90.94
670.462	81.94
670.665	75.94
670.867	95.94
671.07	70.94
671.272	74.94
671.475	88.94
671.677	69.94
671.88	60.94
672.082	85.94
672.284	86.94
672.487	97.94
672.689	79.94
672.892	79.94
