Data from TenMicroDelayPb_HRD10591_00007.txt Node
Date: Mon Nov 24 14:58:35 EST 2025
User: Yrep
Spectrometer: HR+D1059
Trigger mode: 5
Integration Time (sec): 1.000000E0
Scans to average: 1
Electric dark correction enabled: true
Nonlinearity correction enabled: false
Boxcar width: 0
XAxis mode: Wavelengths
Number of Pixels in Spectrum: 2048
>>>>>Begin Spectral Data<<<<<
223.165	-50.06
223.4	-50.06
223.635	-50.06
223.869	-31.06
224.104	-22.06
224.338	-8.06
224.573	-6.06
224.808	0.94
225.042	-17.06
225.277	-9.06
225.511	0.94
225.746	5.94
225.98	16.94
226.215	16.94
226.449	10.94
226.683	16.94
226.918	27.94
227.152	45.94
227.387	35.94
227.621	33.94
227.856	43.94
228.09	49.94
228.324	53.94
228.559	66.94
228.793	54.94
229.027	60.94
229.262	75.94
229.496	68.94
229.73	74.94
229.964	82.94
230.199	79.94
230.433	81.94
230.667	94.94
230.901	90.94
231.136	91.94
231.37	87.94
231.604	90.94
231.838	78.94
232.072	84.94
232.306	103.94
232.541	82.94
232.775	92.94
233.009	84.94
233.243	93.94
233.477	102.94
233.711	96.94
233.945	82.94
234.179	83.94
234.413	91.94
234.647	90.94
234.881	81.94
235.115	86.94
235.349	94.94
235.583	97.94
235.817	94.94
236.051	85.94
236.285	92.94
236.519	99.94
236.753	89.94
236.987	83.94
237.221	95.94
237.455	95.94
237.689	67.94
237.922	90.94
238.156	80.94
238.39	69.94
238.624	76.94
238.858	92.94
239.091	85.94
239.325	86.94
239.559	87.94
239.793	91.94
240.027	106.94
240.26	88.94
240.494	97.94
240.728	88.94
240.961	87.94
241.195	103.94
241.429	90.94
241.662	94.94
241.896	90.94
242.13	91.94
242.363	101.94
242.597	96.94
242.83	81.94
243.064	84.94
243.298	89.94
243.531	93.94
243.765	89.94
243.998	106.94
244.232	108.94
244.465	83.94
244.699	92.94
244.932	95.94
245.166	87.94
245.399	94.94
245.633	105.94
245.866	94.94
246.099	104.94
246.333	95.94
246.566	93.94
246.8	88.94
247.033	95.94
247.266	97.94
247.5	82.94
247.733	82.94
247.966	105.94
248.2	89.94
248.433	94.94
248.666	91.94
248.899	107.94
249.133	104.94
249.366	120.94
249.599	115.94
249.832	97.94
250.066	116.94
250.299	100.94
250.532	107.94
250.765	90.94
250.998	113.94
251.231	92.94
251.465	115.94
251.698	99.94
251.931	102.94
252.164	107.94
252.397	105.94
252.63	104.94
252.863	109.94
253.096	108.94
253.329	123.94
253.562	98.94
253.795	120.94
254.028	119.94
254.261	119.94
254.494	113.94
254.727	115.94
254.96	114.94
255.193	104.94
255.426	106.94
255.659	112.94
255.892	130.94
256.124	91.94
256.357	107.94
256.59	109.94
256.823	103.94
257.056	105.94
257.289	105.94
257.521	129.94
257.754	110.94
257.987	115.94
258.22	118.94
258.452	102.94
258.685	114.94
258.918	90.94
259.151	106.94
259.383	127.94
259.616	117.94
259.849	106.94
260.081	94.94
260.314	119.94
260.547	122.94
260.779	127.94
261.012	122.94
261.244	137.94
261.477	163.94
261.71	132.94
261.942	126.94
262.175	112.94
262.407	123.94
262.64	105.94
262.872	120.94
263.105	110.94
263.337	128.94
263.57	110.94
263.802	137.94
264.035	119.94
264.267	113.94
264.499	127.94
264.732	129.94
264.964	123.94
265.197	122.94
265.429	120.94
265.661	113.94
265.894	116.94
266.126	118.94
266.358	123.94
266.591	133.94
266.823	132.94
267.055	119.94
267.287	116.94
267.52	110.94
267.752	115.94
267.984	123.94
268.216	127.94
268.448	110.94
268.681	108.94
268.913	110.94
269.145	110.94
269.377	112.94
269.609	106.94
269.841	114.94
270.073	115.94
270.306	114.94
270.538	106.94
270.77	108.94
271.002	119.94
271.234	114.94
271.466	114.94
271.698	87.94
271.93	116.94
272.162	112.94
272.394	109.94
272.626	123.94
272.858	121.94
273.09	110.94
273.322	115.94
273.553	100.94
273.785	114.94
274.017	104.94
274.249	108.94
274.481	113.94
274.713	110.94
274.945	112.94
275.176	113.94
275.408	119.94
275.64	120.94
275.872	103.94
276.104	113.94
276.335	118.94
276.567	99.94
276.799	104.94
277.031	90.94
277.262	131.94
277.494	130.94
277.726	124.94
277.957	113.94
278.189	136.94
278.421	109.94
278.652	135.94
278.884	151.94
279.115	152.94
279.347	143.94
279.579	162.94
279.81	160.94
280.042	190.94
280.273	198.94
280.505	180.94
280.736	158.94
280.968	133.94
281.199	129.94
281.431	144.94
281.662	130.94
281.894	134.94
282.125	174.94
282.356	162.94
282.588	150.94
282.819	140.94
283.051	160.94
283.282	172.94
283.513	183.94
283.745	166.94
283.976	137.94
284.207	146.94
284.439	131.94
284.67	126.94
284.901	138.94
285.132	134.94
285.364	121.94
285.595	130.94
285.826	120.94
286.057	129.94
286.288	128.94
286.52	128.94
286.751	124.94
286.982	140.94
287.213	148.94
287.444	172.94
287.675	148.94
287.906	155.94
288.138	132.94
288.369	126.94
288.6	119.94
288.831	120.94
289.062	123.94
289.293	123.94
289.524	108.94
289.755	115.94
289.986	131.94
290.217	128.94
290.448	113.94
290.679	125.94
290.91	140.94
291.141	132.94
291.371	127.94
291.602	116.94
291.833	127.94
292.064	124.94
292.295	110.94
292.526	113.94
292.757	115.94
292.987	107.94
293.218	116.94
293.449	119.94
293.68	138.94
293.91	117.94
294.141	152.94
294.372	127.94
294.603	125.94
294.833	127.94
295.064	115.94
295.295	112.94
295.525	125.94
295.756	126.94
295.987	107.94
296.217	133.94
296.448	112.94
296.679	119.94
296.909	144.94
297.14	124.94
297.37	119.94
297.601	125.94
297.831	118.94
298.062	152.94
298.292	114.94
298.523	132.94
298.753	126.94
298.984	126.94
299.214	135.94
299.445	138.94
299.675	113.94
299.905	120.94
300.136	115.94
300.366	126.94
300.597	113.94
300.827	132.94
301.057	129.94
301.288	128.94
301.518	138.94
301.748	138.94
301.979	183.94
302.209	122.94
302.439	127.94
302.669	142.94
302.9	162.94
303.13	149.94
303.36	127.94
303.59	118.94
303.82	133.94
304.051	125.94
304.281	122.94
304.511	150.94
304.741	117.94
304.971	121.94
305.201	122.94
305.431	126.94
305.661	133.94
305.891	136.94
306.121	129.94
306.352	111.94
306.582	139.94
306.812	129.94
307.042	122.94
307.272	112.94
307.502	138.94
307.731	127.94
307.961	129.94
308.191	137.94
308.421	118.94
308.651	138.94
308.881	123.94
309.111	121.94
309.341	124.94
309.571	126.94
309.8	122.94
310.03	124.94
310.26	115.94
310.49	122.94
310.72	122.94
310.949	115.94
311.179	129.94
311.409	136.94
311.639	138.94
311.868	139.94
312.098	140.94
312.328	148.94
312.557	133.94
312.787	136.94
313.017	138.94
313.246	155.94
313.476	141.94
313.706	129.94
313.935	140.94
314.165	141.94
314.394	154.94
314.624	140.94
314.853	143.94
315.083	132.94
315.312	143.94
315.542	123.94
315.771	148.94
316.001	135.94
316.23	130.94
316.46	159.94
316.689	144.94
316.919	146.94
317.148	135.94
317.377	151.94
317.607	127.94
317.836	124.94
318.065	144.94
318.295	144.94
318.524	130.94
318.753	124.94
318.983	134.94
319.212	143.94
319.441	121.94
319.67	142.94
319.9	124.94
320.129	151.94
320.358	133.94
320.587	139.94
320.816	139.94
321.046	127.94
321.275	136.94
321.504	123.94
321.733	136.94
321.962	128.94
322.191	147.94
322.42	135.94
322.649	137.94
322.878	153.94
323.108	145.94
323.337	126.94
323.566	117.94
323.795	136.94
324.024	141.94
324.253	126.94
324.482	129.94
324.71	142.94
324.939	141.94
325.168	137.94
325.397	149.94
325.626	135.94
325.855	142.94
326.084	137.94
326.313	145.94
326.542	111.94
326.77	132.94
326.999	141.94
327.228	140.94
327.457	128.94
327.686	128.94
327.914	127.94
328.143	148.94
328.372	127.94
328.6	142.94
328.829	149.94
329.058	126.94
329.287	136.94
329.515	129.94
329.744	154.94
329.972	135.94
330.201	138.94
330.43	145.94
330.658	138.94
330.887	131.94
331.115	149.94
331.344	130.94
331.572	154.94
331.801	133.94
332.03	143.94
332.258	138.94
332.486	138.94
332.715	133.94
332.943	127.94
333.172	118.94
333.4	135.94
333.629	150.94
333.857	128.94
334.085	131.94
334.314	147.94
334.542	138.94
334.771	132.94
334.999	137.94
335.227	128.94
335.455	141.94
335.684	140.94
335.912	145.94
336.14	125.94
336.369	130.94
336.597	139.94
336.825	131.94
337.053	124.94
337.281	140.94
337.51	132.94
337.738	126.94
337.966	137.94
338.194	122.94
338.422	138.94
338.65	142.94
338.878	152.94
339.106	143.94
339.334	143.94
339.562	128.94
339.79	139.94
340.018	127.94
340.246	127.94
340.474	138.94
340.702	132.94
340.93	132.94
341.158	132.94
341.386	122.94
341.614	119.94
341.842	136.94
342.07	135.94
342.298	136.94
342.526	129.94
342.754	134.94
342.981	137.94
343.209	127.94
343.437	198.94
343.665	138.94
343.893	135.94
344.12	142.94
344.348	143.94
344.576	127.94
344.804	134.94
345.031	145.94
345.259	152.94
345.487	142.94
345.714	129.94
345.942	127.94
346.17	142.94
346.397	138.94
346.625	121.94
346.853	146.94
347.08	132.94
347.308	118.94
347.535	124.94
347.763	123.94
347.99	145.94
348.218	146.94
348.445	132.94
348.673	132.94
348.9	118.94
349.128	134.94
349.355	120.94
349.583	138.94
349.81	121.94
350.037	132.94
350.265	136.94
350.492	135.94
350.72	127.94
350.947	142.94
351.174	146.94
351.402	139.94
351.629	120.94
351.856	132.94
352.083	131.94
352.311	147.94
352.538	131.94
352.765	135.94
352.992	163.94
353.22	140.94
353.447	132.94
353.674	126.94
353.901	147.94
354.128	152.94
354.355	127.94
354.583	138.94
354.81	140.94
355.037	150.94
355.264	130.94
355.491	129.94
355.718	129.94
355.945	132.94
356.172	138.94
356.399	145.94
356.626	145.94
356.853	169.94
357.08	212.94
357.307	264.94
357.534	245.94
357.761	212.94
357.988	209.94
358.215	175.94
358.441	156.94
358.668	162.94
358.895	155.94
359.122	154.94
359.349	156.94
359.576	146.94
359.802	146.94
360.029	143.94
360.256	154.94
360.483	154.94
360.709	136.94
360.936	164.94
361.163	153.94
361.39	148.94
361.616	139.94
361.843	142.94
362.07	135.94
362.296	137.94
362.523	150.94
362.749	146.94
362.976	145.94
363.203	169.94
363.429	170.94
363.656	210.94
363.882	258.94
364.109	297.94
364.335	242.94
364.562	196.94
364.788	167.94
365.015	164.94
365.241	152.94
365.468	158.94
365.694	154.94
365.92	153.94
366.147	167.94
366.373	142.94
366.599	151.94
366.826	181.94
367.052	189.94
367.278	203.94
367.505	202.94
367.731	223.94
367.957	201.94
368.184	266.94
368.41	338.94
368.636	302.94
368.862	229.94
369.089	191.94
369.315	172.94
369.541	181.94
369.767	179.94
369.993	167.94
370.219	154.94
370.445	157.94
370.672	150.94
370.898	136.94
371.124	147.94
371.35	148.94
371.576	146.94
371.802	146.94
372.028	147.94
372.254	140.94
372.48	151.94
372.706	162.94
372.932	158.94
373.158	155.94
373.384	166.94
373.61	198.94
373.835	233.94
374.061	266.94
374.287	236.94
374.513	196.94
374.739	163.94
374.965	165.94
375.191	166.94
375.416	167.94
375.642	155.94
375.868	162.94
376.094	148.94
376.319	154.94
376.545	135.94
376.771	153.94
376.997	158.94
377.222	131.94
377.448	146.94
377.674	142.94
377.899	127.94
378.125	132.94
378.35	151.94
378.576	139.94
378.802	143.94
379.027	136.94
379.253	140.94
379.478	140.94
379.704	141.94
379.929	140.94
380.155	132.94
380.38	130.94
380.606	136.94
380.831	145.94
381.057	165.94
381.282	143.94
381.507	154.94
381.733	155.94
381.958	139.94
382.184	155.94
382.409	128.94
382.634	143.94
382.86	148.94
383.085	156.94
383.31	153.94
383.535	154.94
383.761	143.94
383.986	140.94
384.211	136.94
384.436	146.94
384.662	143.94
384.887	145.94
385.112	159.94
385.337	160.94
385.562	138.94
385.787	142.94
386.013	142.94
386.238	138.94
386.463	134.94
386.688	206.94
386.913	150.94
387.138	133.94
387.363	155.94
387.588	162.94
387.813	162.94
388.038	138.94
388.263	143.94
388.488	132.94
388.713	133.94
388.938	142.94
389.163	130.94
389.387	138.94
389.612	143.94
389.837	150.94
390.062	153.94
390.287	134.94
390.512	144.94
390.736	133.94
390.961	142.94
391.186	150.94
391.411	158.94
391.636	138.94
391.86	149.94
392.085	150.94
392.31	135.94
392.534	151.94
392.759	152.94
392.984	158.94
393.208	158.94
393.433	131.94
393.658	146.94
393.882	140.94
394.107	151.94
394.331	144.94
394.556	142.94
394.78	149.94
395.005	146.94
395.229	145.94
395.454	155.94
395.678	142.94
395.903	157.94
396.127	143.94
396.352	141.94
396.576	157.94
396.801	169.94
397.025	138.94
397.249	161.94
397.474	170.94
397.698	158.94
397.922	147.94
398.147	143.94
398.371	155.94
398.595	147.94
398.82	151.94
399.044	155.94
399.268	152.94
399.492	184.94
399.717	183.94
399.941	168.94
400.165	166.94
400.389	144.94
400.613	157.94
400.837	142.94
401.062	153.94
401.286	172.94
401.51	171.94
401.734	172.94
401.958	197.94
402.182	175.94
402.406	152.94
402.63	168.94
402.854	187.94
403.078	167.94
403.302	171.94
403.526	186.94
403.75	172.94
403.974	150.94
404.198	185.94
404.422	190.94
404.645	182.94
404.869	178.94
405.093	214.94
405.317	261.94
405.541	335.94
405.765	455.94
405.988	484.94
406.212	376.94
406.436	281.94
406.66	238.94
406.883	224.94
407.107	198.94
407.331	210.94
407.555	190.94
407.778	202.94
408.002	191.94
408.226	188.94
408.449	171.94
408.673	174.94
408.896	161.94
409.12	180.94
409.344	178.94
409.567	170.94
409.791	189.94
410.014	180.94
410.238	173.94
410.461	174.94
410.685	173.94
410.908	171.94
411.132	184.94
411.355	158.94
411.578	176.94
411.802	161.94
412.025	173.94
412.249	157.94
412.472	157.94
412.695	153.94
412.919	168.94
413.142	160.94
413.365	172.94
413.589	164.94
413.812	156.94
414.035	185.94
414.258	170.94
414.482	158.94
414.705	170.94
414.928	174.94
415.151	176.94
415.374	167.94
415.597	163.94
415.821	160.94
416.044	163.94
416.267	156.94
416.49	153.94
416.713	187.94
416.936	202.94
417.159	168.94
417.382	167.94
417.605	159.94
417.828	182.94
418.051	140.94
418.274	154.94
418.497	170.94
418.72	159.94
418.943	171.94
419.166	171.94
419.389	166.94
419.611	182.94
419.834	174.94
420.057	175.94
420.28	173.94
420.503	163.94
420.726	163.94
420.948	171.94
421.171	185.94
421.394	163.94
421.617	174.94
421.839	164.94
422.062	175.94
422.285	154.94
422.507	168.94
422.73	156.94
422.953	192.94
423.175	171.94
423.398	157.94
423.621	192.94
423.843	214.94
424.066	206.94
424.288	208.94
424.511	249.94
424.733	243.94
424.956	206.94
425.178	213.94
425.401	197.94
425.623	214.94
425.846	189.94
426.068	191.94
426.291	184.94
426.513	194.94
426.735	198.94
426.958	200.94
427.18	176.94
427.402	196.94
427.625	187.94
427.847	178.94
428.069	188.94
428.292	167.94
428.514	204.94
428.736	170.94
428.958	183.94
429.181	184.94
429.403	161.94
429.625	155.94
429.847	168.94
430.069	195.94
430.292	159.94
430.514	172.94
430.736	167.94
430.958	172.94
431.18	165.94
431.402	155.94
431.624	165.94
431.846	149.94
432.068	161.94
432.29	173.94
432.512	190.94
432.734	162.94
432.956	195.94
433.178	194.94
433.4	177.94
433.622	186.94
433.844	194.94
434.066	178.94
434.287	170.94
434.509	166.94
434.731	171.94
434.953	177.94
435.175	171.94
435.397	193.94
435.618	177.94
435.84	164.94
436.062	177.94
436.284	171.94
436.505	183.94
436.727	173.94
436.949	192.94
437.17	172.94
437.392	181.94
437.614	155.94
437.835	174.94
438.057	179.94
438.278	189.94
438.5	208.94
438.721	234.94
438.943	255.94
439.165	240.94
439.386	223.94
439.608	232.94
439.829	216.94
440.05	220.94
440.272	217.94
440.493	204.94
440.715	207.94
440.936	221.94
441.158	241.94
441.379	220.94
441.6	213.94
441.822	209.94
442.043	174.94
442.264	195.94
442.486	200.94
442.707	191.94
442.928	199.94
443.149	180.94
443.371	186.94
443.592	195.94
443.813	175.94
444.034	168.94
444.255	192.94
444.476	182.94
444.698	195.94
444.919	189.94
445.14	482.94
445.361	304.94
445.582	188.94
445.803	192.94
446.024	182.94
446.245	194.94
446.466	192.94
446.687	182.94
446.908	200.94
447.129	199.94
447.35	178.94
447.571	189.94
447.792	180.94
448.013	168.94
448.234	180.94
448.455	184.94
448.675	180.94
448.896	183.94
449.117	192.94
449.338	177.94
449.559	200.94
449.779	166.94
450	169.94
450.221	171.94
450.442	168.94
450.662	172.94
450.883	187.94
451.104	187.94
451.324	161.94
451.545	160.94
451.766	176.94
451.986	162.94
452.207	166.94
452.428	171.94
452.648	182.94
452.869	171.94
453.089	161.94
453.31	161.94
453.53	153.94
453.751	159.94
453.971	141.94
454.192	152.94
454.412	161.94
454.633	152.94
454.853	147.94
455.073	151.94
455.294	161.94
455.514	174.94
455.734	166.94
455.955	171.94
456.175	147.94
456.395	133.94
456.616	150.94
456.836	160.94
457.056	156.94
457.276	147.94
457.497	151.94
457.717	146.94
457.937	139.94
458.157	168.94
458.377	140.94
458.598	143.94
458.818	129.94
459.038	149.94
459.258	146.94
459.478	132.94
459.698	143.94
459.918	157.94
460.138	156.94
460.358	162.94
460.578	146.94
460.798	155.94
461.018	167.94
461.238	159.94
461.458	152.94
461.678	171.94
461.898	159.94
462.118	166.94
462.338	168.94
462.558	170.94
462.777	179.94
462.997	171.94
463.217	149.94
463.437	168.94
463.657	168.94
463.876	157.94
464.096	150.94
464.316	143.94
464.536	159.94
464.755	176.94
464.975	162.94
465.195	169.94
465.414	145.94
465.634	163.94
465.854	137.94
466.073	174.94
466.293	162.94
466.512	159.94
466.732	167.94
466.951	186.94
467.171	159.94
467.391	170.94
467.61	158.94
467.829	159.94
468.049	163.94
468.268	166.94
468.488	148.94
468.707	159.94
468.927	168.94
469.146	183.94
469.365	159.94
469.585	175.94
469.804	172.94
470.023	166.94
470.243	181.94
470.462	183.94
470.681	168.94
470.901	178.94
471.12	155.94
471.339	166.94
471.558	156.94
471.777	172.94
471.997	158.94
472.216	172.94
472.435	149.94
472.654	144.94
472.873	164.94
473.092	165.94
473.311	160.94
473.53	168.94
473.749	160.94
473.968	178.94
474.187	160.94
474.406	142.94
474.625	186.94
474.844	173.94
475.063	169.94
475.282	163.94
475.501	151.94
475.72	195.94
475.939	159.94
476.158	179.94
476.377	173.94
476.596	159.94
476.814	172.94
477.033	152.94
477.252	186.94
477.471	174.94
477.69	162.94
477.908	188.94
478.127	186.94
478.346	170.94
478.564	185.94
478.783	184.94
479.002	190.94
479.22	182.94
479.439	189.94
479.658	159.94
479.876	172.94
480.095	162.94
480.313	184.94
480.532	176.94
480.751	171.94
480.969	173.94
481.188	176.94
481.406	174.94
481.624	160.94
481.843	155.94
482.061	165.94
482.28	167.94
482.498	149.94
482.717	168.94
482.935	186.94
483.153	177.94
483.372	184.94
483.59	188.94
483.808	173.94
484.027	198.94
484.245	175.94
484.463	180.94
484.681	198.94
484.9	186.94
485.118	192.94
485.336	184.94
485.554	171.94
485.772	152.94
485.99	175.94
486.209	169.94
486.427	187.94
486.645	187.94
486.863	187.94
487.081	188.94
487.299	184.94
487.517	167.94
487.735	183.94
487.953	219.94
488.171	202.94
488.389	180.94
488.607	168.94
488.825	173.94
489.043	182.94
489.261	187.94
489.479	201.94
489.696	176.94
489.914	165.94
490.132	168.94
490.35	186.94
490.568	185.94
490.786	206.94
491.003	206.94
491.221	191.94
491.439	217.94
491.657	196.94
491.874	211.94
492.092	212.94
492.31	244.94
492.527	214.94
492.745	212.94
492.963	200.94
493.18	201.94
493.398	214.94
493.615	204.94
493.833	208.94
494.05	210.94
494.268	211.94
494.485	211.94
494.703	211.94
494.92	202.94
495.138	192.94
495.355	210.94
495.573	208.94
495.79	219.94
496.008	202.94
496.225	213.94
496.442	202.94
496.66	216.94
496.877	200.94
497.094	222.94
497.312	188.94
497.529	202.94
497.746	210.94
497.963	210.94
498.181	188.94
498.398	190.94
498.615	205.94
498.832	186.94
499.049	194.94
499.267	216.94
499.484	207.94
499.701	233.94
499.918	232.94
500.135	222.94
500.352	240.94
500.569	252.94
500.786	286.94
501.003	228.94
501.22	231.94
501.437	235.94
501.654	209.94
501.871	218.94
502.088	197.94
502.305	213.94
502.522	218.94
502.739	196.94
502.956	202.94
503.172	182.94
503.389	194.94
503.606	180.94
503.823	204.94
504.04	203.94
504.256	220.94
504.473	199.94
504.69	211.94
504.907	212.94
505.123	188.94
505.34	200.94
505.557	196.94
505.773	217.94
505.99	206.94
506.207	189.94
506.423	178.94
506.64	181.94
506.856	175.94
507.073	183.94
507.289	195.94
507.506	193.94
507.722	187.94
507.939	183.94
508.155	175.94
508.372	175.94
508.588	177.94
508.805	167.94
509.021	177.94
509.238	173.94
509.454	170.94
509.67	171.94
509.887	160.94
510.103	163.94
510.319	172.94
510.536	179.94
510.752	152.94
510.968	154.94
511.184	157.94
511.401	157.94
511.617	163.94
511.833	151.94
512.049	181.94
512.265	159.94
512.481	160.94
512.698	171.94
512.914	150.94
513.13	163.94
513.346	152.94
513.562	169.94
513.778	174.94
513.994	164.94
514.21	175.94
514.426	168.94
514.642	177.94
514.858	170.94
515.074	175.94
515.29	181.94
515.506	154.94
515.721	166.94
515.937	170.94
516.153	170.94
516.369	174.94
516.585	174.94
516.801	171.94
517.016	165.94
517.232	167.94
517.448	176.94
517.664	169.94
517.879	170.94
518.095	164.94
518.311	161.94
518.527	171.94
518.742	157.94
518.958	159.94
519.173	178.94
519.389	198.94
519.605	160.94
519.82	153.94
520.036	174.94
520.251	157.94
520.467	172.94
520.682	162.94
520.898	172.94
521.113	159.94
521.329	184.94
521.544	154.94
521.76	164.94
521.975	167.94
522.19	154.94
522.406	169.94
522.621	170.94
522.836	162.94
523.052	188.94
523.267	187.94
523.482	165.94
523.698	157.94
523.913	168.94
524.128	159.94
524.343	163.94
524.559	180.94
524.774	155.94
524.989	166.94
525.204	157.94
525.419	182.94
525.634	153.94
525.849	155.94
526.064	162.94
526.28	167.94
526.495	152.94
526.71	174.94
526.925	155.94
527.14	150.94
527.355	144.94
527.57	159.94
527.785	141.94
527.999	149.94
528.214	162.94
528.429	150.94
528.644	155.94
528.859	176.94
529.074	180.94
529.289	176.94
529.503	169.94
529.718	159.94
529.933	159.94
530.148	153.94
530.363	182.94
530.577	150.94
530.792	162.94
531.007	135.94
531.221	152.94
531.436	146.94
531.651	148.94
531.865	151.94
532.08	146.94
532.295	170.94
532.509	162.94
532.724	152.94
532.938	158.94
533.153	159.94
533.367	162.94
533.582	167.94
533.796	143.94
534.011	156.94
534.225	155.94
534.44	137.94
534.654	176.94
534.868	170.94
535.083	180.94
535.297	146.94
535.511	171.94
535.726	157.94
535.94	152.94
536.154	170.94
536.369	165.94
536.583	156.94
536.797	179.94
537.011	156.94
537.225	192.94
537.44	194.94
537.654	199.94
537.868	166.94
538.082	179.94
538.296	176.94
538.51	168.94
538.724	170.94
538.938	180.94
539.153	180.94
539.367	169.94
539.581	168.94
539.795	150.94
540.009	166.94
540.222	163.94
540.436	160.94
540.65	153.94
540.864	154.94
541.078	147.94
541.292	170.94
541.506	154.94
541.72	170.94
541.934	177.94
542.147	169.94
542.361	151.94
542.575	145.94
542.789	161.94
543.002	168.94
543.216	179.94
543.43	152.94
543.644	170.94
543.857	166.94
544.071	146.94
544.285	179.94
544.498	161.94
544.712	160.94
544.925	149.94
545.139	149.94
545.352	171.94
545.566	154.94
545.779	151.94
545.993	162.94
546.206	153.94
546.42	157.94
546.633	152.94
546.847	171.94
547.06	168.94
547.274	171.94
547.487	164.94
547.7	155.94
547.914	161.94
548.127	142.94
548.34	164.94
548.554	151.94
548.767	168.94
548.98	161.94
549.193	143.94
549.407	145.94
549.62	165.94
549.833	151.94
550.046	148.94
550.259	159.94
550.473	131.94
550.686	160.94
550.899	154.94
551.112	146.94
551.325	156.94
551.538	145.94
551.751	150.94
551.964	144.94
552.177	160.94
552.39	149.94
552.603	157.94
552.816	152.94
553.029	147.94
553.242	173.94
553.455	155.94
553.667	169.94
553.88	158.94
554.093	167.94
554.306	173.94
554.519	179.94
554.732	158.94
554.944	163.94
555.157	159.94
555.37	148.94
555.583	166.94
555.795	156.94
556.008	160.94
556.221	155.94
556.433	150.94
556.646	172.94
556.859	152.94
557.071	157.94
557.284	163.94
557.496	160.94
557.709	149.94
557.921	156.94
558.134	157.94
558.346	167.94
558.559	169.94
558.771	167.94
558.984	160.94
559.196	177.94
559.409	168.94
559.621	177.94
559.833	171.94
560.046	179.94
560.258	188.94
560.47	206.94
560.683	244.94
560.895	248.94
561.107	281.94
561.32	225.94
561.532	198.94
561.744	195.94
561.956	188.94
562.168	162.94
562.381	177.94
562.593	170.94
562.805	157.94
563.017	159.94
563.229	169.94
563.441	159.94
563.653	139.94
563.865	142.94
564.077	143.94
564.289	161.94
564.501	147.94
564.713	177.94
564.925	144.94
565.137	150.94
565.349	154.94
565.561	162.94
565.773	153.94
565.985	153.94
566.197	145.94
566.408	146.94
566.62	148.94
566.832	157.94
567.044	145.94
567.255	140.94
567.467	163.94
567.679	150.94
567.891	151.94
568.102	146.94
568.314	145.94
568.526	144.94
568.737	153.94
568.949	137.94
569.161	125.94
569.372	149.94
569.584	137.94
569.795	132.94
570.007	145.94
570.218	139.94
570.43	128.94
570.641	130.94
570.853	126.94
571.064	140.94
571.276	121.94
571.487	120.94
571.698	135.94
571.91	152.94
572.121	135.94
572.333	132.94
572.544	132.94
572.755	134.94
572.966	137.94
573.178	130.94
573.389	157.94
573.6	112.94
573.811	117.94
574.023	119.94
574.234	140.94
574.445	143.94
574.656	139.94
574.867	134.94
575.078	127.94
575.289	130.94
575.501	114.94
575.712	120.94
575.923	116.94
576.134	139.94
576.345	122.94
576.556	126.94
576.767	150.94
576.978	128.94
577.188	127.94
577.399	121.94
577.61	121.94
577.821	130.94
578.032	96.94
578.243	123.94
578.454	125.94
578.665	137.94
578.875	124.94
579.086	126.94
579.297	131.94
579.508	125.94
579.718	139.94
579.929	124.94
580.14	118.94
580.35	125.94
580.561	130.94
580.772	127.94
580.982	106.94
581.193	118.94
581.403	130.94
581.614	102.94
581.825	116.94
582.035	127.94
582.246	146.94
582.456	115.94
582.667	121.94
582.877	112.94
583.087	122.94
583.298	121.94
583.508	111.94
583.719	116.94
583.929	146.94
584.139	113.94
584.35	105.94
584.56	132.94
584.77	118.94
584.981	112.94
585.191	115.94
585.401	102.94
585.611	119.94
585.821	119.94
586.032	125.94
586.242	130.94
586.452	131.94
586.662	119.94
586.872	111.94
587.082	120.94
587.292	113.94
587.502	120.94
587.713	104.94
587.923	124.94
588.133	126.94
588.343	122.94
588.553	107.94
588.762	136.94
588.972	129.94
589.182	125.94
589.392	129.94
589.602	122.94
589.812	107.94
590.022	124.94
590.232	128.94
590.441	97.94
590.651	119.94
590.861	119.94
591.071	114.94
591.281	116.94
591.49	123.94
591.7	126.94
591.91	131.94
592.119	116.94
592.329	104.94
592.539	123.94
592.748	119.94
592.958	120.94
593.167	125.94
593.377	131.94
593.587	152.94
593.796	114.94
594.006	98.94
594.215	115.94
594.424	126.94
594.634	121.94
594.843	118.94
595.053	129.94
595.262	119.94
595.472	109.94
595.681	114.94
595.89	108.94
596.1	115.94
596.309	103.94
596.518	98.94
596.727	106.94
596.937	110.94
597.146	110.94
597.355	113.94
597.564	125.94
597.774	115.94
597.983	111.94
598.192	104.94
598.401	109.94
598.61	113.94
598.819	119.94
599.028	122.94
599.237	106.94
599.446	122.94
599.655	132.94
599.864	115.94
600.073	118.94
600.282	142.94
600.491	113.94
600.7	118.94
600.909	112.94
601.118	107.94
601.327	94.94
601.536	124.94
601.745	121.94
601.953	123.94
602.162	125.94
602.371	112.94
602.58	115.94
602.789	130.94
602.997	110.94
603.206	120.94
603.415	118.94
603.623	116.94
603.832	100.94
604.041	111.94
604.249	116.94
604.458	97.94
604.666	103.94
604.875	99.94
605.084	108.94
605.292	114.94
605.501	115.94
605.709	116.94
605.918	111.94
606.126	111.94
606.334	102.94
606.543	106.94
606.751	119.94
606.96	111.94
607.168	112.94
607.376	110.94
607.585	104.94
607.793	118.94
608.001	112.94
608.21	100.94
608.418	122.94
608.626	105.94
608.834	115.94
609.043	119.94
609.251	114.94
609.459	110.94
609.667	130.94
609.875	112.94
610.083	107.94
610.291	108.94
610.499	102.94
610.707	95.94
610.916	108.94
611.124	106.94
611.332	105.94
611.54	114.94
611.748	93.94
611.955	95.94
612.163	122.94
612.371	114.94
612.579	111.94
612.787	107.94
612.995	106.94
613.203	117.94
613.411	102.94
613.618	112.94
613.826	96.94
614.034	112.94
614.242	116.94
614.449	122.94
614.657	117.94
614.865	106.94
615.072	90.94
615.28	112.94
615.488	100.94
615.695	98.94
615.903	110.94
616.111	112.94
616.318	123.94
616.526	94.94
616.733	108.94
616.941	109.94
617.148	113.94
617.356	98.94
617.563	106.94
617.771	119.94
617.978	89.94
618.185	104.94
618.393	102.94
618.6	116.94
618.807	96.94
619.015	100.94
619.222	92.94
619.429	91.94
619.637	113.94
619.844	102.94
620.051	96.94
620.258	112.94
620.466	97.94
620.673	106.94
620.88	91.94
621.087	99.94
621.294	105.94
621.501	115.94
621.708	109.94
621.915	109.94
622.122	98.94
622.329	104.94
622.536	98.94
622.743	90.94
622.95	99.94
623.157	90.94
623.364	99.94
623.571	102.94
623.778	97.94
623.985	112.94
624.192	101.94
624.399	120.94
624.606	115.94
624.812	88.94
625.019	100.94
625.226	101.94
625.433	118.94
625.639	93.94
625.846	108.94
626.053	86.94
626.259	105.94
626.466	112.94
626.673	91.94
626.879	100.94
627.086	109.94
627.293	103.94
627.499	96.94
627.706	113.94
627.912	102.94
628.119	104.94
628.325	120.94
628.532	95.94
628.738	99.94
628.945	95.94
629.151	98.94
629.357	111.94
629.564	116.94
629.77	109.94
629.976	110.94
630.183	99.94
630.389	81.94
630.595	94.94
630.802	116.94
631.008	92.94
631.214	88.94
631.42	105.94
631.627	104.94
631.833	103.94
632.039	95.94
632.245	95.94
632.451	87.94
632.657	94.94
632.863	105.94
633.069	95.94
633.275	99.94
633.481	102.94
633.688	105.94
633.893	107.94
634.099	93.94
634.305	106.94
634.511	108.94
634.717	93.94
634.923	95.94
635.129	97.94
635.335	97.94
635.541	94.94
635.747	110.94
635.952	95.94
636.158	98.94
636.364	100.94
636.57	113.94
636.775	104.94
636.981	106.94
637.187	101.94
637.392	96.94
637.598	83.94
637.804	91.94
638.009	107.94
638.215	99.94
638.421	97.94
638.626	75.94
638.832	107.94
639.037	95.94
639.243	93.94
639.448	113.94
639.654	108.94
639.859	89.94
640.065	82.94
640.27	126.94
640.475	96.94
640.681	105.94
640.886	103.94
641.091	96.94
641.297	114.94
641.502	90.94
641.707	103.94
641.913	118.94
642.118	101.94
642.323	98.94
642.528	117.94
642.733	108.94
642.939	98.94
643.144	102.94
643.349	109.94
643.554	106.94
643.759	103.94
643.964	113.94
644.169	97.94
644.374	91.94
644.579	104.94
644.784	87.94
644.989	88.94
645.194	97.94
645.399	112.94
645.604	94.94
645.809	92.94
646.014	103.94
646.219	104.94
646.423	86.94
646.628	97.94
646.833	93.94
647.038	108.94
647.243	106.94
647.447	81.94
647.652	102.94
647.857	96.94
648.062	116.94
648.266	92.94
648.471	89.94
648.676	108.94
648.88	102.94
649.085	96.94
649.289	91.94
649.494	94.94
649.698	111.94
649.903	96.94
650.107	92.94
650.312	110.94
650.516	95.94
650.721	99.94
650.925	79.94
651.13	92.94
651.334	89.94
651.539	100.94
651.743	108.94
651.947	96.94
652.152	93.94
652.356	92.94
652.56	94.94
652.764	86.94
652.969	84.94
653.173	87.94
653.377	83.94
653.581	94.94
653.785	90.94
653.99	79.94
654.194	90.94
654.398	84.94
654.602	89.94
654.806	97.94
655.01	103.94
655.214	86.94
655.418	87.94
655.622	72.94
655.826	88.94
656.03	87.94
656.234	95.94
656.438	107.94
656.642	91.94
656.846	83.94
657.049	98.94
657.253	103.94
657.457	87.94
657.661	81.94
657.865	83.94
658.068	79.94
658.272	95.94
658.476	90.94
658.68	90.94
658.883	73.94
659.087	91.94
659.291	94.94
659.494	82.94
659.698	67.94
659.901	89.94
660.105	84.94
660.309	80.94
660.512	82.94
660.716	86.94
660.919	88.94
661.123	101.94
661.326	80.94
661.53	84.94
661.733	87.94
661.936	86.94
662.14	82.94
662.343	89.94
662.546	89.94
662.75	94.94
662.953	94.94
663.156	108.94
663.36	90.94
663.563	86.94
663.766	74.94
663.969	96.94
664.173	93.94
664.376	87.94
664.579	85.94
664.782	88.94
664.985	94.94
665.188	89.94
665.391	98.94
665.594	95.94
665.797	70.94
666	81.94
666.203	90.94
666.406	85.94
666.609	67.94
666.812	92.94
667.015	91.94
667.218	89.94
667.421	87.94
667.624	76.94
667.827	95.94
668.03	68.94
668.232	79.94
668.435	88.94
668.638	77.94
668.841	106.94
669.043	86.94
669.246	75.94
669.449	81.94
669.651	78.94
669.854	106.94
670.057	102.94
670.259	88.94
670.462	83.94
670.665	88.94
670.867	86.94
671.07	79.94
671.272	98.94
671.475	109.94
671.677	90.94
671.88	97.94
672.082	80.94
672.284	88.94
672.487	102.94
672.689	88.94
672.892	86.94
