Data from Circ_2001_H10_HRD10591_00085.txt Node
Date: Wed Jan 03 10:45:55 EST 2024
User: Yrep
Spectrometer: HR+D1059
Trigger mode: 1
Integration Time (sec): 1.000000E-1
Scans to average: 1
Electric dark correction enabled: true
Nonlinearity correction enabled: false
Boxcar width: 0
XAxis mode: Wavelengths
Number of Pixels in Spectrum: 2048
>>>>>Begin Spectral Data<<<<<
223.165	-11
223.4	-11
223.635	-11
223.869	-19
224.104	-29
224.338	-16
224.573	-12
224.808	-12
225.042	-3
225.277	4
225.511	10
225.746	-11
225.98	11
226.215	24
226.449	12
226.683	16
226.918	14
227.152	22
227.387	43
227.621	41
227.856	45
228.09	56
228.324	52
228.559	49
228.793	50
229.027	68
229.262	85
229.496	72
229.73	87
229.964	91
230.199	68
230.433	76
230.667	73
230.901	76
231.136	75
231.37	71
231.604	77
231.838	81
232.072	78
232.306	87
232.541	88
232.775	77
233.009	73
233.243	83
233.477	83
233.711	76
233.945	77
234.179	72
234.413	81
234.647	83
234.881	69
235.115	85
235.349	92
235.583	91
235.817	76
236.051	71
236.285	84
236.519	72
236.753	75
236.987	80
237.221	83
237.455	94
237.689	84
237.922	84
238.156	78
238.39	86
238.624	84
238.858	83
239.091	74
239.325	73
239.559	70
239.793	93
240.027	85
240.26	79
240.494	93
240.728	72
240.961	79
241.195	74
241.429	86
241.662	86
241.896	73
242.13	78
242.363	76
242.597	80
242.83	82
243.064	63
243.298	69
243.531	81
243.765	77
243.998	85
244.232	85
244.465	92
244.699	76
244.932	76
245.166	78
245.399	91
245.633	80
245.866	81
246.099	91
246.333	81
246.566	77
246.8	71
247.033	70
247.266	90
247.5	76
247.733	89
247.966	88
248.2	87
248.433	85
248.666	92
248.899	80
249.133	91
249.366	103
249.599	106
249.832	85
250.066	80
250.299	91
250.532	92
250.765	90
250.998	80
251.231	72
251.465	78
251.698	82
251.931	83
252.164	82
252.397	81
252.63	83
252.863	89
253.096	74
253.329	77
253.562	81
253.795	85
254.028	89
254.261	89
254.494	78
254.727	77
254.96	80
255.193	80
255.426	73
255.659	92
255.892	95
256.124	88
256.357	81
256.59	83
256.823	80
257.056	83
257.289	78
257.521	89
257.754	86
257.987	72
258.22	102
258.452	97
258.685	83
258.918	93
259.151	75
259.383	89
259.616	82
259.849	89
260.081	91
260.314	86
260.547	103
260.779	88
261.012	97
261.244	109
261.477	101
261.71	106
261.942	139
262.175	146
262.407	91
262.64	81
262.872	87
263.105	94
263.337	83
263.57	89
263.802	69
264.035	85
264.267	81
264.499	68
264.732	88
264.964	85
265.197	95
265.429	80
265.661	73
265.894	90
266.126	87
266.358	74
266.591	88
266.823	93
267.055	83
267.287	83
267.52	93
267.752	96
267.984	96
268.216	93
268.448	74
268.681	82
268.913	105
269.145	74
269.377	89
269.609	90
269.841	88
270.073	91
270.306	98
270.538	79
270.77	77
271.002	95
271.234	80
271.466	86
271.698	96
271.93	86
272.162	93
272.394	84
272.626	97
272.858	83
273.09	88
273.322	75
273.553	85
273.785	100
274.017	100
274.249	91
274.481	84
274.713	82
274.945	84
275.176	100
275.408	105
275.64	104
275.872	98
276.104	89
276.335	94
276.567	122
276.799	127
277.031	136
277.262	162
277.494	128
277.726	92
277.957	91
278.189	75
278.421	89
278.652	84
278.884	79
279.115	81
279.347	83
279.579	99
279.81	116
280.042	157
280.273	220
280.505	132
280.736	92
280.968	93
281.199	86
281.431	96
281.662	82
281.894	112
282.125	112
282.356	116
282.588	147
282.819	118
283.051	100
283.282	90
283.513	86
283.745	89
283.976	97
284.207	84
284.439	105
284.67	97
284.901	91
285.132	94
285.364	97
285.595	82
285.826	86
286.057	97
286.288	82
286.52	101
286.751	83
286.982	80
287.213	83
287.444	89
287.675	92
287.906	93
288.138	85
288.369	91
288.6	100
288.831	90
289.062	96
289.293	97
289.524	83
289.755	90
289.986	76
290.217	71
290.448	92
290.679	84
290.91	78
291.141	89
291.371	81
291.602	93
291.833	84
292.064	86
292.295	81
292.526	94
292.757	89
292.987	90
293.218	74
293.449	86
293.68	67
293.91	94
294.141	86
294.372	89
294.603	90
294.833	88
295.064	100
295.295	91
295.525	95
295.756	121
295.987	128
296.217	157
296.448	138
296.679	77
296.909	91
297.14	81
297.37	74
297.601	100
297.831	104
298.062	86
298.292	84
298.523	93
298.753	90
298.984	93
299.214	86
299.445	85
299.675	92
299.905	104
300.136	86
300.366	106
300.597	103
300.827	107
301.057	107
301.288	109
301.518	102
301.748	87
301.979	102
302.209	102
302.439	91
302.669	93
302.9	85
303.13	96
303.36	108
303.59	129
303.82	129
304.051	106
304.281	81
304.511	88
304.741	85
304.971	78
305.201	96
305.431	93
305.661	84
305.891	79
306.121	110
306.352	103
306.582	98
306.812	102
307.042	109
307.272	140
307.502	157
307.731	155
307.961	107
308.191	99
308.421	86
308.651	83
308.881	110
309.111	108
309.341	100
309.571	87
309.8	96
310.03	105
310.26	112
310.49	96
310.72	102
310.949	100
311.179	94
311.409	84
311.639	93
311.868	116
312.098	104
312.328	101
312.557	115
312.787	118
313.017	108
313.246	89
313.476	98
313.706	100
313.935	94
314.165	114
314.394	92
314.624	93
314.853	121
315.083	99
315.312	102
315.542	89
315.771	83
316.001	97
316.23	92
316.46	80
316.689	82
316.919	96
317.148	110
317.377	95
317.607	84
317.836	105
318.065	90
318.295	102
318.524	84
318.753	88
318.983	102
319.212	100
319.441	122
319.67	117
319.9	96
320.129	100
320.358	91
320.587	92
320.816	96
321.046	115
321.275	90
321.504	99
321.733	93
321.962	85
322.191	105
322.42	95
322.649	117
322.878	119
323.108	135
323.337	133
323.566	125
323.795	156
324.024	210
324.253	418
324.482	887
324.71	1803
324.939	2317
325.168	888
325.397	246
325.626	152
325.855	122
326.084	128
326.313	142
326.542	162
326.77	224
326.999	464
327.228	944
327.457	1726
327.686	1403
327.914	472
328.143	439
328.372	526
328.6	305
328.829	166
329.058	160
329.287	169
329.515	172
329.744	224
329.972	388
330.201	775
330.43	1047
330.658	495
330.887	249
331.115	170
331.344	129
331.572	119
331.801	109
332.03	108
332.258	104
332.486	105
332.715	111
332.943	106
333.172	112
333.4	129
333.629	126
333.857	211
334.085	352
334.314	722
334.542	1385
334.771	1246
334.999	356
335.227	142
335.455	120
335.684	124
335.912	99
336.14	98
336.369	109
336.597	110
336.825	96
337.053	98
337.281	97
337.51	97
337.738	93
337.966	96
338.194	92
338.422	103
338.65	96
338.878	107
339.106	90
339.334	98
339.562	85
339.79	96
340.018	100
340.246	88
340.474	89
340.702	83
340.93	83
341.158	111
341.386	100
341.614	105
341.842	99
342.07	93
342.298	92
342.526	104
342.754	89
342.981	90
343.209	97
343.437	105
343.665	86
343.893	83
344.12	104
344.348	100
344.576	87
344.804	87
345.031	107
345.259	100
345.487	87
345.714	97
345.942	99
346.17	109
346.397	89
346.625	93
346.853	95
347.08	94
347.308	89
347.535	106
347.763	114
347.99	107
348.218	105
348.445	110
348.673	112
348.9	98
349.128	79
349.355	98
349.583	96
349.81	109
350.037	90
350.265	89
350.492	96
350.72	91
350.947	100
351.174	107
351.402	102
351.629	104
351.856	109
352.083	107
352.311	104
352.538	118
352.765	112
352.992	114
353.22	124
353.447	102
353.674	104
353.901	83
354.128	93
354.355	87
354.583	89
354.81	86
355.037	97
355.264	85
355.491	97
355.718	97
355.945	100
356.172	89
356.399	89
356.626	94
356.853	86
357.08	105
357.307	93
357.534	102
357.761	89
357.988	94
358.215	102
358.441	93
358.668	84
358.895	96
359.122	109
359.349	78
359.576	94
359.802	104
360.029	131
360.256	126
360.483	107
360.709	85
360.936	102
361.163	97
361.39	97
361.616	99
361.843	103
362.07	93
362.296	94
362.523	95
362.749	95
362.976	85
363.203	92
363.429	93
363.656	91
363.882	115
364.109	92
364.335	97
364.562	76
364.788	100
365.015	94
365.241	101
365.468	116
365.694	120
365.92	105
366.147	88
366.373	90
366.599	90
366.826	92
367.052	89
367.278	100
367.505	86
367.731	91
367.957	93
368.184	116
368.41	105
368.636	129
368.862	137
369.089	115
369.315	97
369.541	98
369.767	97
369.993	97
370.219	97
370.445	100
370.672	82
370.898	99
371.124	82
371.35	88
371.576	91
371.802	76
372.028	72
372.254	87
372.48	86
372.706	86
372.932	87
373.158	81
373.384	94
373.61	86
373.835	103
374.061	93
374.287	107
374.513	93
374.739	88
374.965	79
375.191	86
375.416	94
375.642	73
375.868	84
376.094	95
376.319	77
376.545	84
376.771	81
376.997	77
377.222	88
377.448	96
377.674	100
377.899	79
378.125	85
378.35	94
378.576	77
378.802	82
379.027	99
379.253	101
379.478	99
379.704	88
379.929	100
380.155	78
380.38	100
380.606	112
380.831	103
381.057	98
381.282	86
381.507	99
381.733	94
381.958	102
382.184	80
382.409	96
382.634	98
382.86	95
383.085	98
383.31	100
383.535	93
383.761	85
383.986	87
384.211	94
384.436	92
384.662	81
384.887	98
385.112	93
385.337	123
385.562	92
385.787	112
386.013	110
386.238	121
386.463	96
386.688	105
386.913	105
387.138	104
387.363	93
387.588	104
387.813	69
388.038	102
388.263	108
388.488	90
388.713	92
388.938	98
389.163	75
389.387	91
389.612	102
389.837	107
390.062	98
390.287	87
390.512	89
390.736	93
390.961	85
391.186	101
391.411	97
391.636	86
391.86	80
392.085	86
392.31	94
392.534	77
392.759	88
392.984	86
393.208	92
393.433	94
393.658	97
393.882	88
394.107	79
394.331	96
394.556	87
394.78	91
395.005	100
395.229	76
395.454	90
395.678	93
395.903	86
396.127	75
396.352	90
396.576	85
396.801	85
397.025	88
397.249	85
397.474	87
397.698	81
397.922	74
398.147	83
398.371	86
398.595	87
398.82	81
399.044	100
399.268	82
399.492	78
399.717	86
399.941	92
400.165	75
400.389	85
400.613	79
400.837	81
401.062	69
401.286	80
401.51	84
401.734	93
401.958	113
402.182	134
402.406	185
402.63	142
402.854	105
403.078	91
403.302	100
403.526	92
403.75	92
403.974	76
404.198	86
404.422	101
404.645	91
404.869	98
405.093	104
405.317	132
405.541	128
405.765	106
405.988	134
406.212	198
406.436	292
406.66	180
406.883	117
407.107	100
407.331	104
407.555	107
407.778	119
408.002	93
408.226	94
408.449	106
408.673	89
408.896	101
409.12	97
409.344	104
409.567	77
409.791	97
410.014	116
410.238	93
410.461	80
410.685	97
410.908	113
411.132	103
411.355	113
411.578	90
411.802	87
412.025	100
412.249	101
412.472	115
412.695	138
412.919	104
413.142	98
413.365	85
413.589	83
413.812	77
414.035	81
414.258	107
414.482	87
414.705	76
414.928	81
415.151	85
415.374	94
415.597	90
415.821	88
416.044	93
416.267	98
416.49	96
416.713	84
416.936	89
417.159	85
417.382	86
417.605	106
417.828	104
418.051	116
418.274	88
418.497	75
418.72	93
418.943	98
419.166	91
419.389	98
419.611	88
419.834	78
420.057	101
420.28	102
420.503	91
420.726	82
420.948	95
421.171	113
421.394	94
421.617	97
421.839	98
422.062	84
422.285	109
422.507	88
422.73	93
422.953	97
423.175	84
423.398	93
423.621	81
423.843	91
424.066	76
424.288	98
424.511	101
424.733	94
424.956	115
425.178	92
425.401	94
425.623	97
425.846	91
426.068	96
426.291	99
426.513	92
426.735	101
426.958	96
427.18	125
427.402	160
427.625	222
427.847	200
428.069	190
428.292	114
428.514	84
428.736	80
428.958	97
429.181	75
429.403	89
429.625	88
429.847	92
430.069	100
430.292	98
430.514	94
430.736	68
430.958	92
431.18	86
431.402	78
431.624	88
431.846	84
432.068	92
432.29	94
432.512	98
432.734	96
432.956	92
433.178	102
433.4	92
433.622	98
433.844	84
434.066	85
434.287	87
434.509	89
434.731	89
434.953	78
435.175	91
435.397	101
435.618	97
435.84	109
436.062	128
436.284	104
436.505	91
436.727	86
436.949	76
437.17	93
437.392	81
437.614	105
437.835	122
438.057	137
438.278	125
438.5	108
438.721	128
438.943	96
439.165	89
439.386	93
439.608	98
439.829	96
440.05	129
440.272	168
440.493	115
440.715	91
440.936	94
441.158	103
441.379	95
441.6	99
441.822	113
442.043	109
442.264	123
442.486	98
442.707	101
442.928	121
443.149	145
443.371	151
443.592	119
443.813	126
444.034	118
444.255	103
444.476	80
444.698	101
444.919	90
445.14	137
445.361	145
445.582	132
445.803	157
446.024	151
446.245	148
446.466	117
446.687	104
446.908	89
447.129	99
447.35	98
447.571	85
447.792	106
448.013	104
448.234	103
448.455	119
448.675	125
448.896	125
449.117	96
449.338	111
449.559	145
449.779	146
450	92
450.221	84
450.442	77
450.662	92
450.883	117
451.104	109
451.324	111
451.545	87
451.766	96
451.986	99
452.207	99
452.428	89
452.648	105
452.869	110
453.089	139
453.31	116
453.53	112
453.751	96
453.971	105
454.192	122
454.412	106
454.633	93
454.853	85
455.073	93
455.294	91
455.514	114
455.734	95
455.955	93
456.175	73
456.395	86
456.616	98
456.836	81
457.056	98
457.276	84
457.497	78
457.717	85
457.937	83
458.157	90
458.377	102
458.598	118
458.818	194
459.038	198
459.258	129
459.478	93
459.698	92
459.918	94
460.138	85
460.358	88
460.578	82
460.798	91
461.018	88
461.238	96
461.458	101
461.678	99
461.898	94
462.118	90
462.338	76
462.558	91
462.777	91
462.997	99
463.217	91
463.437	93
463.657	78
463.876	81
464.096	77
464.316	88
464.536	92
464.755	102
464.975	111
465.195	209
465.414	218
465.634	119
465.854	95
466.073	86
466.293	86
466.512	89
466.732	98
466.951	91
467.171	106
467.391	107
467.61	137
467.829	193
468.049	451
468.268	640
468.488	186
468.707	99
468.927	92
469.146	86
469.365	97
469.585	88
469.804	98
470.023	103
470.243	108
470.462	118
470.681	135
470.901	97
471.12	107
471.339	105
471.558	115
471.777	148
471.997	253
472.216	891
472.435	1940
472.654	471
472.873	142
473.092	94
473.311	76
473.53	81
473.749	85
473.968	127
474.187	117
474.406	113
474.625	85
474.844	100
475.063	94
475.282	86
475.501	105
475.72	86
475.939	88
476.158	87
476.377	77
476.596	73
476.814	90
477.033	90
477.252	84
477.471	98
477.69	89
477.908	96
478.127	98
478.346	95
478.564	102
478.783	112
479.002	102
479.22	96
479.439	114
479.658	134
479.876	130
480.095	101
480.313	119
480.532	149
480.751	250
480.969	832
481.188	3327
481.406	1917
481.624	306
481.843	133
482.061	100
482.28	105
482.498	88
482.717	85
482.935	93
483.153	84
483.372	96
483.59	92
483.808	97
484.027	96
484.245	94
484.463	86
484.681	102
484.9	88
485.118	104
485.336	94
485.554	101
485.772	98
485.99	91
486.209	94
486.427	91
486.645	93
486.863	106
487.081	113
487.299	98
487.517	103
487.735	95
487.953	103
488.171	102
488.389	118
488.607	119
488.825	98
489.043	93
489.261	80
489.479	89
489.696	91
489.914	87
490.132	77
490.35	94
490.568	88
490.786	92
491.003	86
491.221	108
491.439	102
491.657	81
491.874	90
492.092	90
492.31	105
492.527	87
492.745	109
492.963	88
493.18	90
493.398	92
493.615	116
493.833	99
494.05	99
494.268	100
494.485	94
494.703	90
494.92	96
495.138	88
495.355	101
495.573	96
495.79	92
496.008	84
496.225	90
496.442	83
496.66	108
496.877	84
497.094	95
497.312	96
497.529	102
497.746	98
497.963	92
498.181	79
498.398	99
498.615	102
498.832	112
499.049	93
499.267	91
499.484	82
499.701	95
499.918	81
500.135	94
500.352	92
500.569	86
500.786	87
501.003	103
501.22	91
501.437	94
501.654	99
501.871	117
502.088	98
502.305	98
502.522	104
502.739	82
502.956	78
503.172	90
503.389	107
503.606	108
503.823	96
504.04	92
504.256	89
504.473	97
504.69	93
504.907	88
505.123	102
505.34	92
505.557	82
505.773	105
505.99	96
506.207	91
506.423	80
506.64	92
506.856	100
507.073	94
507.289	95
507.506	108
507.722	128
507.939	124
508.155	114
508.372	100
508.588	112
508.805	96
509.021	100
509.238	106
509.454	97
509.67	95
509.887	107
510.103	139
510.319	221
510.536	828
510.752	2779
510.968	758
511.184	156
511.401	133
511.617	105
511.833	103
512.049	104
512.265	97
512.481	107
512.698	92
512.914	112
513.13	98
513.346	106
513.562	108
513.778	96
513.994	111
514.21	116
514.426	128
514.642	157
514.858	129
515.074	193
515.29	596
515.506	2091
515.721	755
515.937	185
516.153	105
516.369	113
516.585	99
516.801	102
517.016	96
517.232	102
517.448	95
517.664	97
517.879	92
518.095	97
518.311	97
518.527	116
518.742	94
518.958	88
519.173	92
519.389	93
519.605	105
519.82	108
520.036	97
520.251	154
520.467	124
520.682	109
520.898	120
521.113	134
521.329	165
521.544	250
521.76	775
521.975	3510
522.19	2084
522.406	416
522.621	162
522.836	104
523.052	101
523.267	81
523.482	95
523.698	111
523.913	130
524.128	112
524.343	104
524.559	103
524.774	97
524.989	97
525.204	122
525.419	110
525.634	106
525.849	88
526.064	87
526.28	95
526.495	99
526.71	75
526.925	104
527.14	91
527.355	106
527.57	86
527.785	86
527.999	78
528.214	93
528.429	86
528.644	90
528.859	82
529.074	111
529.289	150
529.503	221
529.718	131
529.933	88
530.148	69
530.363	101
530.577	107
530.792	96
531.007	87
531.221	105
531.436	90
531.651	94
531.865	97
532.08	86
532.295	90
532.509	91
532.724	87
532.938	91
533.153	91
533.367	103
533.582	98
533.796	93
534.011	95
534.225	90
534.44	93
534.654	101
534.868	103
535.083	80
535.297	98
535.511	92
535.726	106
535.94	102
536.154	102
536.369	92
536.583	102
536.797	88
537.011	82
537.225	93
537.44	98
537.654	87
537.868	84
538.082	94
538.296	94
538.51	91
538.724	90
538.938	98
539.153	107
539.367	100
539.581	91
539.795	81
540.009	84
540.222	91
540.436	75
540.65	79
540.864	86
541.078	97
541.292	95
541.506	109
541.72	85
541.934	93
542.147	102
542.361	93
542.575	91
542.789	108
543.002	85
543.216	101
543.43	105
543.644	91
543.857	94
544.071	92
544.285	94
544.498	92
544.712	106
544.925	82
545.139	81
545.352	89
545.566	93
545.779	88
545.993	93
546.206	87
546.42	95
546.633	88
546.847	113
547.06	101
547.274	90
547.487	109
547.7	96
547.914	94
548.127	93
548.34	103
548.554	76
548.767	101
548.98	96
549.193	94
549.407	96
549.62	85
549.833	82
550.046	79
550.259	82
550.473	85
550.686	78
550.899	97
551.112	92
551.325	102
551.538	80
551.751	105
551.964	80
552.177	88
552.39	94
552.603	94
552.816	86
553.029	81
553.242	107
553.455	103
553.667	117
553.88	117
554.093	94
554.306	102
554.519	97
554.732	108
554.944	90
555.157	74
555.37	91
555.583	97
555.795	101
556.008	84
556.221	97
556.433	93
556.646	97
556.859	98
557.071	85
557.284	100
557.496	91
557.709	90
557.921	82
558.134	82
558.346	92
558.559	97
558.771	102
558.984	90
559.196	98
559.409	89
559.621	86
559.833	88
560.046	97
560.258	101
560.47	130
560.683	90
560.895	90
561.107	92
561.32	99
561.532	85
561.744	91
561.956	88
562.168	93
562.381	98
562.593	87
562.805	98
563.017	99
563.229	82
563.441	73
563.653	90
563.865	94
564.077	97
564.289	100
564.501	99
564.713	93
564.925	104
565.137	121
565.349	100
565.561	88
565.773	89
565.985	83
566.197	83
566.408	91
566.62	77
566.832	78
567.044	98
567.255	81
567.467	85
567.679	82
567.891	104
568.102	100
568.314	91
568.526	88
568.737	93
568.949	85
569.161	86
569.372	98
569.584	102
569.795	99
570.007	117
570.218	267
570.43	160
570.641	91
570.853	92
571.064	72
571.276	92
571.487	90
571.698	99
571.91	91
572.121	88
572.333	88
572.544	82
572.755	89
572.966	81
573.178	85
573.389	98
573.6	97
573.811	89
574.023	84
574.234	93
574.445	84
574.656	87
574.867	94
575.078	90
575.289	83
575.501	80
575.712	89
575.923	79
576.134	91
576.345	86
576.556	89
576.767	103
576.978	105
577.188	84
577.399	91
577.61	94
577.821	98
578.032	110
578.243	270
578.454	843
578.665	229
578.875	114
579.086	92
579.297	92
579.508	84
579.718	93
579.929	90
580.14	93
580.35	83
580.561	86
580.772	99
580.982	84
581.193	95
581.403	85
581.614	85
581.825	94
582.035	85
582.246	98
582.456	94
582.667	95
582.877	83
583.087	100
583.298	85
583.508	82
583.719	85
583.929	85
584.139	90
584.35	101
584.56	97
584.77	81
584.981	92
585.191	94
585.401	81
585.611	85
585.821	84
586.032	95
586.242	92
586.452	84
586.662	89
586.872	84
587.082	73
587.292	92
587.502	100
587.713	84
587.923	95
588.133	97
588.343	101
588.553	92
588.762	85
588.972	91
589.182	102
589.392	91
589.602	83
589.812	95
590.022	84
590.232	88
590.441	77
590.651	98
590.861	87
591.071	86
591.281	92
591.49	76
591.7	99
591.91	84
592.119	80
592.329	95
592.539	94
592.748	90
592.958	96
593.167	77
593.377	90
593.587	97
593.796	84
594.006	92
594.215	77
594.424	83
594.634	85
594.843	92
595.053	81
595.262	84
595.472	94
595.681	94
595.89	96
596.1	83
596.309	76
596.518	83
596.727	80
596.937	97
597.146	95
597.355	109
597.564	88
597.774	84
597.983	87
598.192	89
598.401	76
598.61	91
598.819	88
599.028	84
599.237	89
599.446	92
599.655	86
599.864	104
600.073	87
600.282	97
600.491	82
600.7	92
600.909	83
601.118	84
601.327	87
601.536	92
601.745	86
601.953	86
602.162	88
602.371	96
602.58	83
602.789	83
602.997	100
603.206	86
603.415	93
603.623	90
603.832	94
604.041	80
604.249	85
604.458	90
604.666	105
604.875	96
605.084	84
605.292	98
605.501	87
605.709	81
605.918	84
606.126	84
606.334	87
606.543	91
606.751	80
606.96	92
607.168	88
607.376	97
607.585	86
607.793	85
608.001	70
608.21	88
608.418	86
608.626	86
608.834	73
609.043	79
609.251	83
609.459	81
609.667	88
609.875	82
610.083	103
610.291	80
610.499	79
610.707	71
610.916	87
611.124	98
611.332	102
611.54	95
611.748	84
611.955	102
612.163	82
612.371	90
612.579	79
612.787	88
612.995	88
613.203	92
613.411	87
613.618	84
613.826	90
614.034	79
614.242	87
614.449	97
614.657	87
614.865	85
615.072	87
615.28	88
615.488	97
615.695	77
615.903	95
616.111	77
616.318	101
616.526	106
616.733	87
616.941	79
617.148	96
617.356	93
617.563	84
617.771	79
617.978	77
618.185	88
618.393	82
618.6	82
618.807	87
619.015	77
619.222	76
619.429	86
619.637	90
619.844	85
620.051	94
620.258	101
620.466	76
620.673	83
620.88	91
621.087	78
621.294	84
621.501	97
621.708	81
621.915	89
622.122	89
622.329	88
622.536	99
622.743	87
622.95	101
623.157	81
623.364	82
623.571	95
623.778	81
623.985	82
624.192	91
624.399	77
624.606	79
624.812	98
625.019	88
625.226	92
625.433	96
625.639	84
625.846	79
626.053	75
626.259	83
626.466	91
626.673	75
626.879	84
627.086	88
627.293	91
627.499	85
627.706	80
627.912	90
628.119	74
628.325	84
628.532	98
628.738	61
628.945	91
629.151	89
629.357	87
629.564	89
629.77	87
629.976	69
630.183	76
630.389	82
630.595	75
630.802	82
631.008	91
631.214	86
631.42	80
631.627	89
631.833	75
632.039	84
632.245	74
632.451	86
632.657	90
632.863	84
633.069	82
633.275	85
633.481	100
633.688	93
633.893	90
634.099	86
634.305	76
634.511	86
634.717	76
634.923	99
635.129	78
635.335	104
635.541	78
635.747	94
635.952	97
636.158	134
636.364	325
636.57	257
636.775	108
636.981	93
637.187	83
637.392	97
637.598	73
637.804	97
638.009	82
638.215	84
638.421	84
638.626	83
638.832	87
639.037	85
639.243	81
639.448	110
639.654	95
639.859	74
640.065	74
640.27	97
640.475	89
640.681	77
640.886	80
641.091	82
641.297	89
641.502	92
641.707	79
641.913	83
642.118	97
642.323	82
642.528	78
642.733	84
642.939	82
643.144	60
643.349	78
643.554	99
643.759	82
643.964	92
644.169	86
644.374	79
644.579	106
644.784	80
644.989	64
645.194	75
645.399	95
645.604	81
645.809	84
646.014	77
646.219	77
646.423	81
646.628	88
646.833	74
647.038	88
647.243	95
647.447	83
647.652	73
647.857	90
648.062	82
648.266	84
648.471	99
648.676	77
648.88	78
649.085	92
649.289	70
649.494	98
649.698	141
649.903	100
650.107	89
650.312	89
650.516	89
650.721	90
650.925	77
651.13	82
651.334	91
651.539	83
651.743	81
651.947	69
652.152	86
652.356	83
652.56	83
652.764	82
652.969	83
653.173	84
653.377	86
653.581	91
653.785	80
653.99	75
654.194	76
654.398	88
654.602	85
654.806	92
655.01	105
655.214	85
655.418	96
655.622	74
655.826	83
656.03	91
656.234	94
656.438	96
656.642	108
656.846	76
657.049	73
657.253	93
657.457	87
657.661	90
657.865	87
658.068	74
658.272	84
658.476	84
658.68	85
658.883	94
659.087	84
659.291	72
659.494	73
659.698	77
659.901	84
660.105	72
660.309	81
660.512	82
660.716	99
660.919	86
661.123	73
661.326	72
661.53	81
661.733	77
661.936	72
662.14	82
662.343	82
662.546	98
662.75	83
662.953	77
663.156	78
663.36	85
663.563	86
663.766	82
663.969	93
664.173	72
664.376	91
664.579	83
664.782	80
664.985	87
665.188	77
665.391	90
665.594	77
665.797	71
666	79
666.203	87
666.406	79
666.609	81
666.812	82
667.015	75
667.218	89
667.421	94
667.624	102
667.827	86
668.03	79
668.232	75
668.435	71
668.638	84
668.841	71
669.043	89
669.246	78
669.449	73
669.651	79
669.854	84
670.057	84
670.259	82
670.462	90
670.665	78
670.867	79
671.07	91
671.272	72
671.475	96
671.677	73
671.88	88
672.082	75
672.284	74
672.487	76
672.689	97
672.892	83
