Data from Circ_2001_H10_HRD10591_00031.txt Node
Date: Wed Jan 03 10:45:45 EST 2024
User: Yrep
Spectrometer: HR+D1059
Trigger mode: 1
Integration Time (sec): 1.000000E-1
Scans to average: 1
Electric dark correction enabled: true
Nonlinearity correction enabled: false
Boxcar width: 0
XAxis mode: Wavelengths
Number of Pixels in Spectrum: 2048
>>>>>Begin Spectral Data<<<<<
223.165	-18.69
223.4	-18.69
223.635	-18.69
223.869	-23.69
224.104	-20.69
224.338	-11.69
224.573	-11.69
224.808	-17.69
225.042	-9.69
225.277	2.31
225.511	0.31
225.746	10.31
225.98	-7.69
226.215	15.31
226.449	20.31
226.683	26.31
226.918	22.31
227.152	24.31
227.387	31.31
227.621	45.31
227.856	49.31
228.09	27.31
228.324	46.31
228.559	60.31
228.793	58.31
229.027	57.31
229.262	71.31
229.496	71.31
229.73	79.31
229.964	83.31
230.199	78.31
230.433	79.31
230.667	83.31
230.901	78.31
231.136	68.31
231.37	79.31
231.604	85.31
231.838	74.31
232.072	82.31
232.306	88.31
232.541	75.31
232.775	89.31
233.009	74.31
233.243	89.31
233.477	87.31
233.711	83.31
233.945	73.31
234.179	73.31
234.413	73.31
234.647	82.31
234.881	89.31
235.115	74.31
235.349	67.31
235.583	66.31
235.817	82.31
236.051	82.31
236.285	71.31
236.519	82.31
236.753	73.31
236.987	79.31
237.221	80.31
237.455	85.31
237.689	90.31
237.922	71.31
238.156	83.31
238.39	77.31
238.624	71.31
238.858	73.31
239.091	88.31
239.325	77.31
239.559	89.31
239.793	82.31
240.027	80.31
240.26	83.31
240.494	74.31
240.728	72.31
240.961	54.31
241.195	80.31
241.429	77.31
241.662	68.31
241.896	73.31
242.13	70.31
242.363	81.31
242.597	80.31
242.83	86.31
243.064	78.31
243.298	80.31
243.531	75.31
243.765	81.31
243.998	76.31
244.232	65.31
244.465	79.31
244.699	71.31
244.932	67.31
245.166	84.31
245.399	84.31
245.633	81.31
245.866	90.31
246.099	84.31
246.333	94.31
246.566	73.31
246.8	66.31
247.033	88.31
247.266	80.31
247.5	71.31
247.733	74.31
247.966	75.31
248.2	73.31
248.433	87.31
248.666	85.31
248.899	70.31
249.133	82.31
249.366	100.31
249.599	98.31
249.832	89.31
250.066	85.31
250.299	85.31
250.532	84.31
250.765	79.31
250.998	84.31
251.231	68.31
251.465	74.31
251.698	80.31
251.931	78.31
252.164	75.31
252.397	84.31
252.63	89.31
252.863	69.31
253.096	68.31
253.329	71.31
253.562	79.31
253.795	82.31
254.028	81.31
254.261	84.31
254.494	87.31
254.727	84.31
254.96	82.31
255.193	70.31
255.426	84.31
255.659	91.31
255.892	102.31
256.124	80.31
256.357	79.31
256.59	82.31
256.823	76.31
257.056	79.31
257.289	79.31
257.521	83.31
257.754	73.31
257.987	84.31
258.22	87.31
258.452	93.31
258.685	95.31
258.918	89.31
259.151	94.31
259.383	77.31
259.616	76.31
259.849	85.31
260.081	86.31
260.314	95.31
260.547	82.31
260.779	88.31
261.012	86.31
261.244	98.31
261.477	96.31
261.71	93.31
261.942	109.31
262.175	128.31
262.407	83.31
262.64	99.31
262.872	81.31
263.105	74.31
263.337	80.31
263.57	86.31
263.802	92.31
264.035	83.31
264.267	90.31
264.499	81.31
264.732	81.31
264.964	95.31
265.197	80.31
265.429	87.31
265.661	69.31
265.894	95.31
266.126	86.31
266.358	77.31
266.591	84.31
266.823	89.31
267.055	87.31
267.287	76.31
267.52	96.31
267.752	89.31
267.984	82.31
268.216	96.31
268.448	93.31
268.681	68.31
268.913	70.31
269.145	62.31
269.377	75.31
269.609	71.31
269.841	69.31
270.073	80.31
270.306	76.31
270.538	91.31
270.77	84.31
271.002	86.31
271.234	90.31
271.466	81.31
271.698	83.31
271.93	95.31
272.162	98.31
272.394	80.31
272.626	79.31
272.858	85.31
273.09	79.31
273.322	88.31
273.553	83.31
273.785	81.31
274.017	98.31
274.249	82.31
274.481	92.31
274.713	90.31
274.945	107.31
275.176	85.31
275.408	105.31
275.64	109.31
275.872	99.31
276.104	99.31
276.335	87.31
276.567	114.31
276.799	112.31
277.031	140.31
277.262	119.31
277.494	122.31
277.726	106.31
277.957	86.31
278.189	87.31
278.421	75.31
278.652	81.31
278.884	86.31
279.115	85.31
279.347	88.31
279.579	78.31
279.81	108.31
280.042	135.31
280.273	169.31
280.505	132.31
280.736	94.31
280.968	89.31
281.199	89.31
281.431	89.31
281.662	83.31
281.894	97.31
282.125	103.31
282.356	120.31
282.588	136.31
282.819	123.31
283.051	91.31
283.282	93.31
283.513	86.31
283.745	94.31
283.976	88.31
284.207	88.31
284.439	91.31
284.67	94.31
284.901	96.31
285.132	76.31
285.364	87.31
285.595	105.31
285.826	90.31
286.057	86.31
286.288	79.31
286.52	75.31
286.751	75.31
286.982	88.31
287.213	90.31
287.444	97.31
287.675	94.31
287.906	82.31
288.138	103.31
288.369	98.31
288.6	88.31
288.831	87.31
289.062	94.31
289.293	78.31
289.524	80.31
289.755	82.31
289.986	82.31
290.217	86.31
290.448	84.31
290.679	99.31
290.91	91.31
291.141	95.31
291.371	89.31
291.602	72.31
291.833	82.31
292.064	92.31
292.295	88.31
292.526	87.31
292.757	88.31
292.987	86.31
293.218	85.31
293.449	92.31
293.68	86.31
293.91	70.31
294.141	87.31
294.372	91.31
294.603	105.31
294.833	98.31
295.064	90.31
295.295	88.31
295.525	92.31
295.756	99.31
295.987	121.31
296.217	147.31
296.448	121.31
296.679	98.31
296.909	91.31
297.14	96.31
297.37	94.31
297.601	90.31
297.831	94.31
298.062	93.31
298.292	92.31
298.523	94.31
298.753	91.31
298.984	91.31
299.214	97.31
299.445	87.31
299.675	93.31
299.905	98.31
300.136	89.31
300.366	77.31
300.597	79.31
300.827	98.31
301.057	107.31
301.288	106.31
301.518	105.31
301.748	87.31
301.979	110.31
302.209	101.31
302.439	100.31
302.669	100.31
302.9	96.31
303.13	88.31
303.36	99.31
303.59	95.31
303.82	118.31
304.051	99.31
304.281	103.31
304.511	98.31
304.741	85.31
304.971	94.31
305.201	82.31
305.431	96.31
305.661	92.31
305.891	92.31
306.121	93.31
306.352	110.31
306.582	111.31
306.812	98.31
307.042	108.31
307.272	142.31
307.502	142.31
307.731	120.31
307.961	104.31
308.191	88.31
308.421	92.31
308.651	100.31
308.881	85.31
309.111	80.31
309.341	104.31
309.571	100.31
309.8	98.31
310.03	100.31
310.26	88.31
310.49	95.31
310.72	110.31
310.949	101.31
311.179	96.31
311.409	95.31
311.639	91.31
311.868	89.31
312.098	99.31
312.328	107.31
312.557	100.31
312.787	113.31
313.017	107.31
313.246	106.31
313.476	86.31
313.706	90.31
313.935	86.31
314.165	97.31
314.394	115.31
314.624	97.31
314.853	92.31
315.083	94.31
315.312	91.31
315.542	83.31
315.771	95.31
316.001	90.31
316.23	91.31
316.46	95.31
316.689	91.31
316.919	103.31
317.148	101.31
317.377	83.31
317.607	103.31
317.836	90.31
318.065	88.31
318.295	110.31
318.524	90.31
318.753	78.31
318.983	96.31
319.212	90.31
319.441	102.31
319.67	105.31
319.9	82.31
320.129	75.31
320.358	91.31
320.587	111.31
320.816	98.31
321.046	91.31
321.275	85.31
321.504	94.31
321.733	98.31
321.962	100.31
322.191	100.31
322.42	110.31
322.649	99.31
322.878	105.31
323.108	118.31
323.337	134.31
323.566	164.31
323.795	169.31
324.024	226.31
324.253	456.31
324.482	988.31
324.71	1992.31
324.939	2537.31
325.168	928.31
325.397	273.31
325.626	160.31
325.855	137.31
326.084	148.31
326.313	137.31
326.542	156.31
326.77	274.31
326.999	520.31
327.228	1135.31
327.457	2018.31
327.686	1560.31
327.914	488.31
328.143	390.31
328.372	446.31
328.6	260.31
328.829	155.31
329.058	150.31
329.287	159.31
329.515	152.31
329.744	197.31
329.972	331.31
330.201	627.31
330.43	825.31
330.658	387.31
330.887	219.31
331.115	168.31
331.344	106.31
331.572	110.31
331.801	112.31
332.03	106.31
332.258	107.31
332.486	100.31
332.715	107.31
332.943	111.31
333.172	91.31
333.4	103.31
333.629	155.31
333.857	182.31
334.085	320.31
334.314	603.31
334.542	1082.31
334.771	972.31
334.999	290.31
335.227	132.31
335.455	108.31
335.684	107.31
335.912	98.31
336.14	106.31
336.369	109.31
336.597	105.31
336.825	95.31
337.053	94.31
337.281	92.31
337.51	89.31
337.738	104.31
337.966	88.31
338.194	107.31
338.422	105.31
338.65	111.31
338.878	95.31
339.106	92.31
339.334	107.31
339.562	79.31
339.79	97.31
340.018	85.31
340.246	96.31
340.474	92.31
340.702	99.31
340.93	90.31
341.158	98.31
341.386	97.31
341.614	108.31
341.842	89.31
342.07	106.31
342.298	96.31
342.526	102.31
342.754	72.31
342.981	85.31
343.209	85.31
343.437	89.31
343.665	97.31
343.893	103.31
344.12	83.31
344.348	104.31
344.576	94.31
344.804	105.31
345.031	100.31
345.259	95.31
345.487	92.31
345.714	88.31
345.942	107.31
346.17	106.31
346.397	103.31
346.625	100.31
346.853	98.31
347.08	94.31
347.308	90.31
347.535	92.31
347.763	91.31
347.99	118.31
348.218	100.31
348.445	107.31
348.673	102.31
348.9	92.31
349.128	101.31
349.355	85.31
349.583	79.31
349.81	84.31
350.037	105.31
350.265	104.31
350.492	92.31
350.72	92.31
350.947	92.31
351.174	113.31
351.402	112.31
351.629	105.31
351.856	92.31
352.083	100.31
352.311	95.31
352.538	109.31
352.765	114.31
352.992	130.31
353.22	110.31
353.447	113.31
353.674	91.31
353.901	90.31
354.128	98.31
354.355	101.31
354.583	89.31
354.81	99.31
355.037	98.31
355.264	91.31
355.491	80.31
355.718	106.31
355.945	103.31
356.172	93.31
356.399	104.31
356.626	97.31
356.853	85.31
357.08	83.31
357.307	85.31
357.534	106.31
357.761	98.31
357.988	91.31
358.215	84.31
358.441	86.31
358.668	74.31
358.895	94.31
359.122	104.31
359.349	93.31
359.576	95.31
359.802	103.31
360.029	133.31
360.256	123.31
360.483	95.31
360.709	83.31
360.936	90.31
361.163	90.31
361.39	98.31
361.616	102.31
361.843	101.31
362.07	89.31
362.296	103.31
362.523	91.31
362.749	105.31
362.976	86.31
363.203	91.31
363.429	100.31
363.656	92.31
363.882	92.31
364.109	97.31
364.335	93.31
364.562	88.31
364.788	97.31
365.015	98.31
365.241	103.31
365.468	104.31
365.694	101.31
365.92	98.31
366.147	89.31
366.373	79.31
366.599	103.31
366.826	92.31
367.052	88.31
367.278	87.31
367.505	84.31
367.731	83.31
367.957	90.31
368.184	92.31
368.41	90.31
368.636	102.31
368.862	111.31
369.089	112.31
369.315	98.31
369.541	93.31
369.767	98.31
369.993	89.31
370.219	88.31
370.445	100.31
370.672	84.31
370.898	84.31
371.124	100.31
371.35	96.31
371.576	95.31
371.802	83.31
372.028	97.31
372.254	93.31
372.48	90.31
372.706	94.31
372.932	98.31
373.158	87.31
373.384	87.31
373.61	92.31
373.835	90.31
374.061	102.31
374.287	91.31
374.513	88.31
374.739	91.31
374.965	90.31
375.191	91.31
375.416	91.31
375.642	85.31
375.868	91.31
376.094	107.31
376.319	96.31
376.545	81.31
376.771	91.31
376.997	85.31
377.222	72.31
377.448	87.31
377.674	84.31
377.899	89.31
378.125	83.31
378.35	96.31
378.576	92.31
378.802	93.31
379.027	102.31
379.253	97.31
379.478	93.31
379.704	95.31
379.929	92.31
380.155	107.31
380.38	90.31
380.606	92.31
380.831	101.31
381.057	98.31
381.282	92.31
381.507	100.31
381.733	81.31
381.958	100.31
382.184	105.31
382.409	86.31
382.634	91.31
382.86	105.31
383.085	105.31
383.31	99.31
383.535	97.31
383.761	107.31
383.986	99.31
384.211	98.31
384.436	116.31
384.662	93.31
384.887	109.31
385.112	112.31
385.337	110.31
385.562	111.31
385.787	106.31
386.013	104.31
386.238	119.31
386.463	118.31
386.688	102.31
386.913	94.31
387.138	101.31
387.363	107.31
387.588	100.31
387.813	100.31
388.038	115.31
388.263	115.31
388.488	110.31
388.713	88.31
388.938	77.31
389.163	97.31
389.387	97.31
389.612	91.31
389.837	83.31
390.062	78.31
390.287	84.31
390.512	94.31
390.736	91.31
390.961	100.31
391.186	88.31
391.411	92.31
391.636	84.31
391.86	79.31
392.085	78.31
392.31	71.31
392.534	65.31
392.759	98.31
392.984	85.31
393.208	88.31
393.433	109.31
393.658	100.31
393.882	86.31
394.107	83.31
394.331	81.31
394.556	76.31
394.78	97.31
395.005	86.31
395.229	75.31
395.454	82.31
395.678	85.31
395.903	93.31
396.127	74.31
396.352	74.31
396.576	86.31
396.801	56.31
397.025	98.31
397.249	95.31
397.474	90.31
397.698	91.31
397.922	88.31
398.147	81.31
398.371	92.31
398.595	84.31
398.82	82.31
399.044	98.31
399.268	84.31
399.492	80.31
399.717	95.31
399.941	96.31
400.165	87.31
400.389	91.31
400.613	84.31
400.837	95.31
401.062	106.31
401.286	92.31
401.51	79.31
401.734	98.31
401.958	100.31
402.182	150.31
402.406	164.31
402.63	138.31
402.854	83.31
403.078	87.31
403.302	76.31
403.526	89.31
403.75	84.31
403.974	71.31
404.198	90.31
404.422	90.31
404.645	88.31
404.869	101.31
405.093	99.31
405.317	129.31
405.541	119.31
405.765	111.31
405.988	124.31
406.212	166.31
406.436	232.31
406.66	174.31
406.883	112.31
407.107	92.31
407.331	100.31
407.555	105.31
407.778	100.31
408.002	85.31
408.226	88.31
408.449	94.31
408.673	89.31
408.896	96.31
409.12	103.31
409.344	95.31
409.567	92.31
409.791	96.31
410.014	85.31
410.238	89.31
410.461	95.31
410.685	87.31
410.908	102.31
411.132	108.31
411.355	93.31
411.578	88.31
411.802	91.31
412.025	83.31
412.249	84.31
412.472	98.31
412.695	113.31
412.919	105.31
413.142	78.31
413.365	74.31
413.589	89.31
413.812	94.31
414.035	87.31
414.258	82.31
414.482	100.31
414.705	80.31
414.928	101.31
415.151	93.31
415.374	95.31
415.597	75.31
415.821	78.31
416.044	98.31
416.267	89.31
416.49	84.31
416.713	96.31
416.936	88.31
417.159	83.31
417.382	99.31
417.605	108.31
417.828	101.31
418.051	96.31
418.274	76.31
418.497	95.31
418.72	81.31
418.943	94.31
419.166	70.31
419.389	80.31
419.611	70.31
419.834	74.31
420.057	77.31
420.28	79.31
420.503	83.31
420.726	86.31
420.948	84.31
421.171	85.31
421.394	91.31
421.617	92.31
421.839	83.31
422.062	84.31
422.285	90.31
422.507	107.31
422.73	105.31
422.953	92.31
423.175	82.31
423.398	82.31
423.621	78.31
423.843	90.31
424.066	79.31
424.288	74.31
424.511	99.31
424.733	101.31
424.956	111.31
425.178	88.31
425.401	93.31
425.623	103.31
425.846	94.31
426.068	106.31
426.291	86.31
426.513	94.31
426.735	97.31
426.958	88.31
427.18	107.31
427.402	154.31
427.625	223.31
427.847	198.31
428.069	197.31
428.292	113.31
428.514	76.31
428.736	87.31
428.958	86.31
429.181	69.31
429.403	83.31
429.625	79.31
429.847	97.31
430.069	113.31
430.292	108.31
430.514	82.31
430.736	76.31
430.958	76.31
431.18	73.31
431.402	75.31
431.624	79.31
431.846	79.31
432.068	90.31
432.29	99.31
432.512	94.31
432.734	81.31
432.956	87.31
433.178	102.31
433.4	118.31
433.622	85.31
433.844	91.31
434.066	92.31
434.287	102.31
434.509	83.31
434.731	72.31
434.953	91.31
435.175	87.31
435.397	94.31
435.618	94.31
435.84	108.31
436.062	139.31
436.284	113.31
436.505	105.31
436.727	102.31
436.949	87.31
437.17	84.31
437.392	90.31
437.614	94.31
437.835	111.31
438.057	128.31
438.278	128.31
438.5	105.31
438.721	128.31
438.943	98.31
439.165	88.31
439.386	92.31
439.608	100.31
439.829	106.31
440.05	118.31
440.272	151.31
440.493	113.31
440.715	80.31
440.936	85.31
441.158	93.31
441.379	84.31
441.6	92.31
441.822	103.31
442.043	98.31
442.264	121.31
442.486	116.31
442.707	91.31
442.928	108.31
443.149	150.31
443.371	146.31
443.592	117.31
443.813	118.31
444.034	123.31
444.255	101.31
444.476	75.31
444.698	90.31
444.919	87.31
445.14	133.31
445.361	133.31
445.582	137.31
445.803	168.31
446.024	156.31
446.245	150.31
446.466	115.31
446.687	100.31
446.908	90.31
447.129	89.31
447.35	101.31
447.571	101.31
447.792	94.31
448.013	101.31
448.234	103.31
448.455	89.31
448.675	118.31
448.896	122.31
449.117	100.31
449.338	105.31
449.559	139.31
449.779	148.31
450	97.31
450.221	95.31
450.442	92.31
450.662	83.31
450.883	105.31
451.104	127.31
451.324	97.31
451.545	96.31
451.766	91.31
451.986	81.31
452.207	91.31
452.428	97.31
452.648	110.31
452.869	97.31
453.089	113.31
453.31	113.31
453.53	95.31
453.751	97.31
453.971	114.31
454.192	100.31
454.412	98.31
454.633	66.31
454.853	78.31
455.073	87.31
455.294	105.31
455.514	92.31
455.734	97.31
455.955	78.31
456.175	87.31
456.395	85.31
456.616	98.31
456.836	96.31
457.056	103.31
457.276	87.31
457.497	108.31
457.717	86.31
457.937	83.31
458.157	83.31
458.377	99.31
458.598	113.31
458.818	178.31
459.038	168.31
459.258	127.31
459.478	81.31
459.698	74.31
459.918	82.31
460.138	91.31
460.358	91.31
460.578	83.31
460.798	83.31
461.018	86.31
461.238	86.31
461.458	90.31
461.678	85.31
461.898	84.31
462.118	66.31
462.338	80.31
462.558	82.31
462.777	82.31
462.997	86.31
463.217	94.31
463.437	89.31
463.657	85.31
463.876	85.31
464.096	97.31
464.316	96.31
464.536	99.31
464.755	92.31
464.975	116.31
465.195	196.31
465.414	164.31
465.634	95.31
465.854	87.31
466.073	93.31
466.293	83.31
466.512	83.31
466.732	103.31
466.951	94.31
467.171	113.31
467.391	104.31
467.61	129.31
467.829	162.31
468.049	347.31
468.268	498.31
468.488	159.31
468.707	99.31
468.927	96.31
469.146	86.31
469.365	86.31
469.585	84.31
469.804	98.31
470.023	100.31
470.243	106.31
470.462	91.31
470.681	98.31
470.901	76.31
471.12	91.31
471.339	88.31
471.558	105.31
471.777	113.31
471.997	211.31
472.216	695.31
472.435	1371.31
472.654	349.31
472.873	112.31
473.092	86.31
473.311	84.31
473.53	89.31
473.749	88.31
473.968	108.31
474.187	108.31
474.406	110.31
474.625	89.31
474.844	75.31
475.063	76.31
475.282	84.31
475.501	95.31
475.72	107.31
475.939	97.31
476.158	95.31
476.377	88.31
476.596	76.31
476.814	82.31
477.033	99.31
477.252	78.31
477.471	80.31
477.69	85.31
477.908	80.31
478.127	96.31
478.346	96.31
478.564	95.31
478.783	98.31
479.002	82.31
479.22	91.31
479.439	105.31
479.658	121.31
479.876	110.31
480.095	101.31
480.313	120.31
480.532	130.31
480.751	211.31
480.969	662.31
481.188	2471.31
481.406	1407.31
481.624	242.31
481.843	107.31
482.061	99.31
482.28	98.31
482.498	94.31
482.717	94.31
482.935	82.31
483.153	95.31
483.372	85.31
483.59	86.31
483.808	96.31
484.027	96.31
484.245	82.31
484.463	92.31
484.681	97.31
484.9	89.31
485.118	89.31
485.336	91.31
485.554	106.31
485.772	107.31
485.99	100.31
486.209	100.31
486.427	105.31
486.645	128.31
486.863	115.31
487.081	111.31
487.299	86.31
487.517	81.31
487.735	96.31
487.953	85.31
488.171	85.31
488.389	95.31
488.607	79.31
488.825	91.31
489.043	81.31
489.261	98.31
489.479	98.31
489.696	82.31
489.914	87.31
490.132	88.31
490.35	79.31
490.568	86.31
490.786	94.31
491.003	91.31
491.221	100.31
491.439	96.31
491.657	114.31
491.874	99.31
492.092	83.31
492.31	87.31
492.527	99.31
492.745	86.31
492.963	94.31
493.18	97.31
493.398	106.31
493.615	98.31
493.833	86.31
494.05	91.31
494.268	84.31
494.485	92.31
494.703	95.31
494.92	96.31
495.138	75.31
495.355	85.31
495.573	83.31
495.79	81.31
496.008	103.31
496.225	91.31
496.442	74.31
496.66	94.31
496.877	94.31
497.094	87.31
497.312	81.31
497.529	91.31
497.746	78.31
497.963	85.31
498.181	84.31
498.398	93.31
498.615	114.31
498.832	96.31
499.049	83.31
499.267	86.31
499.484	86.31
499.701	71.31
499.918	90.31
500.135	96.31
500.352	86.31
500.569	90.31
500.786	90.31
501.003	93.31
501.22	95.31
501.437	86.31
501.654	100.31
501.871	113.31
502.088	91.31
502.305	86.31
502.522	95.31
502.739	86.31
502.956	80.31
503.172	89.31
503.389	91.31
503.606	114.31
503.823	99.31
504.04	92.31
504.256	88.31
504.473	94.31
504.69	104.31
504.907	99.31
505.123	88.31
505.34	86.31
505.557	95.31
505.773	93.31
505.99	84.31
506.207	90.31
506.423	80.31
506.64	83.31
506.856	84.31
507.073	87.31
507.289	79.31
507.506	92.31
507.722	109.31
507.939	123.31
508.155	83.31
508.372	89.31
508.588	93.31
508.805	107.31
509.021	94.31
509.238	108.31
509.454	90.31
509.67	99.31
509.887	108.31
510.103	122.31
510.319	217.31
510.536	758.31
510.752	2402.31
510.968	671.31
511.184	150.31
511.401	106.31
511.617	90.31
511.833	103.31
512.049	91.31
512.265	72.31
512.481	91.31
512.698	91.31
512.914	91.31
513.13	90.31
513.346	91.31
513.562	91.31
513.778	98.31
513.994	92.31
514.21	106.31
514.426	119.31
514.642	136.31
514.858	133.31
515.074	159.31
515.29	520.31
515.506	1755.31
515.721	632.31
515.937	179.31
516.153	110.31
516.369	103.31
516.585	81.31
516.801	92.31
517.016	99.31
517.232	98.31
517.448	86.31
517.664	98.31
517.879	86.31
518.095	98.31
518.311	109.31
518.527	104.31
518.742	88.31
518.958	94.31
519.173	94.31
519.389	107.31
519.605	96.31
519.82	108.31
520.036	81.31
520.251	121.31
520.467	113.31
520.682	109.31
520.898	103.31
521.113	119.31
521.329	156.31
521.544	245.31
521.76	703.31
521.975	2948.31
522.19	1700.31
522.406	369.31
522.621	124.31
522.836	98.31
523.052	108.31
523.267	99.31
523.482	108.31
523.698	110.31
523.913	108.31
524.128	111.31
524.343	87.31
524.559	94.31
524.774	102.31
524.989	98.31
525.204	112.31
525.419	87.31
525.634	94.31
525.849	90.31
526.064	96.31
526.28	96.31
526.495	78.31
526.71	87.31
526.925	91.31
527.14	108.31
527.355	92.31
527.57	105.31
527.785	82.31
527.999	95.31
528.214	113.31
528.429	95.31
528.644	97.31
528.859	81.31
529.074	109.31
529.289	136.31
529.503	196.31
529.718	121.31
529.933	90.31
530.148	81.31
530.363	87.31
530.577	83.31
530.792	72.31
531.007	92.31
531.221	94.31
531.436	92.31
531.651	95.31
531.865	95.31
532.08	87.31
532.295	86.31
532.509	95.31
532.724	94.31
532.938	89.31
533.153	86.31
533.367	83.31
533.582	80.31
533.796	83.31
534.011	76.31
534.225	93.31
534.44	95.31
534.654	101.31
534.868	88.31
535.083	84.31
535.297	91.31
535.511	105.31
535.726	112.31
535.94	103.31
536.154	92.31
536.369	91.31
536.583	103.31
536.797	97.31
537.011	91.31
537.225	95.31
537.44	89.31
537.654	94.31
537.868	90.31
538.082	95.31
538.296	89.31
538.51	82.31
538.724	90.31
538.938	93.31
539.153	91.31
539.367	114.31
539.581	106.31
539.795	90.31
540.009	81.31
540.222	81.31
540.436	85.31
540.65	81.31
540.864	95.31
541.078	94.31
541.292	88.31
541.506	74.31
541.72	79.31
541.934	99.31
542.147	88.31
542.361	88.31
542.575	76.31
542.789	82.31
543.002	92.31
543.216	97.31
543.43	105.31
543.644	93.31
543.857	92.31
544.071	84.31
544.285	90.31
544.498	82.31
544.712	88.31
544.925	81.31
545.139	86.31
545.352	88.31
545.566	91.31
545.779	95.31
545.993	96.31
546.206	90.31
546.42	92.31
546.633	91.31
546.847	91.31
547.06	88.31
547.274	85.31
547.487	101.31
547.7	71.31
547.914	84.31
548.127	89.31
548.34	93.31
548.554	89.31
548.767	95.31
548.98	88.31
549.193	75.31
549.407	90.31
549.62	79.31
549.833	82.31
550.046	89.31
550.259	83.31
550.473	73.31
550.686	91.31
550.899	96.31
551.112	88.31
551.325	98.31
551.538	90.31
551.751	85.31
551.964	75.31
552.177	74.31
552.39	94.31
552.603	81.31
552.816	99.31
553.029	99.31
553.242	90.31
553.455	79.31
553.667	96.31
553.88	114.31
554.093	103.31
554.306	104.31
554.519	97.31
554.732	92.31
554.944	86.31
555.157	92.31
555.37	104.31
555.583	91.31
555.795	100.31
556.008	97.31
556.221	103.31
556.433	114.31
556.646	105.31
556.859	89.31
557.071	86.31
557.284	82.31
557.496	78.31
557.709	84.31
557.921	91.31
558.134	92.31
558.346	98.31
558.559	87.31
558.771	82.31
558.984	85.31
559.196	91.31
559.409	81.31
559.621	89.31
559.833	97.31
560.046	93.31
560.258	105.31
560.47	94.31
560.683	82.31
560.895	112.31
561.107	92.31
561.32	86.31
561.532	104.31
561.744	92.31
561.956	91.31
562.168	89.31
562.381	90.31
562.593	87.31
562.805	97.31
563.017	98.31
563.229	81.31
563.441	99.31
563.653	91.31
563.865	88.31
564.077	80.31
564.289	76.31
564.501	95.31
564.713	100.31
564.925	93.31
565.137	114.31
565.349	89.31
565.561	79.31
565.773	75.31
565.985	83.31
566.197	80.31
566.408	104.31
566.62	95.31
566.832	89.31
567.044	75.31
567.255	81.31
567.467	82.31
567.679	100.31
567.891	76.31
568.102	88.31
568.314	90.31
568.526	98.31
568.737	87.31
568.949	88.31
569.161	88.31
569.372	97.31
569.584	94.31
569.795	92.31
570.007	114.31
570.218	239.31
570.43	126.31
570.641	91.31
570.853	85.31
571.064	84.31
571.276	97.31
571.487	87.31
571.698	83.31
571.91	79.31
572.121	85.31
572.333	86.31
572.544	82.31
572.755	79.31
572.966	79.31
573.178	86.31
573.389	80.31
573.6	91.31
573.811	86.31
574.023	87.31
574.234	87.31
574.445	87.31
574.656	88.31
574.867	81.31
575.078	83.31
575.289	87.31
575.501	87.31
575.712	90.31
575.923	86.31
576.134	82.31
576.345	82.31
576.556	89.31
576.767	85.31
576.978	80.31
577.188	97.31
577.399	87.31
577.61	90.31
577.821	99.31
578.032	99.31
578.243	263.31
578.454	718.31
578.665	209.31
578.875	87.31
579.086	83.31
579.297	92.31
579.508	84.31
579.718	90.31
579.929	83.31
580.14	85.31
580.35	94.31
580.561	80.31
580.772	99.31
580.982	89.31
581.193	87.31
581.403	92.31
581.614	89.31
581.825	94.31
582.035	86.31
582.246	84.31
582.456	74.31
582.667	87.31
582.877	86.31
583.087	77.31
583.298	101.31
583.508	75.31
583.719	79.31
583.929	83.31
584.139	95.31
584.35	89.31
584.56	88.31
584.77	103.31
584.981	83.31
585.191	88.31
585.401	78.31
585.611	83.31
585.821	90.31
586.032	84.31
586.242	87.31
586.452	85.31
586.662	88.31
586.872	107.31
587.082	89.31
587.292	89.31
587.502	85.31
587.713	89.31
587.923	100.31
588.133	109.31
588.343	102.31
588.553	90.31
588.762	78.31
588.972	101.31
589.182	137.31
589.392	113.31
589.602	92.31
589.812	137.31
590.022	96.31
590.232	77.31
590.441	88.31
590.651	92.31
590.861	96.31
591.071	95.31
591.281	80.31
591.49	90.31
591.7	87.31
591.91	98.31
592.119	91.31
592.329	74.31
592.539	83.31
592.748	92.31
592.958	87.31
593.167	83.31
593.377	86.31
593.587	106.31
593.796	94.31
594.006	87.31
594.215	84.31
594.424	71.31
594.634	90.31
594.843	79.31
595.053	97.31
595.262	94.31
595.472	100.31
595.681	98.31
595.89	90.31
596.1	89.31
596.309	92.31
596.518	93.31
596.727	88.31
596.937	118.31
597.146	80.31
597.355	74.31
597.564	89.31
597.774	82.31
597.983	99.31
598.192	97.31
598.401	93.31
598.61	79.31
598.819	80.31
599.028	93.31
599.237	75.31
599.446	76.31
599.655	92.31
599.864	97.31
600.073	86.31
600.282	88.31
600.491	90.31
600.7	80.31
600.909	82.31
601.118	79.31
601.327	96.31
601.536	80.31
601.745	74.31
601.953	89.31
602.162	82.31
602.371	98.31
602.58	88.31
602.789	88.31
602.997	90.31
603.206	79.31
603.415	81.31
603.623	89.31
603.832	95.31
604.041	81.31
604.249	84.31
604.458	85.31
604.666	86.31
604.875	81.31
605.084	72.31
605.292	95.31
605.501	78.31
605.709	91.31
605.918	81.31
606.126	88.31
606.334	90.31
606.543	90.31
606.751	99.31
606.96	77.31
607.168	82.31
607.376	72.31
607.585	95.31
607.793	98.31
608.001	89.31
608.21	87.31
608.418	92.31
608.626	71.31
608.834	83.31
609.043	79.31
609.251	79.31
609.459	84.31
609.667	80.31
609.875	85.31
610.083	83.31
610.291	76.31
610.499	89.31
610.707	76.31
610.916	80.31
611.124	86.31
611.332	64.31
611.54	71.31
611.748	79.31
611.955	85.31
612.163	66.31
612.371	80.31
612.579	74.31
612.787	87.31
612.995	96.31
613.203	81.31
613.411	75.31
613.618	83.31
613.826	98.31
614.034	76.31
614.242	81.31
614.449	74.31
614.657	81.31
614.865	85.31
615.072	85.31
615.28	96.31
615.488	107.31
615.695	89.31
615.903	92.31
616.111	98.31
616.318	87.31
616.526	98.31
616.733	99.31
616.941	87.31
617.148	101.31
617.356	86.31
617.563	98.31
617.771	86.31
617.978	76.31
618.185	80.31
618.393	96.31
618.6	79.31
618.807	84.31
619.015	87.31
619.222	94.31
619.429	80.31
619.637	70.31
619.844	87.31
620.051	75.31
620.258	84.31
620.466	80.31
620.673	84.31
620.88	86.31
621.087	89.31
621.294	78.31
621.501	88.31
621.708	85.31
621.915	86.31
622.122	75.31
622.329	83.31
622.536	91.31
622.743	70.31
622.95	82.31
623.157	87.31
623.364	65.31
623.571	69.31
623.778	83.31
623.985	97.31
624.192	80.31
624.399	82.31
624.606	79.31
624.812	85.31
625.019	102.31
625.226	76.31
625.433	95.31
625.639	80.31
625.846	88.31
626.053	81.31
626.259	82.31
626.466	81.31
626.673	85.31
626.879	85.31
627.086	78.31
627.293	92.31
627.499	73.31
627.706	88.31
627.912	84.31
628.119	87.31
628.325	91.31
628.532	78.31
628.738	74.31
628.945	87.31
629.151	93.31
629.357	83.31
629.564	96.31
629.77	75.31
629.976	85.31
630.183	80.31
630.389	90.31
630.595	81.31
630.802	76.31
631.008	80.31
631.214	87.31
631.42	90.31
631.627	88.31
631.833	92.31
632.039	64.31
632.245	81.31
632.451	76.31
632.657	86.31
632.863	81.31
633.069	94.31
633.275	74.31
633.481	75.31
633.688	76.31
633.893	91.31
634.099	80.31
634.305	80.31
634.511	89.31
634.717	91.31
634.923	70.31
635.129	72.31
635.335	76.31
635.541	84.31
635.747	82.31
635.952	94.31
636.158	98.31
636.364	232.31
636.57	200.31
636.775	102.31
636.981	88.31
637.187	100.31
637.392	74.31
637.598	81.31
637.804	85.31
638.009	90.31
638.215	76.31
638.421	77.31
638.626	84.31
638.832	92.31
639.037	80.31
639.243	77.31
639.448	87.31
639.654	99.31
639.859	73.31
640.065	77.31
640.27	84.31
640.475	89.31
640.681	95.31
640.886	89.31
641.091	75.31
641.297	86.31
641.502	83.31
641.707	100.31
641.913	83.31
642.118	86.31
642.323	96.31
642.528	98.31
642.733	79.31
642.939	84.31
643.144	96.31
643.349	91.31
643.554	89.31
643.759	86.31
643.964	70.31
644.169	91.31
644.374	97.31
644.579	92.31
644.784	67.31
644.989	78.31
645.194	85.31
645.399	96.31
645.604	80.31
645.809	94.31
646.014	98.31
646.219	91.31
646.423	70.31
646.628	80.31
646.833	102.31
647.038	96.31
647.243	86.31
647.447	79.31
647.652	86.31
647.857	96.31
648.062	83.31
648.266	90.31
648.471	93.31
648.676	86.31
648.88	99.31
649.085	92.31
649.289	96.31
649.494	89.31
649.698	121.31
649.903	97.31
650.107	94.31
650.312	82.31
650.516	80.31
650.721	79.31
650.925	73.31
651.13	79.31
651.334	81.31
651.539	74.31
651.743	76.31
651.947	85.31
652.152	90.31
652.356	86.31
652.56	97.31
652.764	79.31
652.969	85.31
653.173	76.31
653.377	72.31
653.581	94.31
653.785	73.31
653.99	88.31
654.194	90.31
654.398	78.31
654.602	84.31
654.806	97.31
655.01	103.31
655.214	85.31
655.418	81.31
655.622	86.31
655.826	69.31
656.03	88.31
656.234	86.31
656.438	98.31
656.642	108.31
656.846	87.31
657.049	94.31
657.253	70.31
657.457	88.31
657.661	78.31
657.865	87.31
658.068	84.31
658.272	77.31
658.476	80.31
658.68	85.31
658.883	71.31
659.087	82.31
659.291	87.31
659.494	78.31
659.698	91.31
659.901	78.31
660.105	86.31
660.309	69.31
660.512	82.31
660.716	84.31
660.919	76.31
661.123	76.31
661.326	80.31
661.53	83.31
661.733	93.31
661.936	89.31
662.14	71.31
662.343	94.31
662.546	75.31
662.75	80.31
662.953	74.31
663.156	66.31
663.36	79.31
663.563	76.31
663.766	86.31
663.969	90.31
664.173	77.31
664.376	87.31
664.579	72.31
664.782	92.31
664.985	82.31
665.188	74.31
665.391	79.31
665.594	77.31
665.797	82.31
666	72.31
666.203	74.31
666.406	79.31
666.609	74.31
666.812	88.31
667.015	86.31
667.218	67.31
667.421	84.31
667.624	91.31
667.827	83.31
668.03	83.31
668.232	75.31
668.435	87.31
668.638	71.31
668.841	93.31
669.043	73.31
669.246	73.31
669.449	74.31
669.651	72.31
669.854	75.31
670.057	85.31
670.259	87.31
670.462	78.31
670.665	69.31
670.867	80.31
671.07	75.31
671.272	74.31
671.475	72.31
671.677	73.31
671.88	71.31
672.082	87.31
672.284	75.31
672.487	82.31
672.689	82.31
672.892	82.31
