Data from CBS_2_HRD10591_00044.txt Node
Date: Mon Jan 19 14:05:08 EST 2026
User: Yrep
Spectrometer: HR+D1059
Trigger mode: 1
Integration Time (sec): 1.000000E-1
Scans to average: 1
Electric dark correction enabled: true
Nonlinearity correction enabled: false
Boxcar width: 0
XAxis mode: Wavelengths
Number of Pixels in Spectrum: 2048
>>>>>Begin Spectral Data<<<<<
223.165	-14.31
223.4	-14.31
223.635	-14.31
223.869	-28.31
224.104	-25.31
224.338	-11.31
224.573	-7.31
224.808	-11.31
225.042	-13.31
225.277	-7.31
225.511	-6.31
225.746	17.69
225.98	-2.31
226.215	19.69
226.449	12.69
226.683	23.69
226.918	30.69
227.152	22.69
227.387	27.69
227.621	41.69
227.856	49.69
228.09	32.69
228.324	51.69
228.559	53.69
228.793	56.69
229.027	67.69
229.262	72.69
229.496	71.69
229.73	58.69
229.964	78.69
230.199	77.69
230.433	82.69
230.667	75.69
230.901	66.69
231.136	69.69
231.37	63.69
231.604	70.69
231.838	72.69
232.072	80.69
232.306	72.69
232.541	67.69
232.775	84.69
233.009	81.69
233.243	71.69
233.477	72.69
233.711	77.69
233.945	75.69
234.179	80.69
234.413	79.69
234.647	79.69
234.881	85.69
235.115	77.69
235.349	79.69
235.583	83.69
235.817	79.69
236.051	84.69
236.285	83.69
236.519	82.69
236.753	78.69
236.987	77.69
237.221	79.69
237.455	85.69
237.689	77.69
237.922	84.69
238.156	68.69
238.39	76.69
238.624	74.69
238.858	85.69
239.091	71.69
239.325	72.69
239.559	67.69
239.793	67.69
240.027	78.69
240.26	69.69
240.494	78.69
240.728	77.69
240.961	69.69
241.195	85.69
241.429	80.69
241.662	60.69
241.896	57.69
242.13	73.69
242.363	80.69
242.597	79.69
242.83	59.69
243.064	74.69
243.298	83.69
243.531	58.69
243.765	70.69
243.998	81.69
244.232	81.69
244.465	71.69
244.699	79.69
244.932	75.69
245.166	83.69
245.399	81.69
245.633	59.69
245.866	70.69
246.099	69.69
246.333	70.69
246.566	94.69
246.8	81.69
247.033	81.69
247.266	74.69
247.5	84.69
247.733	60.69
247.966	75.69
248.2	68.69
248.433	74.69
248.666	93.69
248.899	81.69
249.133	76.69
249.366	77.69
249.599	73.69
249.832	82.69
250.066	86.69
250.299	62.69
250.532	72.69
250.765	77.69
250.998	91.69
251.231	83.69
251.465	90.69
251.698	75.69
251.931	67.69
252.164	78.69
252.397	75.69
252.63	92.69
252.863	74.69
253.096	69.69
253.329	71.69
253.562	65.69
253.795	79.69
254.028	69.69
254.261	72.69
254.494	73.69
254.727	84.69
254.96	90.69
255.193	89.69
255.426	73.69
255.659	69.69
255.892	65.69
256.124	74.69
256.357	77.69
256.59	69.69
256.823	79.69
257.056	80.69
257.289	64.69
257.521	79.69
257.754	63.69
257.987	83.69
258.22	80.69
258.452	93.69
258.685	74.69
258.918	81.69
259.151	76.69
259.383	89.69
259.616	77.69
259.849	79.69
260.081	77.69
260.314	86.69
260.547	74.69
260.779	71.69
261.012	79.69
261.244	93.69
261.477	85.69
261.71	90.69
261.942	92.69
262.175	80.69
262.407	69.69
262.64	79.69
262.872	85.69
263.105	79.69
263.337	78.69
263.57	79.69
263.802	77.69
264.035	87.69
264.267	74.69
264.499	77.69
264.732	84.69
264.964	86.69
265.197	75.69
265.429	96.69
265.661	80.69
265.894	72.69
266.126	74.69
266.358	67.69
266.591	84.69
266.823	71.69
267.055	72.69
267.287	76.69
267.52	92.69
267.752	74.69
267.984	85.69
268.216	75.69
268.448	82.69
268.681	98.69
268.913	85.69
269.145	89.69
269.377	85.69
269.609	91.69
269.841	82.69
270.073	65.69
270.306	77.69
270.538	84.69
270.77	78.69
271.002	85.69
271.234	54.69
271.466	85.69
271.698	62.69
271.93	89.69
272.162	81.69
272.394	70.69
272.626	79.69
272.858	75.69
273.09	91.69
273.322	76.69
273.553	75.69
273.785	79.69
274.017	79.69
274.249	72.69
274.481	75.69
274.713	75.69
274.945	89.69
275.176	67.69
275.408	82.69
275.64	81.69
275.872	87.69
276.104	78.69
276.335	81.69
276.567	93.69
276.799	77.69
277.031	77.69
277.262	77.69
277.494	76.69
277.726	88.69
277.957	67.69
278.189	85.69
278.421	79.69
278.652	80.69
278.884	80.69
279.115	87.69
279.347	70.69
279.579	84.69
279.81	82.69
280.042	96.69
280.273	72.69
280.505	83.69
280.736	74.69
280.968	71.69
281.199	80.69
281.431	84.69
281.662	80.69
281.894	79.69
282.125	86.69
282.356	71.69
282.588	82.69
282.819	81.69
283.051	77.69
283.282	84.69
283.513	77.69
283.745	67.69
283.976	95.69
284.207	79.69
284.439	71.69
284.67	74.69
284.901	93.69
285.132	94.69
285.364	88.69
285.595	69.69
285.826	82.69
286.057	89.69
286.288	96.69
286.52	85.69
286.751	77.69
286.982	80.69
287.213	94.69
287.444	71.69
287.675	91.69
287.906	60.69
288.138	78.69
288.369	79.69
288.6	85.69
288.831	71.69
289.062	88.69
289.293	71.69
289.524	83.69
289.755	75.69
289.986	77.69
290.217	76.69
290.448	78.69
290.679	76.69
290.91	81.69
291.141	75.69
291.371	78.69
291.602	80.69
291.833	79.69
292.064	83.69
292.295	80.69
292.526	77.69
292.757	93.69
292.987	89.69
293.218	95.69
293.449	68.69
293.68	77.69
293.91	80.69
294.141	82.69
294.372	71.69
294.603	83.69
294.833	91.69
295.064	84.69
295.295	83.69
295.525	85.69
295.756	87.69
295.987	85.69
296.217	77.69
296.448	83.69
296.679	74.69
296.909	76.69
297.14	86.69
297.37	93.69
297.601	91.69
297.831	87.69
298.062	76.69
298.292	76.69
298.523	77.69
298.753	92.69
298.984	94.69
299.214	85.69
299.445	87.69
299.675	93.69
299.905	91.69
300.136	83.69
300.366	80.69
300.597	86.69
300.827	87.69
301.057	86.69
301.288	93.69
301.518	84.69
301.748	78.69
301.979	105.69
302.209	95.69
302.439	62.69
302.669	85.69
302.9	83.69
303.13	79.69
303.36	71.69
303.59	74.69
303.82	87.69
304.051	96.69
304.281	83.69
304.511	77.69
304.741	87.69
304.971	94.69
305.201	86.69
305.431	70.69
305.661	72.69
305.891	84.69
306.121	84.69
306.352	93.69
306.582	84.69
306.812	71.69
307.042	85.69
307.272	71.69
307.502	87.69
307.731	93.69
307.961	83.69
308.191	83.69
308.421	105.69
308.651	93.69
308.881	96.69
309.111	84.69
309.341	82.69
309.571	89.69
309.8	88.69
310.03	80.69
310.26	91.69
310.49	74.69
310.72	101.69
310.949	83.69
311.179	86.69
311.409	89.69
311.639	87.69
311.868	72.69
312.098	73.69
312.328	83.69
312.557	79.69
312.787	83.69
313.017	93.69
313.246	77.69
313.476	78.69
313.706	75.69
313.935	76.69
314.165	78.69
314.394	80.69
314.624	93.69
314.853	89.69
315.083	72.69
315.312	69.69
315.542	73.69
315.771	91.69
316.001	87.69
316.23	83.69
316.46	83.69
316.689	81.69
316.919	71.69
317.148	83.69
317.377	80.69
317.607	79.69
317.836	93.69
318.065	100.69
318.295	87.69
318.524	71.69
318.753	80.69
318.983	75.69
319.212	74.69
319.441	77.69
319.67	93.69
319.9	80.69
320.129	63.69
320.358	74.69
320.587	83.69
320.816	70.69
321.046	91.69
321.275	90.69
321.504	78.69
321.733	74.69
321.962	97.69
322.191	77.69
322.42	90.69
322.649	73.69
322.878	95.69
323.108	86.69
323.337	92.69
323.566	86.69
323.795	71.69
324.024	73.69
324.253	75.69
324.482	89.69
324.71	77.69
324.939	72.69
325.168	83.69
325.397	75.69
325.626	67.69
325.855	89.69
326.084	80.69
326.313	87.69
326.542	81.69
326.77	91.69
326.999	90.69
327.228	89.69
327.457	81.69
327.686	79.69
327.914	84.69
328.143	94.69
328.372	81.69
328.6	65.69
328.829	84.69
329.058	79.69
329.287	67.69
329.515	93.69
329.744	81.69
329.972	84.69
330.201	79.69
330.43	93.69
330.658	82.69
330.887	66.69
331.115	88.69
331.344	89.69
331.572	74.69
331.801	83.69
332.03	88.69
332.258	74.69
332.486	87.69
332.715	79.69
332.943	83.69
333.172	69.69
333.4	81.69
333.629	68.69
333.857	79.69
334.085	83.69
334.314	88.69
334.542	99.69
334.771	85.69
334.999	92.69
335.227	83.69
335.455	77.69
335.684	97.69
335.912	95.69
336.14	80.69
336.369	77.69
336.597	89.69
336.825	76.69
337.053	82.69
337.281	83.69
337.51	86.69
337.738	92.69
337.966	79.69
338.194	84.69
338.422	65.69
338.65	67.69
338.878	85.69
339.106	73.69
339.334	92.69
339.562	77.69
339.79	93.69
340.018	79.69
340.246	76.69
340.474	85.69
340.702	72.69
340.93	81.69
341.158	63.69
341.386	76.69
341.614	89.69
341.842	84.69
342.07	81.69
342.298	79.69
342.526	80.69
342.754	74.69
342.981	72.69
343.209	70.69
343.437	96.69
343.665	68.69
343.893	76.69
344.12	84.69
344.348	82.69
344.576	79.69
344.804	83.69
345.031	80.69
345.259	80.69
345.487	76.69
345.714	73.69
345.942	82.69
346.17	65.69
346.397	101.69
346.625	91.69
346.853	79.69
347.08	77.69
347.308	86.69
347.535	81.69
347.763	77.69
347.99	82.69
348.218	89.69
348.445	78.69
348.673	79.69
348.9	77.69
349.128	67.69
349.355	77.69
349.583	83.69
349.81	84.69
350.037	93.69
350.265	83.69
350.492	67.69
350.72	85.69
350.947	81.69
351.174	70.69
351.402	61.69
351.629	78.69
351.856	79.69
352.083	74.69
352.311	83.69
352.538	87.69
352.765	69.69
352.992	92.69
353.22	77.69
353.447	84.69
353.674	82.69
353.901	87.69
354.128	88.69
354.355	95.69
354.583	81.69
354.81	71.69
355.037	95.69
355.264	91.69
355.491	79.69
355.718	79.69
355.945	77.69
356.172	91.69
356.399	70.69
356.626	96.69
356.853	89.69
357.08	80.69
357.307	69.69
357.534	63.69
357.761	78.69
357.988	70.69
358.215	92.69
358.441	80.69
358.668	95.69
358.895	54.69
359.122	81.69
359.349	68.69
359.576	83.69
359.802	83.69
360.029	98.69
360.256	86.69
360.483	74.69
360.709	80.69
360.936	93.69
361.163	86.69
361.39	79.69
361.616	72.69
361.843	81.69
362.07	96.69
362.296	103.69
362.523	88.69
362.749	87.69
362.976	86.69
363.203	108.69
363.429	87.69
363.656	89.69
363.882	76.69
364.109	94.69
364.335	109.69
364.562	117.69
364.788	100.69
365.015	91.69
365.241	78.69
365.468	81.69
365.694	80.69
365.92	102.69
366.147	87.69
366.373	97.69
366.599	84.69
366.826	75.69
367.052	76.69
367.278	93.69
367.505	71.69
367.731	92.69
367.957	99.69
368.184	89.69
368.41	81.69
368.636	99.69
368.862	100.69
369.089	80.69
369.315	80.69
369.541	95.69
369.767	81.69
369.993	97.69
370.219	86.69
370.445	78.69
370.672	103.69
370.898	88.69
371.124	82.69
371.35	86.69
371.576	74.69
371.802	89.69
372.028	79.69
372.254	86.69
372.48	85.69
372.706	90.69
372.932	88.69
373.158	84.69
373.384	79.69
373.61	90.69
373.835	93.69
374.061	100.69
374.287	76.69
374.513	87.69
374.739	87.69
374.965	91.69
375.191	71.69
375.416	82.69
375.642	82.69
375.868	69.69
376.094	77.69
376.319	71.69
376.545	77.69
376.771	87.69
376.997	76.69
377.222	91.69
377.448	89.69
377.674	73.69
377.899	69.69
378.125	72.69
378.35	89.69
378.576	86.69
378.802	83.69
379.027	72.69
379.253	83.69
379.478	82.69
379.704	82.69
379.929	92.69
380.155	86.69
380.38	89.69
380.606	87.69
380.831	91.69
381.057	89.69
381.282	88.69
381.507	83.69
381.733	81.69
381.958	92.69
382.184	74.69
382.409	85.69
382.634	82.69
382.86	78.69
383.085	76.69
383.31	96.69
383.535	89.69
383.761	73.69
383.986	82.69
384.211	81.69
384.436	72.69
384.662	79.69
384.887	98.69
385.112	85.69
385.337	79.69
385.562	95.69
385.787	66.69
386.013	83.69
386.238	89.69
386.463	90.69
386.688	92.69
386.913	87.69
387.138	79.69
387.363	91.69
387.588	84.69
387.813	85.69
388.038	88.69
388.263	82.69
388.488	89.69
388.713	101.69
388.938	75.69
389.163	80.69
389.387	86.69
389.612	93.69
389.837	80.69
390.062	91.69
390.287	78.69
390.512	85.69
390.736	90.69
390.961	83.69
391.186	72.69
391.411	102.69
391.636	85.69
391.86	95.69
392.085	87.69
392.31	89.69
392.534	91.69
392.759	104.69
392.984	123.69
393.208	201.69
393.433	273.69
393.658	222.69
393.882	102.69
394.107	98.69
394.331	109.69
394.556	91.69
394.78	86.69
395.005	89.69
395.229	88.69
395.454	91.69
395.678	93.69
395.903	94.69
396.127	109.69
396.352	111.69
396.576	128.69
396.801	189.69
397.025	213.69
397.249	132.69
397.474	109.69
397.698	88.69
397.922	70.69
398.147	87.69
398.371	77.69
398.595	67.69
398.82	83.69
399.044	98.69
399.268	83.69
399.492	89.69
399.717	72.69
399.941	83.69
400.165	81.69
400.389	83.69
400.613	64.69
400.837	83.69
401.062	87.69
401.286	77.69
401.51	78.69
401.734	84.69
401.958	72.69
402.182	78.69
402.406	94.69
402.63	79.69
402.854	70.69
403.078	91.69
403.302	69.69
403.526	82.69
403.75	83.69
403.974	86.69
404.198	89.69
404.422	71.69
404.645	81.69
404.869	93.69
405.093	79.69
405.317	81.69
405.541	75.69
405.765	72.69
405.988	71.69
406.212	89.69
406.436	81.69
406.66	86.69
406.883	75.69
407.107	77.69
407.331	79.69
407.555	88.69
407.778	94.69
408.002	88.69
408.226	74.69
408.449	73.69
408.673	77.69
408.896	77.69
409.12	84.69
409.344	91.69
409.567	96.69
409.791	90.69
410.014	89.69
410.238	87.69
410.461	80.69
410.685	89.69
410.908	81.69
411.132	83.69
411.355	89.69
411.578	85.69
411.802	80.69
412.025	86.69
412.249	100.69
412.472	87.69
412.695	84.69
412.919	91.69
413.142	82.69
413.365	81.69
413.589	95.69
413.812	79.69
414.035	88.69
414.258	82.69
414.482	81.69
414.705	74.69
414.928	86.69
415.151	76.69
415.374	84.69
415.597	76.69
415.821	73.69
416.044	68.69
416.267	66.69
416.49	63.69
416.713	82.69
416.936	79.69
417.159	77.69
417.382	85.69
417.605	89.69
417.828	82.69
418.051	68.69
418.274	95.69
418.497	72.69
418.72	83.69
418.943	70.69
419.166	81.69
419.389	70.69
419.611	82.69
419.834	81.69
420.057	102.69
420.28	81.69
420.503	87.69
420.726	77.69
420.948	67.69
421.171	84.69
421.394	99.69
421.617	103.69
421.839	95.69
422.062	95.69
422.285	134.69
422.507	197.69
422.73	309.69
422.953	273.69
423.175	171.69
423.398	122.69
423.621	106.69
423.843	93.69
424.066	88.69
424.288	89.69
424.511	80.69
424.733	83.69
424.956	96.69
425.178	89.69
425.401	79.69
425.623	74.69
425.846	86.69
426.068	71.69
426.291	73.69
426.513	89.69
426.735	77.69
426.958	69.69
427.18	73.69
427.402	94.69
427.625	102.69
427.847	88.69
428.069	94.69
428.292	96.69
428.514	106.69
428.736	101.69
428.958	97.69
429.181	114.69
429.403	85.69
429.625	84.69
429.847	103.69
430.069	131.69
430.292	150.69
430.514	127.69
430.736	113.69
430.958	131.69
431.18	87.69
431.402	85.69
431.624	90.69
431.846	107.69
432.068	112.69
432.29	97.69
432.512	76.69
432.734	82.69
432.956	80.69
433.178	83.69
433.4	66.69
433.622	97.69
433.844	85.69
434.066	97.69
434.287	77.69
434.509	83.69
434.731	73.69
434.953	83.69
435.175	95.69
435.397	81.69
435.618	77.69
435.84	74.69
436.062	81.69
436.284	73.69
436.505	83.69
436.727	73.69
436.949	67.69
437.17	83.69
437.392	79.69
437.614	69.69
437.835	95.69
438.057	87.69
438.278	100.69
438.5	74.69
438.721	75.69
438.943	85.69
439.165	82.69
439.386	72.69
439.608	63.69
439.829	95.69
440.05	79.69
440.272	80.69
440.493	81.69
440.715	70.69
440.936	91.69
441.158	85.69
441.379	72.69
441.6	76.69
441.822	85.69
442.043	83.69
442.264	91.69
442.486	106.69
442.707	127.69
442.928	93.69
443.149	80.69
443.371	100.69
443.592	177.69
443.813	150.69
444.034	89.69
444.255	94.69
444.476	87.69
444.698	64.69
444.919	92.69
445.14	159.69
445.361	172.69
445.582	202.69
445.803	191.69
446.024	103.69
446.245	85.69
446.466	79.69
446.687	85.69
446.908	89.69
447.129	85.69
447.35	82.69
447.571	75.69
447.792	83.69
448.013	88.69
448.234	76.69
448.455	81.69
448.675	84.69
448.896	82.69
449.117	89.69
449.338	85.69
449.559	76.69
449.779	75.69
450	86.69
450.221	89.69
450.442	86.69
450.662	81.69
450.883	86.69
451.104	88.69
451.324	82.69
451.545	94.69
451.766	96.69
451.986	85.69
452.207	73.69
452.428	83.69
452.648	70.69
452.869	86.69
453.089	81.69
453.31	80.69
453.53	71.69
453.751	100.69
453.971	83.69
454.192	81.69
454.412	84.69
454.633	79.69
454.853	88.69
455.073	83.69
455.294	74.69
455.514	81.69
455.734	95.69
455.955	97.69
456.175	75.69
456.395	69.69
456.616	80.69
456.836	81.69
457.056	78.69
457.276	69.69
457.497	67.69
457.717	83.69
457.937	90.69
458.157	104.69
458.377	93.69
458.598	89.69
458.818	101.69
459.038	86.69
459.258	89.69
459.478	75.69
459.698	85.69
459.918	94.69
460.138	72.69
460.358	77.69
460.578	82.69
460.798	97.69
461.018	93.69
461.238	73.69
461.458	68.69
461.678	89.69
461.898	83.69
462.118	91.69
462.338	89.69
462.558	81.69
462.777	86.69
462.997	86.69
463.217	81.69
463.437	78.69
463.657	81.69
463.876	70.69
464.096	79.69
464.316	86.69
464.536	88.69
464.755	82.69
464.975	99.69
465.195	95.69
465.414	83.69
465.634	90.69
465.854	78.69
466.073	84.69
466.293	79.69
466.512	88.69
466.732	67.69
466.951	82.69
467.171	86.69
467.391	93.69
467.61	93.69
467.829	86.69
468.049	85.69
468.268	82.69
468.488	86.69
468.707	82.69
468.927	79.69
469.146	74.69
469.365	95.69
469.585	82.69
469.804	92.69
470.023	91.69
470.243	85.69
470.462	76.69
470.681	68.69
470.901	91.69
471.12	85.69
471.339	91.69
471.558	97.69
471.777	86.69
471.997	85.69
472.216	90.69
472.435	101.69
472.654	73.69
472.873	83.69
473.092	75.69
473.311	89.69
473.53	85.69
473.749	81.69
473.968	96.69
474.187	87.69
474.406	87.69
474.625	74.69
474.844	98.69
475.063	91.69
475.282	77.69
475.501	63.69
475.72	90.69
475.939	91.69
476.158	89.69
476.377	87.69
476.596	73.69
476.814	88.69
477.033	84.69
477.252	83.69
477.471	71.69
477.69	84.69
477.908	87.69
478.127	93.69
478.346	87.69
478.564	83.69
478.783	89.69
479.002	79.69
479.22	91.69
479.439	77.69
479.658	78.69
479.876	86.69
480.095	93.69
480.313	71.69
480.532	94.69
480.751	69.69
480.969	79.69
481.188	69.69
481.406	83.69
481.624	86.69
481.843	88.69
482.061	77.69
482.28	74.69
482.498	82.69
482.717	94.69
482.935	71.69
483.153	73.69
483.372	80.69
483.59	82.69
483.808	87.69
484.027	79.69
484.245	86.69
484.463	79.69
484.681	86.69
484.9	87.69
485.118	90.69
485.336	84.69
485.554	74.69
485.772	79.69
485.99	86.69
486.209	68.69
486.427	80.69
486.645	72.69
486.863	91.69
487.081	85.69
487.299	88.69
487.517	91.69
487.735	99.69
487.953	149.69
488.171	125.69
488.389	110.69
488.607	91.69
488.825	89.69
489.043	89.69
489.261	86.69
489.479	86.69
489.696	101.69
489.914	86.69
490.132	89.69
490.35	74.69
490.568	81.69
490.786	79.69
491.003	83.69
491.221	84.69
491.439	92.69
491.657	83.69
491.874	75.69
492.092	86.69
492.31	76.69
492.527	83.69
492.745	63.69
492.963	87.69
493.18	87.69
493.398	96.69
493.615	92.69
493.833	95.69
494.05	79.69
494.268	77.69
494.485	84.69
494.703	74.69
494.92	85.69
495.138	82.69
495.355	93.69
495.573	101.69
495.79	86.69
496.008	91.69
496.225	89.69
496.442	83.69
496.66	77.69
496.877	95.69
497.094	86.69
497.312	83.69
497.529	91.69
497.746	80.69
497.963	87.69
498.181	83.69
498.398	88.69
498.615	85.69
498.832	64.69
499.049	73.69
499.267	77.69
499.484	78.69
499.701	83.69
499.918	77.69
500.135	87.69
500.352	92.69
500.569	100.69
500.786	96.69
501.003	83.69
501.22	97.69
501.437	79.69
501.654	79.69
501.871	88.69
502.088	80.69
502.305	79.69
502.522	89.69
502.739	75.69
502.956	77.69
503.172	88.69
503.389	93.69
503.606	101.69
503.823	88.69
504.04	97.69
504.256	113.69
504.473	113.69
504.69	87.69
504.907	79.69
505.123	82.69
505.34	89.69
505.557	75.69
505.773	86.69
505.99	94.69
506.207	87.69
506.423	93.69
506.64	86.69
506.856	98.69
507.073	85.69
507.289	84.69
507.506	87.69
507.722	84.69
507.939	87.69
508.155	84.69
508.372	83.69
508.588	82.69
508.805	75.69
509.021	88.69
509.238	87.69
509.454	79.69
509.67	80.69
509.887	73.69
510.103	87.69
510.319	86.69
510.536	77.69
510.752	73.69
510.968	84.69
511.184	88.69
511.401	93.69
511.617	81.69
511.833	81.69
512.049	82.69
512.265	81.69
512.481	81.69
512.698	74.69
512.914	90.69
513.13	74.69
513.346	74.69
513.562	59.69
513.778	86.69
513.994	81.69
514.21	90.69
514.426	69.69
514.642	77.69
514.858	93.69
515.074	90.69
515.29	89.69
515.506	95.69
515.721	79.69
515.937	88.69
516.153	85.69
516.369	93.69
516.585	85.69
516.801	80.69
517.016	88.69
517.232	87.69
517.448	72.69
517.664	95.69
517.879	84.69
518.095	85.69
518.311	80.69
518.527	82.69
518.742	95.69
518.958	132.69
519.173	127.69
519.389	106.69
519.605	86.69
519.82	88.69
520.036	79.69
520.251	79.69
520.467	92.69
520.682	86.69
520.898	88.69
521.113	89.69
521.329	84.69
521.544	83.69
521.76	84.69
521.975	83.69
522.19	84.69
522.406	62.69
522.621	76.69
522.836	87.69
523.052	82.69
523.267	80.69
523.482	82.69
523.698	100.69
523.913	89.69
524.128	84.69
524.343	92.69
524.559	79.69
524.774	98.69
524.989	78.69
525.204	74.69
525.419	77.69
525.634	102.69
525.849	99.69
526.064	91.69
526.28	163.69
526.495	212.69
526.71	241.69
526.925	165.69
527.14	220.69
527.355	188.69
527.57	103.69
527.785	99.69
527.999	88.69
528.214	84.69
528.429	80.69
528.644	77.69
528.859	84.69
529.074	80.69
529.289	90.69
529.503	102.69
529.718	96.69
529.933	81.69
530.148	83.69
530.363	84.69
530.577	85.69
530.792	80.69
531.007	84.69
531.221	78.69
531.436	91.69
531.651	90.69
531.865	94.69
532.08	93.69
532.295	88.69
532.509	87.69
532.724	100.69
532.938	107.69
533.153	91.69
533.367	79.69
533.582	86.69
533.796	88.69
534.011	86.69
534.225	87.69
534.44	91.69
534.654	94.69
534.868	110.69
535.083	121.69
535.297	125.69
535.511	97.69
535.726	103.69
535.94	98.69
536.154	90.69
536.369	104.69
536.583	104.69
536.797	95.69
537.011	89.69
537.225	98.69
537.44	96.69
537.654	96.69
537.868	82.69
538.082	104.69
538.296	100.69
538.51	103.69
538.724	107.69
538.938	107.69
539.153	101.69
539.367	79.69
539.581	80.69
539.795	95.69
540.009	99.69
540.222	97.69
540.436	107.69
540.65	81.69
540.864	107.69
541.078	108.69
541.292	92.69
541.506	86.69
541.72	94.69
541.934	79.69
542.147	91.69
542.361	94.69
542.575	88.69
542.789	85.69
543.002	73.69
543.216	101.69
543.43	105.69
543.644	87.69
543.857	95.69
544.071	108.69
544.285	99.69
544.498	81.69
544.712	107.69
544.925	89.69
545.139	103.69
545.352	86.69
545.566	100.69
545.779	83.69
545.993	90.69
546.206	91.69
546.42	90.69
546.633	96.69
546.847	124.69
547.06	107.69
547.274	125.69
547.487	158.69
547.7	148.69
547.914	134.69
548.127	152.69
548.34	169.69
548.554	169.69
548.767	159.69
548.98	138.69
549.193	145.69
549.407	165.69
549.62	167.69
549.833	166.69
550.046	177.69
550.259	193.69
550.473	187.69
550.686	194.69
550.899	215.69
551.112	241.69
551.325	225.69
551.538	237.69
551.751	222.69
551.964	223.69
552.177	199.69
552.39	222.69
552.603	215.69
552.816	207.69
553.029	202.69
553.242	209.69
553.455	191.69
553.667	224.69
553.88	231.69
554.093	226.69
554.306	231.69
554.519	220.69
554.732	230.69
554.944	235.69
555.157	205.69
555.37	212.69
555.583	209.69
555.795	191.69
556.008	167.69
556.221	161.69
556.433	172.69
556.646	160.69
556.859	157.69
557.071	152.69
557.284	154.69
557.496	140.69
557.709	125.69
557.921	136.69
558.134	135.69
558.346	159.69
558.559	147.69
558.771	147.69
558.984	248.69
559.196	283.69
559.409	163.69
559.621	237.69
559.833	179.69
560.046	209.69
560.258	187.69
560.47	195.69
560.683	119.69
560.895	102.69
561.107	115.69
561.32	95.69
561.532	107.69
561.744	119.69
561.956	100.69
562.168	98.69
562.381	108.69
562.593	108.69
562.805	102.69
563.017	108.69
563.229	94.69
563.441	92.69
563.653	108.69
563.865	97.69
564.077	87.69
564.289	98.69
564.501	91.69
564.713	107.69
564.925	90.69
565.137	85.69
565.349	96.69
565.561	89.69
565.773	110.69
565.985	109.69
566.197	107.69
566.408	93.69
566.62	99.69
566.832	79.69
567.044	80.69
567.255	96.69
567.467	87.69
567.679	98.69
567.891	101.69
568.102	96.69
568.314	94.69
568.526	110.69
568.737	112.69
568.949	96.69
569.161	79.69
569.372	96.69
569.584	91.69
569.795	111.69
570.007	93.69
570.218	101.69
570.43	91.69
570.641	102.69
570.853	88.69
571.064	94.69
571.276	110.69
571.487	91.69
571.698	103.69
571.91	88.69
572.121	98.69
572.333	89.69
572.544	89.69
572.755	82.69
572.966	85.69
573.178	98.69
573.389	99.69
573.6	84.69
573.811	87.69
574.023	103.69
574.234	107.69
574.445	99.69
574.656	86.69
574.867	99.69
575.078	103.69
575.289	107.69
575.501	90.69
575.712	107.69
575.923	91.69
576.134	80.69
576.345	79.69
576.556	88.69
576.767	97.69
576.978	78.69
577.188	94.69
577.399	104.69
577.61	92.69
577.821	104.69
578.032	82.69
578.243	96.69
578.454	91.69
578.665	96.69
578.875	85.69
579.086	84.69
579.297	83.69
579.508	86.69
579.718	85.69
579.929	87.69
580.14	90.69
580.35	94.69
580.561	80.69
580.772	91.69
580.982	98.69
581.193	107.69
581.403	91.69
581.614	102.69
581.825	84.69
582.035	95.69
582.246	107.69
582.456	90.69
582.667	84.69
582.877	94.69
583.087	89.69
583.298	95.69
583.508	101.69
583.719	104.69
583.929	95.69
584.139	87.69
584.35	91.69
584.56	95.69
584.77	99.69
584.981	107.69
585.191	95.69
585.401	91.69
585.611	108.69
585.821	127.69
586.032	179.69
586.242	102.69
586.452	90.69
586.662	94.69
586.872	99.69
587.082	88.69
587.292	105.69
587.502	105.69
587.713	96.69
587.923	92.69
588.133	96.69
588.343	96.69
588.553	89.69
588.762	116.69
588.972	160.69
589.182	299.69
589.392	218.69
589.602	160.69
589.812	278.69
590.022	157.69
590.232	111.69
590.441	110.69
590.651	110.69
590.861	98.69
591.071	115.69
591.281	103.69
591.49	107.69
591.7	97.69
591.91	121.69
592.119	111.69
592.329	100.69
592.539	115.69
592.748	102.69
592.958	111.69
593.167	113.69
593.377	89.69
593.587	111.69
593.796	111.69
594.006	111.69
594.215	116.69
594.424	113.69
594.634	104.69
594.843	107.69
595.053	113.69
595.262	127.69
595.472	139.69
595.681	117.69
595.89	127.69
596.1	131.69
596.309	133.69
596.518	129.69
596.727	157.69
596.937	153.69
597.146	143.69
597.355	157.69
597.564	164.69
597.774	159.69
597.983	159.69
598.192	143.69
598.401	149.69
598.61	175.69
598.819	164.69
599.028	150.69
599.237	178.69
599.446	157.69
599.655	163.69
599.864	168.69
600.073	161.69
600.282	177.69
600.491	199.69
600.7	173.69
600.909	163.69
601.118	159.69
601.327	140.69
601.536	151.69
601.745	141.69
601.953	136.69
602.162	150.69
602.371	145.69
602.58	137.69
602.789	133.69
602.997	155.69
603.206	148.69
603.415	151.69
603.623	151.69
603.832	151.69
604.041	150.69
604.249	166.69
604.458	164.69
604.666	180.69
604.875	184.69
605.084	168.69
605.292	191.69
605.501	172.69
605.709	182.69
605.918	178.69
606.126	194.69
606.334	190.69
606.543	176.69
606.751	183.69
606.96	189.69
607.168	174.69
607.376	171.69
607.585	161.69
607.793	179.69
608.001	171.69
608.21	165.69
608.418	162.69
608.626	172.69
608.834	193.69
609.043	188.69
609.251	171.69
609.459	163.69
609.667	169.69
609.875	206.69
610.083	189.69
610.291	196.69
610.499	254.69
610.707	199.69
610.916	177.69
611.124	186.69
611.332	187.69
611.54	179.69
611.748	200.69
611.955	203.69
612.163	221.69
612.371	299.69
612.579	270.69
612.787	208.69
612.995	213.69
613.203	223.69
613.411	206.69
613.618	191.69
613.826	197.69
614.034	208.69
614.242	207.69
614.449	189.69
614.657	201.69
614.865	193.69
615.072	206.69
615.28	180.69
615.488	192.69
615.695	212.69
615.903	209.69
616.111	221.69
616.318	292.69
616.526	309.69
616.733	228.69
616.941	214.69
617.148	251.69
617.356	232.69
617.563	195.69
617.771	190.69
617.978	183.69
618.185	194.69
618.393	192.69
618.6	204.69
618.807	192.69
619.015	176.69
619.222	185.69
619.429	175.69
619.637	183.69
619.844	185.69
620.051	172.69
620.258	179.69
620.466	193.69
620.673	170.69
620.88	179.69
621.087	156.69
621.294	169.69
621.501	179.69
621.708	163.69
621.915	182.69
622.122	187.69
622.329	171.69
622.536	184.69
622.743	187.69
622.95	187.69
623.157	194.69
623.364	197.69
623.571	193.69
623.778	178.69
623.985	184.69
624.192	190.69
624.399	189.69
624.606	176.69
624.812	185.69
625.019	177.69
625.226	175.69
625.433	184.69
625.639	178.69
625.846	190.69
626.053	158.69
626.259	157.69
626.466	171.69
626.673	154.69
626.879	148.69
627.086	164.69
627.293	150.69
627.499	147.69
627.706	145.69
627.912	135.69
628.119	128.69
628.325	129.69
628.532	119.69
628.738	101.69
628.945	107.69
629.151	107.69
629.357	105.69
629.564	109.69
629.77	108.69
629.976	93.69
630.183	104.69
630.389	102.69
630.595	105.69
630.802	101.69
631.008	104.69
631.214	101.69
631.42	106.69
631.627	102.69
631.833	87.69
632.039	99.69
632.245	97.69
632.451	99.69
632.657	92.69
632.863	90.69
633.069	95.69
633.275	98.69
633.481	105.69
633.688	86.69
633.893	107.69
634.099	96.69
634.305	109.69
634.511	93.69
634.717	112.69
634.923	96.69
635.129	107.69
635.335	103.69
635.541	93.69
635.747	94.69
635.952	95.69
636.158	102.69
636.364	88.69
636.57	96.69
636.775	108.69
636.981	105.69
637.187	95.69
637.392	89.69
637.598	93.69
637.804	101.69
638.009	87.69
638.215	92.69
638.421	97.69
638.626	104.69
638.832	91.69
639.037	101.69
639.243	91.69
639.448	98.69
639.654	88.69
639.859	100.69
640.065	90.69
640.27	105.69
640.475	90.69
640.681	96.69
640.886	93.69
641.091	101.69
641.297	103.69
641.502	95.69
641.707	93.69
641.913	88.69
642.118	100.69
642.323	96.69
642.528	101.69
642.733	95.69
642.939	85.69
643.144	106.69
643.349	104.69
643.554	109.69
643.759	105.69
643.964	119.69
644.169	146.69
644.374	118.69
644.579	110.69
644.784	97.69
644.989	100.69
645.194	100.69
645.399	96.69
645.604	89.69
645.809	101.69
646.014	103.69
646.219	102.69
646.423	140.69
646.628	105.69
646.833	100.69
647.038	87.69
647.243	100.69
647.447	114.69
647.652	79.69
647.857	97.69
648.062	102.69
648.266	91.69
648.471	85.69
648.676	92.69
648.88	88.69
649.085	85.69
649.289	100.69
649.494	112.69
649.698	103.69
649.903	99.69
650.107	98.69
650.312	97.69
650.516	95.69
650.721	88.69
650.925	90.69
651.13	95.69
651.334	83.69
651.539	80.69
651.743	84.69
651.947	88.69
652.152	78.69
652.356	86.69
652.56	97.69
652.764	88.69
652.969	70.69
653.173	70.69
653.377	84.69
653.581	89.69
653.785	79.69
653.99	70.69
654.194	69.69
654.398	80.69
654.602	79.69
654.806	87.69
655.01	78.69
655.214	86.69
655.418	72.69
655.622	99.69
655.826	91.69
656.03	87.69
656.234	86.69
656.438	67.69
656.642	87.69
656.846	79.69
657.049	75.69
657.253	76.69
657.457	74.69
657.661	77.69
657.865	88.69
658.068	84.69
658.272	81.69
658.476	83.69
658.68	78.69
658.883	87.69
659.087	88.69
659.291	85.69
659.494	86.69
659.698	81.69
659.901	73.69
660.105	78.69
660.309	81.69
660.512	88.69
660.716	77.69
660.919	87.69
661.123	79.69
661.326	87.69
661.53	80.69
661.733	84.69
661.936	91.69
662.14	88.69
662.343	67.69
662.546	94.69
662.75	81.69
662.953	95.69
663.156	84.69
663.36	79.69
663.563	83.69
663.766	71.69
663.969	93.69
664.173	72.69
664.376	77.69
664.579	88.69
664.782	80.69
664.985	84.69
665.188	88.69
665.391	78.69
665.594	94.69
665.797	85.69
666	80.69
666.203	71.69
666.406	79.69
666.609	85.69
666.812	86.69
667.015	80.69
667.218	76.69
667.421	81.69
667.624	78.69
667.827	87.69
668.03	64.69
668.232	73.69
668.435	71.69
668.638	77.69
668.841	77.69
669.043	89.69
669.246	73.69
669.449	84.69
669.651	77.69
669.854	79.69
670.057	79.69
670.259	68.69
670.462	93.69
670.665	76.69
670.867	81.69
671.07	74.69
671.272	89.69
671.475	88.69
671.677	82.69
671.88	69.69
672.082	79.69
672.284	83.69
672.487	87.69
672.689	78.69
672.892	80.69
