Data from Uncirc_1990_H10_HRD10591_00036.txt Node
Date: Wed Jan 03 11:53:58 EST 2024
User: Yrep
Spectrometer: HR+D1059
Trigger mode: 1
Integration Time (sec): 1.000000E-1
Scans to average: 1
Electric dark correction enabled: true
Nonlinearity correction enabled: false
Boxcar width: 0
XAxis mode: Wavelengths
Number of Pixels in Spectrum: 2048
>>>>>Begin Spectral Data<<<<<
223.165	-18.94
223.4	-18.94
223.635	-18.94
223.869	-31.94
224.104	-31.94
224.338	-15.94
224.573	-20.94
224.808	-11.94
225.042	-14.94
225.277	1.06
225.511	-4.94
225.746	0.06
225.98	24.06
226.215	17.06
226.449	12.06
226.683	34.06
226.918	29.06
227.152	34.06
227.387	33.06
227.621	39.06
227.856	43.06
228.09	38.06
228.324	49.06
228.559	56.06
228.793	72.06
229.027	62.06
229.262	60.06
229.496	73.06
229.73	94.06
229.964	71.06
230.199	65.06
230.433	85.06
230.667	68.06
230.901	67.06
231.136	69.06
231.37	78.06
231.604	86.06
231.838	83.06
232.072	81.06
232.306	72.06
232.541	84.06
232.775	84.06
233.009	83.06
233.243	80.06
233.477	78.06
233.711	77.06
233.945	74.06
234.179	67.06
234.413	82.06
234.647	72.06
234.881	92.06
235.115	66.06
235.349	72.06
235.583	70.06
235.817	83.06
236.051	90.06
236.285	76.06
236.519	70.06
236.753	87.06
236.987	80.06
237.221	78.06
237.455	85.06
237.689	93.06
237.922	74.06
238.156	80.06
238.39	72.06
238.624	77.06
238.858	70.06
239.091	86.06
239.325	79.06
239.559	73.06
239.793	89.06
240.027	80.06
240.26	72.06
240.494	72.06
240.728	89.06
240.961	85.06
241.195	82.06
241.429	78.06
241.662	77.06
241.896	79.06
242.13	82.06
242.363	76.06
242.597	66.06
242.83	81.06
243.064	74.06
243.298	80.06
243.531	70.06
243.765	70.06
243.998	60.06
244.232	79.06
244.465	76.06
244.699	84.06
244.932	77.06
245.166	86.06
245.399	83.06
245.633	80.06
245.866	73.06
246.099	70.06
246.333	86.06
246.566	78.06
246.8	81.06
247.033	85.06
247.266	77.06
247.5	82.06
247.733	86.06
247.966	63.06
248.2	89.06
248.433	86.06
248.666	76.06
248.899	90.06
249.133	73.06
249.366	86.06
249.599	104.06
249.832	89.06
250.066	81.06
250.299	94.06
250.532	88.06
250.765	72.06
250.998	69.06
251.231	79.06
251.465	88.06
251.698	81.06
251.931	71.06
252.164	81.06
252.397	81.06
252.63	88.06
252.863	89.06
253.096	85.06
253.329	89.06
253.562	77.06
253.795	88.06
254.028	68.06
254.261	85.06
254.494	85.06
254.727	86.06
254.96	70.06
255.193	82.06
255.426	72.06
255.659	74.06
255.892	73.06
256.124	96.06
256.357	76.06
256.59	86.06
256.823	81.06
257.056	83.06
257.289	69.06
257.521	74.06
257.754	78.06
257.987	84.06
258.22	90.06
258.452	95.06
258.685	80.06
258.918	92.06
259.151	78.06
259.383	95.06
259.616	89.06
259.849	99.06
260.081	97.06
260.314	82.06
260.547	93.06
260.779	85.06
261.012	81.06
261.244	77.06
261.477	87.06
261.71	99.06
261.942	98.06
262.175	121.06
262.407	96.06
262.64	82.06
262.872	82.06
263.105	78.06
263.337	80.06
263.57	84.06
263.802	88.06
264.035	80.06
264.267	86.06
264.499	97.06
264.732	87.06
264.964	84.06
265.197	88.06
265.429	86.06
265.661	79.06
265.894	88.06
266.126	106.06
266.358	71.06
266.591	80.06
266.823	79.06
267.055	77.06
267.287	88.06
267.52	74.06
267.752	93.06
267.984	81.06
268.216	92.06
268.448	75.06
268.681	89.06
268.913	94.06
269.145	72.06
269.377	70.06
269.609	77.06
269.841	85.06
270.073	94.06
270.306	92.06
270.538	94.06
270.77	86.06
271.002	75.06
271.234	89.06
271.466	80.06
271.698	82.06
271.93	77.06
272.162	77.06
272.394	81.06
272.626	96.06
272.858	89.06
273.09	85.06
273.322	86.06
273.553	82.06
273.785	85.06
274.017	85.06
274.249	89.06
274.481	84.06
274.713	68.06
274.945	92.06
275.176	85.06
275.408	84.06
275.64	84.06
275.872	89.06
276.104	89.06
276.335	87.06
276.567	92.06
276.799	101.06
277.031	87.06
277.262	93.06
277.494	95.06
277.726	83.06
277.957	86.06
278.189	82.06
278.421	90.06
278.652	80.06
278.884	82.06
279.115	94.06
279.347	83.06
279.579	86.06
279.81	87.06
280.042	85.06
280.273	88.06
280.505	92.06
280.736	96.06
280.968	82.06
281.199	97.06
281.431	84.06
281.662	82.06
281.894	97.06
282.125	93.06
282.356	112.06
282.588	146.06
282.819	122.06
283.051	81.06
283.282	88.06
283.513	93.06
283.745	81.06
283.976	85.06
284.207	82.06
284.439	104.06
284.67	81.06
284.901	97.06
285.132	88.06
285.364	78.06
285.595	96.06
285.826	86.06
286.057	94.06
286.288	104.06
286.52	89.06
286.751	80.06
286.982	91.06
287.213	82.06
287.444	84.06
287.675	88.06
287.906	103.06
288.138	92.06
288.369	102.06
288.6	93.06
288.831	78.06
289.062	89.06
289.293	87.06
289.524	98.06
289.755	96.06
289.986	78.06
290.217	83.06
290.448	104.06
290.679	92.06
290.91	92.06
291.141	94.06
291.371	88.06
291.602	88.06
291.833	88.06
292.064	88.06
292.295	86.06
292.526	100.06
292.757	74.06
292.987	82.06
293.218	79.06
293.449	84.06
293.68	90.06
293.91	97.06
294.141	97.06
294.372	85.06
294.603	85.06
294.833	91.06
295.064	93.06
295.295	101.06
295.525	89.06
295.756	101.06
295.987	103.06
296.217	126.06
296.448	118.06
296.679	87.06
296.909	102.06
297.14	95.06
297.37	97.06
297.601	88.06
297.831	87.06
298.062	92.06
298.292	82.06
298.523	95.06
298.753	79.06
298.984	95.06
299.214	82.06
299.445	97.06
299.675	95.06
299.905	102.06
300.136	85.06
300.366	82.06
300.597	81.06
300.827	99.06
301.057	106.06
301.288	108.06
301.518	96.06
301.748	101.06
301.979	106.06
302.209	90.06
302.439	105.06
302.669	111.06
302.9	79.06
303.13	97.06
303.36	102.06
303.59	96.06
303.82	103.06
304.051	87.06
304.281	86.06
304.511	99.06
304.741	96.06
304.971	86.06
305.201	100.06
305.431	86.06
305.661	105.06
305.891	80.06
306.121	92.06
306.352	103.06
306.582	95.06
306.812	102.06
307.042	116.06
307.272	93.06
307.502	102.06
307.731	94.06
307.961	94.06
308.191	97.06
308.421	101.06
308.651	101.06
308.881	98.06
309.111	87.06
309.341	84.06
309.571	105.06
309.8	90.06
310.03	86.06
310.26	95.06
310.49	96.06
310.72	103.06
310.949	98.06
311.179	98.06
311.409	92.06
311.639	86.06
311.868	92.06
312.098	80.06
312.328	96.06
312.557	92.06
312.787	99.06
313.017	112.06
313.246	99.06
313.476	90.06
313.706	85.06
313.935	101.06
314.165	95.06
314.394	89.06
314.624	98.06
314.853	87.06
315.083	82.06
315.312	103.06
315.542	87.06
315.771	94.06
316.001	100.06
316.23	101.06
316.46	85.06
316.689	92.06
316.919	99.06
317.148	96.06
317.377	100.06
317.607	103.06
317.836	91.06
318.065	82.06
318.295	90.06
318.524	92.06
318.753	85.06
318.983	95.06
319.212	101.06
319.441	95.06
319.67	101.06
319.9	86.06
320.129	93.06
320.358	98.06
320.587	104.06
320.816	104.06
321.046	115.06
321.275	106.06
321.504	89.06
321.733	94.06
321.962	94.06
322.191	94.06
322.42	108.06
322.649	111.06
322.878	107.06
323.108	101.06
323.337	133.06
323.566	126.06
323.795	156.06
324.024	200.06
324.253	397.06
324.482	784.06
324.71	1600.06
324.939	2210.06
325.168	797.06
325.397	244.06
325.626	156.06
325.855	125.06
326.084	116.06
326.313	156.06
326.542	125.06
326.77	216.06
326.999	420.06
327.228	897.06
327.457	1628.06
327.686	1331.06
327.914	356.06
328.143	178.06
328.372	124.06
328.6	123.06
328.829	125.06
329.058	135.06
329.287	136.06
329.515	116.06
329.744	98.06
329.972	105.06
330.201	96.06
330.43	107.06
330.658	112.06
330.887	146.06
331.115	110.06
331.344	94.06
331.572	84.06
331.801	104.06
332.03	108.06
332.258	103.06
332.486	105.06
332.715	98.06
332.943	96.06
333.172	108.06
333.4	92.06
333.629	101.06
333.857	116.06
334.085	114.06
334.314	103.06
334.542	96.06
334.771	101.06
334.999	102.06
335.227	115.06
335.455	103.06
335.684	94.06
335.912	108.06
336.14	87.06
336.369	90.06
336.597	99.06
336.825	105.06
337.053	92.06
337.281	93.06
337.51	95.06
337.738	110.06
337.966	96.06
338.194	94.06
338.422	108.06
338.65	103.06
338.878	91.06
339.106	84.06
339.334	102.06
339.562	95.06
339.79	92.06
340.018	96.06
340.246	84.06
340.474	86.06
340.702	105.06
340.93	94.06
341.158	98.06
341.386	100.06
341.614	99.06
341.842	110.06
342.07	100.06
342.298	101.06
342.526	91.06
342.754	108.06
342.981	87.06
343.209	76.06
343.437	101.06
343.665	96.06
343.893	104.06
344.12	88.06
344.348	97.06
344.576	88.06
344.804	95.06
345.031	95.06
345.259	107.06
345.487	109.06
345.714	105.06
345.942	98.06
346.17	102.06
346.397	105.06
346.625	104.06
346.853	97.06
347.08	100.06
347.308	96.06
347.535	98.06
347.763	97.06
347.99	92.06
348.218	112.06
348.445	109.06
348.673	103.06
348.9	99.06
349.128	95.06
349.355	110.06
349.583	97.06
349.81	92.06
350.037	105.06
350.265	101.06
350.492	111.06
350.72	95.06
350.947	120.06
351.174	115.06
351.402	106.06
351.629	104.06
351.856	112.06
352.083	100.06
352.311	107.06
352.538	108.06
352.765	118.06
352.992	103.06
353.22	100.06
353.447	109.06
353.674	108.06
353.901	96.06
354.128	98.06
354.355	93.06
354.583	92.06
354.81	99.06
355.037	93.06
355.264	107.06
355.491	96.06
355.718	83.06
355.945	108.06
356.172	90.06
356.399	105.06
356.626	103.06
356.853	96.06
357.08	100.06
357.307	84.06
357.534	105.06
357.761	92.06
357.988	95.06
358.215	107.06
358.441	92.06
358.668	94.06
358.895	107.06
359.122	94.06
359.349	97.06
359.576	92.06
359.802	85.06
360.029	119.06
360.256	103.06
360.483	87.06
360.709	88.06
360.936	93.06
361.163	84.06
361.39	101.06
361.616	104.06
361.843	95.06
362.07	88.06
362.296	89.06
362.523	96.06
362.749	97.06
362.976	98.06
363.203	95.06
363.429	82.06
363.656	89.06
363.882	96.06
364.109	84.06
364.335	93.06
364.562	83.06
364.788	97.06
365.015	96.06
365.241	108.06
365.468	113.06
365.694	97.06
365.92	108.06
366.147	77.06
366.373	95.06
366.599	96.06
366.826	99.06
367.052	93.06
367.278	96.06
367.505	101.06
367.731	86.06
367.957	74.06
368.184	88.06
368.41	106.06
368.636	127.06
368.862	116.06
369.089	117.06
369.315	84.06
369.541	103.06
369.767	92.06
369.993	84.06
370.219	82.06
370.445	111.06
370.672	93.06
370.898	88.06
371.124	84.06
371.35	78.06
371.576	101.06
371.802	92.06
372.028	80.06
372.254	97.06
372.48	88.06
372.706	84.06
372.932	93.06
373.158	98.06
373.384	97.06
373.61	91.06
373.835	90.06
374.061	90.06
374.287	82.06
374.513	90.06
374.739	94.06
374.965	95.06
375.191	93.06
375.416	88.06
375.642	92.06
375.868	99.06
376.094	89.06
376.319	102.06
376.545	94.06
376.771	83.06
376.997	84.06
377.222	84.06
377.448	83.06
377.674	87.06
377.899	108.06
378.125	94.06
378.35	99.06
378.576	88.06
378.802	81.06
379.027	96.06
379.253	102.06
379.478	87.06
379.704	96.06
379.929	93.06
380.155	81.06
380.38	86.06
380.606	104.06
380.831	102.06
381.057	102.06
381.282	109.06
381.507	112.06
381.733	89.06
381.958	96.06
382.184	90.06
382.409	96.06
382.634	96.06
382.86	95.06
383.085	102.06
383.31	106.06
383.535	106.06
383.761	93.06
383.986	109.06
384.211	97.06
384.436	101.06
384.662	106.06
384.887	106.06
385.112	111.06
385.337	100.06
385.562	108.06
385.787	98.06
386.013	114.06
386.238	108.06
386.463	104.06
386.688	109.06
386.913	112.06
387.138	107.06
387.363	100.06
387.588	101.06
387.813	92.06
388.038	100.06
388.263	99.06
388.488	112.06
388.713	96.06
388.938	109.06
389.163	86.06
389.387	97.06
389.612	116.06
389.837	101.06
390.062	104.06
390.287	79.06
390.512	97.06
390.736	94.06
390.961	96.06
391.186	91.06
391.411	88.06
391.636	89.06
391.86	96.06
392.085	87.06
392.31	93.06
392.534	96.06
392.759	88.06
392.984	76.06
393.208	71.06
393.433	102.06
393.658	96.06
393.882	89.06
394.107	80.06
394.331	82.06
394.556	85.06
394.78	91.06
395.005	90.06
395.229	94.06
395.454	91.06
395.678	94.06
395.903	85.06
396.127	83.06
396.352	88.06
396.576	90.06
396.801	79.06
397.025	79.06
397.249	96.06
397.474	98.06
397.698	86.06
397.922	85.06
398.147	77.06
398.371	82.06
398.595	84.06
398.82	86.06
399.044	91.06
399.268	76.06
399.492	96.06
399.717	74.06
399.941	101.06
400.165	94.06
400.389	100.06
400.613	90.06
400.837	82.06
401.062	87.06
401.286	95.06
401.51	86.06
401.734	84.06
401.958	96.06
402.182	122.06
402.406	146.06
402.63	110.06
402.854	93.06
403.078	94.06
403.302	88.06
403.526	88.06
403.75	103.06
403.974	82.06
404.198	71.06
404.422	90.06
404.645	89.06
404.869	98.06
405.093	103.06
405.317	94.06
405.541	89.06
405.765	95.06
405.988	102.06
406.212	161.06
406.436	216.06
406.66	130.06
406.883	117.06
407.107	105.06
407.331	90.06
407.555	99.06
407.778	97.06
408.002	90.06
408.226	88.06
408.449	94.06
408.673	102.06
408.896	84.06
409.12	93.06
409.344	84.06
409.567	81.06
409.791	97.06
410.014	94.06
410.238	95.06
410.461	102.06
410.685	97.06
410.908	95.06
411.132	101.06
411.355	100.06
411.578	102.06
411.802	80.06
412.025	96.06
412.249	86.06
412.472	92.06
412.695	100.06
412.919	98.06
413.142	91.06
413.365	74.06
413.589	92.06
413.812	80.06
414.035	86.06
414.258	88.06
414.482	99.06
414.705	92.06
414.928	95.06
415.151	89.06
415.374	98.06
415.597	96.06
415.821	82.06
416.044	88.06
416.267	89.06
416.49	92.06
416.713	86.06
416.936	90.06
417.159	89.06
417.382	84.06
417.605	84.06
417.828	89.06
418.051	96.06
418.274	103.06
418.497	97.06
418.72	81.06
418.943	100.06
419.166	96.06
419.389	82.06
419.611	87.06
419.834	92.06
420.057	89.06
420.28	85.06
420.503	80.06
420.726	92.06
420.948	99.06
421.171	93.06
421.394	93.06
421.617	103.06
421.839	88.06
422.062	82.06
422.285	92.06
422.507	111.06
422.73	97.06
422.953	105.06
423.175	94.06
423.398	104.06
423.621	91.06
423.843	92.06
424.066	84.06
424.288	92.06
424.511	94.06
424.733	111.06
424.956	114.06
425.178	100.06
425.401	104.06
425.623	105.06
425.846	87.06
426.068	92.06
426.291	88.06
426.513	85.06
426.735	91.06
426.958	92.06
427.18	112.06
427.402	137.06
427.625	168.06
427.847	127.06
428.069	99.06
428.292	105.06
428.514	85.06
428.736	89.06
428.958	91.06
429.181	80.06
429.403	81.06
429.625	76.06
429.847	90.06
430.069	100.06
430.292	89.06
430.514	88.06
430.736	94.06
430.958	89.06
431.18	88.06
431.402	69.06
431.624	80.06
431.846	76.06
432.068	89.06
432.29	84.06
432.512	88.06
432.734	79.06
432.956	90.06
433.178	101.06
433.4	88.06
433.622	86.06
433.844	84.06
434.066	83.06
434.287	107.06
434.509	97.06
434.731	94.06
434.953	92.06
435.175	82.06
435.397	95.06
435.618	92.06
435.84	106.06
436.062	125.06
436.284	119.06
436.505	98.06
436.727	112.06
436.949	94.06
437.17	106.06
437.392	87.06
437.614	97.06
437.835	98.06
438.057	124.06
438.278	120.06
438.5	104.06
438.721	132.06
438.943	88.06
439.165	98.06
439.386	78.06
439.608	95.06
439.829	97.06
440.05	117.06
440.272	150.06
440.493	98.06
440.715	81.06
440.936	86.06
441.158	92.06
441.379	93.06
441.6	99.06
441.822	101.06
442.043	97.06
442.264	100.06
442.486	106.06
442.707	108.06
442.928	102.06
443.149	122.06
443.371	117.06
443.592	108.06
443.813	103.06
444.034	104.06
444.255	82.06
444.476	95.06
444.698	95.06
444.919	77.06
445.14	119.06
445.361	118.06
445.582	120.06
445.803	131.06
446.024	133.06
446.245	131.06
446.466	95.06
446.687	97.06
446.908	72.06
447.129	82.06
447.35	86.06
447.571	90.06
447.792	102.06
448.013	97.06
448.234	102.06
448.455	103.06
448.675	102.06
448.896	109.06
449.117	97.06
449.338	100.06
449.559	129.06
449.779	150.06
450	93.06
450.221	94.06
450.442	82.06
450.662	84.06
450.883	86.06
451.104	121.06
451.324	95.06
451.545	87.06
451.766	89.06
451.986	85.06
452.207	94.06
452.428	94.06
452.648	96.06
452.869	109.06
453.089	104.06
453.31	107.06
453.53	86.06
453.751	92.06
453.971	90.06
454.192	98.06
454.412	94.06
454.633	83.06
454.853	84.06
455.073	81.06
455.294	92.06
455.514	98.06
455.734	99.06
455.955	90.06
456.175	89.06
456.395	76.06
456.616	69.06
456.836	78.06
457.056	79.06
457.276	76.06
457.497	85.06
457.717	95.06
457.937	101.06
458.157	88.06
458.377	85.06
458.598	105.06
458.818	120.06
459.038	147.06
459.258	121.06
459.478	89.06
459.698	81.06
459.918	81.06
460.138	84.06
460.358	79.06
460.578	98.06
460.798	81.06
461.018	81.06
461.238	87.06
461.458	103.06
461.678	96.06
461.898	109.06
462.118	88.06
462.338	92.06
462.558	80.06
462.777	90.06
462.997	82.06
463.217	98.06
463.437	95.06
463.657	90.06
463.876	114.06
464.096	80.06
464.316	89.06
464.536	96.06
464.755	102.06
464.975	106.06
465.195	167.06
465.414	154.06
465.634	88.06
465.854	96.06
466.073	98.06
466.293	83.06
466.512	87.06
466.732	82.06
466.951	97.06
467.171	89.06
467.391	94.06
467.61	95.06
467.829	88.06
468.049	88.06
468.268	88.06
468.488	93.06
468.707	62.06
468.927	93.06
469.146	89.06
469.365	86.06
469.585	80.06
469.804	98.06
470.023	88.06
470.243	88.06
470.462	109.06
470.681	102.06
470.901	89.06
471.12	86.06
471.339	92.06
471.558	88.06
471.777	80.06
471.997	82.06
472.216	103.06
472.435	103.06
472.654	94.06
472.873	98.06
473.092	96.06
473.311	100.06
473.53	91.06
473.749	82.06
473.968	88.06
474.187	99.06
474.406	90.06
474.625	106.06
474.844	93.06
475.063	96.06
475.282	96.06
475.501	92.06
475.72	91.06
475.939	94.06
476.158	76.06
476.377	84.06
476.596	97.06
476.814	108.06
477.033	96.06
477.252	104.06
477.471	87.06
477.69	94.06
477.908	84.06
478.127	85.06
478.346	99.06
478.564	95.06
478.783	114.06
479.002	71.06
479.22	107.06
479.439	88.06
479.658	93.06
479.876	84.06
480.095	88.06
480.313	88.06
480.532	104.06
480.751	110.06
480.969	84.06
481.188	102.06
481.406	114.06
481.624	89.06
481.843	80.06
482.061	85.06
482.28	84.06
482.498	88.06
482.717	84.06
482.935	90.06
483.153	89.06
483.372	88.06
483.59	91.06
483.808	98.06
484.027	104.06
484.245	96.06
484.463	99.06
484.681	106.06
484.9	111.06
485.118	107.06
485.336	89.06
485.554	103.06
485.772	94.06
485.99	110.06
486.209	102.06
486.427	107.06
486.645	120.06
486.863	109.06
487.081	98.06
487.299	95.06
487.517	100.06
487.735	89.06
487.953	101.06
488.171	93.06
488.389	87.06
488.607	86.06
488.825	89.06
489.043	90.06
489.261	86.06
489.479	89.06
489.696	95.06
489.914	96.06
490.132	96.06
490.35	100.06
490.568	84.06
490.786	86.06
491.003	86.06
491.221	92.06
491.439	87.06
491.657	104.06
491.874	90.06
492.092	102.06
492.31	95.06
492.527	89.06
492.745	92.06
492.963	85.06
493.18	79.06
493.398	104.06
493.615	111.06
493.833	99.06
494.05	92.06
494.268	103.06
494.485	76.06
494.703	103.06
494.92	89.06
495.138	82.06
495.355	94.06
495.573	85.06
495.79	95.06
496.008	74.06
496.225	94.06
496.442	84.06
496.66	101.06
496.877	73.06
497.094	91.06
497.312	103.06
497.529	94.06
497.746	103.06
497.963	90.06
498.181	105.06
498.398	97.06
498.615	98.06
498.832	99.06
499.049	93.06
499.267	95.06
499.484	80.06
499.701	91.06
499.918	89.06
500.135	78.06
500.352	90.06
500.569	79.06
500.786	107.06
501.003	80.06
501.22	104.06
501.437	100.06
501.654	85.06
501.871	117.06
502.088	85.06
502.305	85.06
502.522	89.06
502.739	89.06
502.956	101.06
503.172	93.06
503.389	86.06
503.606	94.06
503.823	103.06
504.04	99.06
504.256	98.06
504.473	95.06
504.69	85.06
504.907	106.06
505.123	98.06
505.34	95.06
505.557	104.06
505.773	88.06
505.99	99.06
506.207	102.06
506.423	101.06
506.64	86.06
506.856	101.06
507.073	90.06
507.289	87.06
507.506	97.06
507.722	113.06
507.939	109.06
508.155	98.06
508.372	97.06
508.588	88.06
508.805	92.06
509.021	99.06
509.238	86.06
509.454	110.06
509.67	101.06
509.887	113.06
510.103	127.06
510.319	215.06
510.536	711.06
510.752	2203.06
510.968	614.06
511.184	158.06
511.401	98.06
511.617	95.06
511.833	93.06
512.049	98.06
512.265	102.06
512.481	95.06
512.698	95.06
512.914	103.06
513.13	96.06
513.346	96.06
513.562	83.06
513.778	100.06
513.994	93.06
514.21	101.06
514.426	121.06
514.642	129.06
514.858	123.06
515.074	168.06
515.29	415.06
515.506	1348.06
515.721	480.06
515.937	138.06
516.153	112.06
516.369	86.06
516.585	94.06
516.801	93.06
517.016	111.06
517.232	87.06
517.448	97.06
517.664	90.06
517.879	83.06
518.095	101.06
518.311	99.06
518.527	95.06
518.742	100.06
518.958	88.06
519.173	105.06
519.389	105.06
519.605	119.06
519.82	101.06
520.036	115.06
520.251	128.06
520.467	106.06
520.682	114.06
520.898	94.06
521.113	113.06
521.329	130.06
521.544	204.06
521.76	496.06
521.975	2244.06
522.19	1358.06
522.406	286.06
522.621	123.06
522.836	99.06
523.052	90.06
523.267	82.06
523.482	111.06
523.698	106.06
523.913	113.06
524.128	93.06
524.343	98.06
524.559	90.06
524.774	103.06
524.989	93.06
525.204	98.06
525.419	94.06
525.634	101.06
525.849	94.06
526.064	93.06
526.28	93.06
526.495	93.06
526.71	93.06
526.925	95.06
527.14	86.06
527.355	100.06
527.57	85.06
527.785	94.06
527.999	90.06
528.214	102.06
528.429	102.06
528.644	92.06
528.859	92.06
529.074	97.06
529.289	116.06
529.503	171.06
529.718	103.06
529.933	87.06
530.148	93.06
530.363	99.06
530.577	94.06
530.792	99.06
531.007	97.06
531.221	94.06
531.436	96.06
531.651	85.06
531.865	97.06
532.08	91.06
532.295	81.06
532.509	100.06
532.724	84.06
532.938	95.06
533.153	101.06
533.367	102.06
533.582	103.06
533.796	100.06
534.011	95.06
534.225	96.06
534.44	98.06
534.654	120.06
534.868	86.06
535.083	88.06
535.297	100.06
535.511	96.06
535.726	114.06
535.94	102.06
536.154	101.06
536.369	90.06
536.583	81.06
536.797	84.06
537.011	96.06
537.225	97.06
537.44	101.06
537.654	102.06
537.868	102.06
538.082	95.06
538.296	95.06
538.51	84.06
538.724	94.06
538.938	85.06
539.153	104.06
539.367	119.06
539.581	122.06
539.795	96.06
540.009	108.06
540.222	110.06
540.436	101.06
540.65	79.06
540.864	87.06
541.078	98.06
541.292	96.06
541.506	91.06
541.72	101.06
541.934	94.06
542.147	102.06
542.361	100.06
542.575	95.06
542.789	90.06
543.002	84.06
543.216	87.06
543.43	94.06
543.644	104.06
543.857	98.06
544.071	111.06
544.285	96.06
544.498	92.06
544.712	97.06
544.925	80.06
545.139	73.06
545.352	85.06
545.566	92.06
545.779	94.06
545.993	82.06
546.206	88.06
546.42	97.06
546.633	96.06
546.847	86.06
547.06	95.06
547.274	93.06
547.487	93.06
547.7	94.06
547.914	93.06
548.127	80.06
548.34	97.06
548.554	92.06
548.767	100.06
548.98	94.06
549.193	74.06
549.407	84.06
549.62	83.06
549.833	97.06
550.046	91.06
550.259	85.06
550.473	97.06
550.686	100.06
550.899	92.06
551.112	94.06
551.325	96.06
551.538	99.06
551.751	79.06
551.964	99.06
552.177	94.06
552.39	83.06
552.603	87.06
552.816	102.06
553.029	95.06
553.242	72.06
553.455	96.06
553.667	103.06
553.88	101.06
554.093	78.06
554.306	93.06
554.519	101.06
554.732	102.06
554.944	87.06
555.157	88.06
555.37	88.06
555.583	86.06
555.795	98.06
556.008	95.06
556.221	103.06
556.433	95.06
556.646	96.06
556.859	86.06
557.071	104.06
557.284	104.06
557.496	96.06
557.709	93.06
557.921	96.06
558.134	87.06
558.346	87.06
558.559	106.06
558.771	85.06
558.984	100.06
559.196	80.06
559.409	84.06
559.621	87.06
559.833	85.06
560.046	86.06
560.258	109.06
560.47	95.06
560.683	80.06
560.895	87.06
561.107	106.06
561.32	101.06
561.532	93.06
561.744	93.06
561.956	85.06
562.168	96.06
562.381	97.06
562.593	84.06
562.805	78.06
563.017	83.06
563.229	93.06
563.441	89.06
563.653	96.06
563.865	92.06
564.077	78.06
564.289	93.06
564.501	79.06
564.713	90.06
564.925	106.06
565.137	97.06
565.349	82.06
565.561	86.06
565.773	98.06
565.985	82.06
566.197	100.06
566.408	92.06
566.62	72.06
566.832	86.06
567.044	95.06
567.255	99.06
567.467	97.06
567.679	91.06
567.891	81.06
568.102	91.06
568.314	101.06
568.526	106.06
568.737	102.06
568.949	86.06
569.161	73.06
569.372	79.06
569.584	87.06
569.795	102.06
570.007	119.06
570.218	223.06
570.43	138.06
570.641	85.06
570.853	80.06
571.064	85.06
571.276	99.06
571.487	96.06
571.698	81.06
571.91	103.06
572.121	88.06
572.333	88.06
572.544	98.06
572.755	93.06
572.966	97.06
573.178	103.06
573.389	79.06
573.6	72.06
573.811	83.06
574.023	89.06
574.234	81.06
574.445	90.06
574.656	88.06
574.867	83.06
575.078	95.06
575.289	89.06
575.501	88.06
575.712	76.06
575.923	80.06
576.134	81.06
576.345	83.06
576.556	93.06
576.767	89.06
576.978	79.06
577.188	78.06
577.399	88.06
577.61	88.06
577.821	105.06
578.032	117.06
578.243	264.06
578.454	713.06
578.665	208.06
578.875	96.06
579.086	91.06
579.297	92.06
579.508	93.06
579.718	94.06
579.929	93.06
580.14	101.06
580.35	94.06
580.561	87.06
580.772	84.06
580.982	81.06
581.193	97.06
581.403	100.06
581.614	97.06
581.825	80.06
582.035	94.06
582.246	100.06
582.456	98.06
582.667	100.06
582.877	110.06
583.087	98.06
583.298	93.06
583.508	93.06
583.719	101.06
583.929	97.06
584.139	94.06
584.35	91.06
584.56	97.06
584.77	89.06
584.981	92.06
585.191	93.06
585.401	93.06
585.611	87.06
585.821	89.06
586.032	87.06
586.242	96.06
586.452	103.06
586.662	99.06
586.872	101.06
587.082	71.06
587.292	102.06
587.502	80.06
587.713	90.06
587.923	85.06
588.133	102.06
588.343	108.06
588.553	97.06
588.762	73.06
588.972	86.06
589.182	79.06
589.392	97.06
589.602	96.06
589.812	101.06
590.022	100.06
590.232	78.06
590.441	80.06
590.651	88.06
590.861	90.06
591.071	73.06
591.281	80.06
591.49	88.06
591.7	93.06
591.91	98.06
592.119	95.06
592.329	88.06
592.539	101.06
592.748	91.06
592.958	88.06
593.167	87.06
593.377	89.06
593.587	102.06
593.796	97.06
594.006	82.06
594.215	88.06
594.424	96.06
594.634	102.06
594.843	90.06
595.053	78.06
595.262	85.06
595.472	96.06
595.681	88.06
595.89	93.06
596.1	102.06
596.309	92.06
596.518	93.06
596.727	85.06
596.937	91.06
597.146	95.06
597.355	86.06
597.564	94.06
597.774	95.06
597.983	83.06
598.192	86.06
598.401	94.06
598.61	82.06
598.819	102.06
599.028	87.06
599.237	92.06
599.446	92.06
599.655	80.06
599.864	67.06
600.073	84.06
600.282	97.06
600.491	102.06
600.7	102.06
600.909	90.06
601.118	89.06
601.327	86.06
601.536	90.06
601.745	78.06
601.953	87.06
602.162	101.06
602.371	100.06
602.58	90.06
602.789	91.06
602.997	95.06
603.206	98.06
603.415	74.06
603.623	81.06
603.832	88.06
604.041	99.06
604.249	96.06
604.458	87.06
604.666	90.06
604.875	84.06
605.084	82.06
605.292	84.06
605.501	76.06
605.709	81.06
605.918	85.06
606.126	94.06
606.334	92.06
606.543	84.06
606.751	78.06
606.96	98.06
607.168	103.06
607.376	97.06
607.585	94.06
607.793	94.06
608.001	85.06
608.21	95.06
608.418	95.06
608.626	89.06
608.834	77.06
609.043	93.06
609.251	97.06
609.459	81.06
609.667	104.06
609.875	94.06
610.083	78.06
610.291	89.06
610.499	88.06
610.707	82.06
610.916	91.06
611.124	102.06
611.332	96.06
611.54	95.06
611.748	89.06
611.955	90.06
612.163	91.06
612.371	97.06
612.579	98.06
612.787	106.06
612.995	87.06
613.203	86.06
613.411	96.06
613.618	97.06
613.826	97.06
614.034	92.06
614.242	82.06
614.449	87.06
614.657	88.06
614.865	80.06
615.072	94.06
615.28	98.06
615.488	97.06
615.695	96.06
615.903	95.06
616.111	86.06
616.318	77.06
616.526	99.06
616.733	97.06
616.941	88.06
617.148	96.06
617.356	94.06
617.563	96.06
617.771	90.06
617.978	94.06
618.185	80.06
618.393	87.06
618.6	74.06
618.807	87.06
619.015	87.06
619.222	95.06
619.429	73.06
619.637	97.06
619.844	87.06
620.051	76.06
620.258	95.06
620.466	87.06
620.673	76.06
620.88	76.06
621.087	87.06
621.294	86.06
621.501	87.06
621.708	96.06
621.915	87.06
622.122	87.06
622.329	89.06
622.536	97.06
622.743	84.06
622.95	95.06
623.157	98.06
623.364	96.06
623.571	89.06
623.778	80.06
623.985	85.06
624.192	78.06
624.399	92.06
624.606	82.06
624.812	84.06
625.019	82.06
625.226	89.06
625.433	104.06
625.639	86.06
625.846	85.06
626.053	84.06
626.259	93.06
626.466	93.06
626.673	81.06
626.879	85.06
627.086	95.06
627.293	96.06
627.499	84.06
627.706	96.06
627.912	96.06
628.119	89.06
628.325	83.06
628.532	94.06
628.738	85.06
628.945	84.06
629.151	82.06
629.357	79.06
629.564	80.06
629.77	84.06
629.976	96.06
630.183	90.06
630.389	82.06
630.595	90.06
630.802	92.06
631.008	88.06
631.214	88.06
631.42	93.06
631.627	92.06
631.833	96.06
632.039	76.06
632.245	79.06
632.451	86.06
632.657	80.06
632.863	79.06
633.069	83.06
633.275	83.06
633.481	85.06
633.688	88.06
633.893	84.06
634.099	96.06
634.305	88.06
634.511	83.06
634.717	86.06
634.923	74.06
635.129	66.06
635.335	87.06
635.541	96.06
635.747	89.06
635.952	97.06
636.158	89.06
636.364	86.06
636.57	84.06
636.775	90.06
636.981	97.06
637.187	76.06
637.392	88.06
637.598	71.06
637.804	80.06
638.009	88.06
638.215	82.06
638.421	90.06
638.626	87.06
638.832	90.06
639.037	86.06
639.243	78.06
639.448	94.06
639.654	91.06
639.859	86.06
640.065	79.06
640.27	89.06
640.475	86.06
640.681	87.06
640.886	96.06
641.091	94.06
641.297	74.06
641.502	89.06
641.707	83.06
641.913	90.06
642.118	71.06
642.323	93.06
642.528	73.06
642.733	88.06
642.939	96.06
643.144	85.06
643.349	92.06
643.554	88.06
643.759	88.06
643.964	93.06
644.169	89.06
644.374	97.06
644.579	85.06
644.784	99.06
644.989	83.06
645.194	89.06
645.399	82.06
645.604	89.06
645.809	90.06
646.014	99.06
646.219	88.06
646.423	71.06
646.628	84.06
646.833	90.06
647.038	86.06
647.243	77.06
647.447	85.06
647.652	83.06
647.857	95.06
648.062	96.06
648.266	100.06
648.471	94.06
648.676	102.06
648.88	87.06
649.085	95.06
649.289	96.06
649.494	113.06
649.698	135.06
649.903	117.06
650.107	101.06
650.312	86.06
650.516	84.06
650.721	77.06
650.925	85.06
651.13	89.06
651.334	78.06
651.539	73.06
651.743	95.06
651.947	88.06
652.152	92.06
652.356	84.06
652.56	72.06
652.764	83.06
652.969	94.06
653.173	94.06
653.377	93.06
653.581	74.06
653.785	86.06
653.99	89.06
654.194	97.06
654.398	79.06
654.602	74.06
654.806	80.06
655.01	92.06
655.214	87.06
655.418	78.06
655.622	100.06
655.826	90.06
656.03	101.06
656.234	99.06
656.438	88.06
656.642	86.06
656.846	85.06
657.049	92.06
657.253	91.06
657.457	72.06
657.661	86.06
657.865	97.06
658.068	88.06
658.272	70.06
658.476	92.06
658.68	77.06
658.883	89.06
659.087	88.06
659.291	82.06
659.494	84.06
659.698	93.06
659.901	84.06
660.105	83.06
660.309	77.06
660.512	81.06
660.716	82.06
660.919	84.06
661.123	81.06
661.326	90.06
661.53	89.06
661.733	96.06
661.936	86.06
662.14	91.06
662.343	96.06
662.546	88.06
662.75	86.06
662.953	90.06
663.156	80.06
663.36	84.06
663.563	90.06
663.766	76.06
663.969	90.06
664.173	82.06
664.376	89.06
664.579	87.06
664.782	81.06
664.985	85.06
665.188	99.06
665.391	92.06
665.594	72.06
665.797	86.06
666	80.06
666.203	88.06
666.406	80.06
666.609	70.06
666.812	76.06
667.015	80.06
667.218	85.06
667.421	81.06
667.624	81.06
667.827	82.06
668.03	95.06
668.232	72.06
668.435	56.06
668.638	71.06
668.841	74.06
669.043	77.06
669.246	82.06
669.449	92.06
669.651	94.06
669.854	81.06
670.057	92.06
670.259	82.06
670.462	83.06
670.665	91.06
670.867	105.06
671.07	85.06
671.272	82.06
671.475	88.06
671.677	97.06
671.88	83.06
672.082	84.06
672.284	81.06
672.487	81.06
672.689	80.06
672.892	84.06
