Data from Circ_2012_H10_HRD10591_00031.txt Node
Date: Wed Jan 03 10:05:56 EST 2024
User: Yrep
Spectrometer: HR+D1059
Trigger mode: 1
Integration Time (sec): 1.000000E-1
Scans to average: 1
Electric dark correction enabled: true
Nonlinearity correction enabled: false
Boxcar width: 0
XAxis mode: Wavelengths
Number of Pixels in Spectrum: 2048
>>>>>Begin Spectral Data<<<<<
223.165	-20.81
223.4	-20.81
223.635	-20.81
223.869	-8.81
224.104	-13.81
224.338	-16.81
224.573	-25.81
224.808	-10.81
225.042	-16.81
225.277	-8.81
225.511	15.19
225.746	5.19
225.98	21.19
226.215	16.19
226.449	6.19
226.683	20.19
226.918	9.19
227.152	29.19
227.387	45.19
227.621	68.19
227.856	49.19
228.09	43.19
228.324	36.19
228.559	53.19
228.793	59.19
229.027	63.19
229.262	66.19
229.496	72.19
229.73	81.19
229.964	88.19
230.199	77.19
230.433	64.19
230.667	75.19
230.901	65.19
231.136	76.19
231.37	77.19
231.604	74.19
231.838	93.19
232.072	84.19
232.306	88.19
232.541	87.19
232.775	84.19
233.009	94.19
233.243	72.19
233.477	90.19
233.711	83.19
233.945	80.19
234.179	86.19
234.413	84.19
234.647	79.19
234.881	77.19
235.115	82.19
235.349	85.19
235.583	80.19
235.817	85.19
236.051	74.19
236.285	75.19
236.519	91.19
236.753	89.19
236.987	79.19
237.221	83.19
237.455	80.19
237.689	82.19
237.922	86.19
238.156	79.19
238.39	71.19
238.624	76.19
238.858	78.19
239.091	82.19
239.325	87.19
239.559	79.19
239.793	66.19
240.027	80.19
240.26	71.19
240.494	70.19
240.728	81.19
240.961	85.19
241.195	83.19
241.429	94.19
241.662	76.19
241.896	92.19
242.13	85.19
242.363	72.19
242.597	79.19
242.83	80.19
243.064	85.19
243.298	80.19
243.531	94.19
243.765	74.19
243.998	80.19
244.232	74.19
244.465	74.19
244.699	62.19
244.932	91.19
245.166	76.19
245.399	83.19
245.633	80.19
245.866	109.19
246.099	78.19
246.333	71.19
246.566	94.19
246.8	83.19
247.033	80.19
247.266	94.19
247.5	75.19
247.733	76.19
247.966	83.19
248.2	80.19
248.433	76.19
248.666	80.19
248.899	86.19
249.133	85.19
249.366	95.19
249.599	100.19
249.832	87.19
250.066	84.19
250.299	77.19
250.532	87.19
250.765	78.19
250.998	80.19
251.231	92.19
251.465	86.19
251.698	82.19
251.931	71.19
252.164	69.19
252.397	75.19
252.63	77.19
252.863	85.19
253.096	74.19
253.329	84.19
253.562	88.19
253.795	94.19
254.028	83.19
254.261	80.19
254.494	69.19
254.727	88.19
254.96	83.19
255.193	76.19
255.426	74.19
255.659	90.19
255.892	84.19
256.124	69.19
256.357	79.19
256.59	89.19
256.823	75.19
257.056	86.19
257.289	70.19
257.521	92.19
257.754	77.19
257.987	96.19
258.22	91.19
258.452	80.19
258.685	82.19
258.918	74.19
259.151	80.19
259.383	94.19
259.616	75.19
259.849	98.19
260.081	66.19
260.314	69.19
260.547	83.19
260.779	95.19
261.012	83.19
261.244	83.19
261.477	101.19
261.71	87.19
261.942	95.19
262.175	127.19
262.407	88.19
262.64	98.19
262.872	79.19
263.105	88.19
263.337	77.19
263.57	85.19
263.802	93.19
264.035	85.19
264.267	77.19
264.499	80.19
264.732	84.19
264.964	85.19
265.197	79.19
265.429	82.19
265.661	86.19
265.894	77.19
266.126	77.19
266.358	79.19
266.591	95.19
266.823	89.19
267.055	91.19
267.287	77.19
267.52	81.19
267.752	77.19
267.984	64.19
268.216	80.19
268.448	75.19
268.681	75.19
268.913	73.19
269.145	84.19
269.377	76.19
269.609	85.19
269.841	84.19
270.073	87.19
270.306	81.19
270.538	90.19
270.77	72.19
271.002	83.19
271.234	78.19
271.466	88.19
271.698	91.19
271.93	62.19
272.162	77.19
272.394	74.19
272.626	78.19
272.858	93.19
273.09	87.19
273.322	89.19
273.553	88.19
273.785	88.19
274.017	92.19
274.249	78.19
274.481	81.19
274.713	85.19
274.945	79.19
275.176	72.19
275.408	90.19
275.64	84.19
275.872	91.19
276.104	82.19
276.335	87.19
276.567	92.19
276.799	101.19
277.031	97.19
277.262	82.19
277.494	80.19
277.726	77.19
277.957	78.19
278.189	82.19
278.421	87.19
278.652	80.19
278.884	75.19
279.115	90.19
279.347	79.19
279.579	101.19
279.81	84.19
280.042	99.19
280.273	85.19
280.505	86.19
280.736	106.19
280.968	64.19
281.199	91.19
281.431	75.19
281.662	72.19
281.894	71.19
282.125	99.19
282.356	121.19
282.588	146.19
282.819	127.19
283.051	95.19
283.282	72.19
283.513	101.19
283.745	95.19
283.976	86.19
284.207	86.19
284.439	91.19
284.67	76.19
284.901	80.19
285.132	87.19
285.364	85.19
285.595	90.19
285.826	77.19
286.057	77.19
286.288	74.19
286.52	80.19
286.751	81.19
286.982	95.19
287.213	95.19
287.444	89.19
287.675	77.19
287.906	93.19
288.138	83.19
288.369	88.19
288.6	94.19
288.831	92.19
289.062	85.19
289.293	92.19
289.524	93.19
289.755	82.19
289.986	88.19
290.217	84.19
290.448	78.19
290.679	80.19
290.91	72.19
291.141	101.19
291.371	95.19
291.602	109.19
291.833	97.19
292.064	95.19
292.295	91.19
292.526	84.19
292.757	79.19
292.987	85.19
293.218	68.19
293.449	98.19
293.68	89.19
293.91	85.19
294.141	94.19
294.372	102.19
294.603	91.19
294.833	86.19
295.064	94.19
295.295	85.19
295.525	111.19
295.756	109.19
295.987	139.19
296.217	153.19
296.448	132.19
296.679	83.19
296.909	103.19
297.14	92.19
297.37	73.19
297.601	82.19
297.831	83.19
298.062	93.19
298.292	88.19
298.523	93.19
298.753	92.19
298.984	93.19
299.214	97.19
299.445	91.19
299.675	96.19
299.905	120.19
300.136	83.19
300.366	83.19
300.597	73.19
300.827	85.19
301.057	99.19
301.288	96.19
301.518	96.19
301.748	84.19
301.979	112.19
302.209	99.19
302.439	94.19
302.669	100.19
302.9	92.19
303.13	85.19
303.36	83.19
303.59	113.19
303.82	108.19
304.051	97.19
304.281	97.19
304.511	91.19
304.741	91.19
304.971	91.19
305.201	108.19
305.431	92.19
305.661	96.19
305.891	87.19
306.121	83.19
306.352	110.19
306.582	94.19
306.812	107.19
307.042	104.19
307.272	93.19
307.502	98.19
307.731	79.19
307.961	75.19
308.191	94.19
308.421	90.19
308.651	93.19
308.881	79.19
309.111	88.19
309.341	84.19
309.571	104.19
309.8	94.19
310.03	99.19
310.26	106.19
310.49	86.19
310.72	95.19
310.949	110.19
311.179	93.19
311.409	102.19
311.639	85.19
311.868	96.19
312.098	110.19
312.328	106.19
312.557	104.19
312.787	103.19
313.017	98.19
313.246	96.19
313.476	118.19
313.706	95.19
313.935	111.19
314.165	103.19
314.394	96.19
314.624	93.19
314.853	96.19
315.083	94.19
315.312	99.19
315.542	89.19
315.771	98.19
316.001	84.19
316.23	89.19
316.46	84.19
316.689	87.19
316.919	105.19
317.148	95.19
317.377	95.19
317.607	98.19
317.836	86.19
318.065	91.19
318.295	93.19
318.524	86.19
318.753	100.19
318.983	91.19
319.212	116.19
319.441	118.19
319.67	112.19
319.9	93.19
320.129	99.19
320.358	107.19
320.587	100.19
320.816	94.19
321.046	97.19
321.275	90.19
321.504	88.19
321.733	97.19
321.962	96.19
322.191	100.19
322.42	100.19
322.649	111.19
322.878	114.19
323.108	126.19
323.337	128.19
323.566	136.19
323.795	154.19
324.024	213.19
324.253	440.19
324.482	917.19
324.71	1849.19
324.939	2416.19
325.168	852.19
325.397	249.19
325.626	150.19
325.855	138.19
326.084	133.19
326.313	132.19
326.542	163.19
326.77	266.19
326.999	478.19
327.228	1001.19
327.457	1844.19
327.686	1491.19
327.914	395.19
328.143	208.19
328.372	157.19
328.6	125.19
328.829	131.19
329.058	137.19
329.287	145.19
329.515	119.19
329.744	110.19
329.972	93.19
330.201	103.19
330.43	138.19
330.658	137.19
330.887	140.19
331.115	134.19
331.344	95.19
331.572	108.19
331.801	109.19
332.03	104.19
332.258	93.19
332.486	102.19
332.715	104.19
332.943	98.19
333.172	94.19
333.4	101.19
333.629	115.19
333.857	117.19
334.085	130.19
334.314	104.19
334.542	124.19
334.771	127.19
334.999	94.19
335.227	102.19
335.455	85.19
335.684	91.19
335.912	98.19
336.14	104.19
336.369	100.19
336.597	103.19
336.825	101.19
337.053	93.19
337.281	88.19
337.51	94.19
337.738	87.19
337.966	93.19
338.194	90.19
338.422	92.19
338.65	100.19
338.878	95.19
339.106	102.19
339.334	87.19
339.562	79.19
339.79	80.19
340.018	99.19
340.246	91.19
340.474	107.19
340.702	91.19
340.93	98.19
341.158	89.19
341.386	95.19
341.614	99.19
341.842	94.19
342.07	102.19
342.298	98.19
342.526	88.19
342.754	88.19
342.981	87.19
343.209	101.19
343.437	99.19
343.665	79.19
343.893	97.19
344.12	95.19
344.348	96.19
344.576	91.19
344.804	89.19
345.031	102.19
345.259	99.19
345.487	84.19
345.714	101.19
345.942	102.19
346.17	99.19
346.397	86.19
346.625	80.19
346.853	104.19
347.08	98.19
347.308	100.19
347.535	96.19
347.763	104.19
347.99	98.19
348.218	104.19
348.445	110.19
348.673	115.19
348.9	100.19
349.128	96.19
349.355	89.19
349.583	85.19
349.81	91.19
350.037	95.19
350.265	95.19
350.492	94.19
350.72	116.19
350.947	109.19
351.174	101.19
351.402	129.19
351.629	105.19
351.856	101.19
352.083	101.19
352.311	112.19
352.538	101.19
352.765	123.19
352.992	118.19
353.22	99.19
353.447	107.19
353.674	91.19
353.901	94.19
354.128	75.19
354.355	90.19
354.583	88.19
354.81	95.19
355.037	94.19
355.264	95.19
355.491	101.19
355.718	82.19
355.945	82.19
356.172	90.19
356.399	91.19
356.626	84.19
356.853	97.19
357.08	87.19
357.307	100.19
357.534	107.19
357.761	90.19
357.988	85.19
358.215	84.19
358.441	106.19
358.668	86.19
358.895	84.19
359.122	102.19
359.349	85.19
359.576	87.19
359.802	92.19
360.029	104.19
360.256	130.19
360.483	114.19
360.709	95.19
360.936	98.19
361.163	91.19
361.39	81.19
361.616	95.19
361.843	112.19
362.07	103.19
362.296	100.19
362.523	91.19
362.749	99.19
362.976	88.19
363.203	102.19
363.429	73.19
363.656	85.19
363.882	91.19
364.109	86.19
364.335	78.19
364.562	92.19
364.788	85.19
365.015	86.19
365.241	95.19
365.468	110.19
365.694	106.19
365.92	85.19
366.147	88.19
366.373	87.19
366.599	88.19
366.826	84.19
367.052	88.19
367.278	93.19
367.505	85.19
367.731	93.19
367.957	90.19
368.184	100.19
368.41	95.19
368.636	120.19
368.862	120.19
369.089	92.19
369.315	83.19
369.541	87.19
369.767	105.19
369.993	109.19
370.219	86.19
370.445	89.19
370.672	85.19
370.898	85.19
371.124	83.19
371.35	79.19
371.576	77.19
371.802	90.19
372.028	78.19
372.254	103.19
372.48	98.19
372.706	95.19
372.932	80.19
373.158	90.19
373.384	81.19
373.61	84.19
373.835	79.19
374.061	94.19
374.287	96.19
374.513	91.19
374.739	93.19
374.965	92.19
375.191	85.19
375.416	96.19
375.642	89.19
375.868	87.19
376.094	84.19
376.319	97.19
376.545	87.19
376.771	70.19
376.997	84.19
377.222	92.19
377.448	91.19
377.674	88.19
377.899	91.19
378.125	91.19
378.35	88.19
378.576	91.19
378.802	86.19
379.027	96.19
379.253	90.19
379.478	87.19
379.704	94.19
379.929	80.19
380.155	100.19
380.38	97.19
380.606	93.19
380.831	80.19
381.057	93.19
381.282	90.19
381.507	89.19
381.733	127.19
381.958	99.19
382.184	104.19
382.409	102.19
382.634	101.19
382.86	93.19
383.085	113.19
383.31	111.19
383.535	101.19
383.761	95.19
383.986	108.19
384.211	89.19
384.436	86.19
384.662	102.19
384.887	92.19
385.112	110.19
385.337	113.19
385.562	110.19
385.787	112.19
386.013	124.19
386.238	116.19
386.463	94.19
386.688	104.19
386.913	94.19
387.138	110.19
387.363	98.19
387.588	101.19
387.813	125.19
388.038	113.19
388.263	95.19
388.488	93.19
388.713	102.19
388.938	93.19
389.163	106.19
389.387	102.19
389.612	99.19
389.837	93.19
390.062	77.19
390.287	87.19
390.512	93.19
390.736	80.19
390.961	91.19
391.186	96.19
391.411	91.19
391.636	95.19
391.86	90.19
392.085	89.19
392.31	91.19
392.534	82.19
392.759	89.19
392.984	83.19
393.208	91.19
393.433	97.19
393.658	88.19
393.882	83.19
394.107	87.19
394.331	93.19
394.556	95.19
394.78	88.19
395.005	93.19
395.229	77.19
395.454	84.19
395.678	78.19
395.903	107.19
396.127	87.19
396.352	81.19
396.576	77.19
396.801	93.19
397.025	87.19
397.249	73.19
397.474	86.19
397.698	86.19
397.922	80.19
398.147	71.19
398.371	68.19
398.595	83.19
398.82	99.19
399.044	87.19
399.268	85.19
399.492	95.19
399.717	89.19
399.941	84.19
400.165	99.19
400.389	79.19
400.613	81.19
400.837	77.19
401.062	86.19
401.286	81.19
401.51	78.19
401.734	76.19
401.958	99.19
402.182	133.19
402.406	185.19
402.63	135.19
402.854	90.19
403.078	98.19
403.302	84.19
403.526	81.19
403.75	82.19
403.974	94.19
404.198	82.19
404.422	84.19
404.645	98.19
404.869	80.19
405.093	85.19
405.317	102.19
405.541	109.19
405.765	100.19
405.988	128.19
406.212	184.19
406.436	263.19
406.66	150.19
406.883	98.19
407.107	106.19
407.331	100.19
407.555	102.19
407.778	99.19
408.002	100.19
408.226	91.19
408.449	101.19
408.673	104.19
408.896	88.19
409.12	89.19
409.344	90.19
409.567	91.19
409.791	91.19
410.014	82.19
410.238	98.19
410.461	103.19
410.685	94.19
410.908	104.19
411.132	118.19
411.355	100.19
411.578	93.19
411.802	90.19
412.025	87.19
412.249	97.19
412.472	85.19
412.695	75.19
412.919	85.19
413.142	85.19
413.365	90.19
413.589	87.19
413.812	91.19
414.035	90.19
414.258	85.19
414.482	90.19
414.705	86.19
414.928	94.19
415.151	91.19
415.374	90.19
415.597	93.19
415.821	92.19
416.044	92.19
416.267	76.19
416.49	84.19
416.713	76.19
416.936	83.19
417.159	84.19
417.382	95.19
417.605	101.19
417.828	86.19
418.051	83.19
418.274	94.19
418.497	83.19
418.72	87.19
418.943	95.19
419.166	92.19
419.389	99.19
419.611	87.19
419.834	91.19
420.057	88.19
420.28	86.19
420.503	91.19
420.726	98.19
420.948	78.19
421.171	93.19
421.394	89.19
421.617	95.19
421.839	95.19
422.062	87.19
422.285	104.19
422.507	98.19
422.73	105.19
422.953	90.19
423.175	85.19
423.398	86.19
423.621	90.19
423.843	88.19
424.066	88.19
424.288	80.19
424.511	97.19
424.733	91.19
424.956	100.19
425.178	98.19
425.401	107.19
425.623	78.19
425.846	88.19
426.068	89.19
426.291	97.19
426.513	93.19
426.735	88.19
426.958	80.19
427.18	100.19
427.402	123.19
427.625	182.19
427.847	144.19
428.069	111.19
428.292	91.19
428.514	86.19
428.736	86.19
428.958	85.19
429.181	80.19
429.403	95.19
429.625	80.19
429.847	108.19
430.069	98.19
430.292	86.19
430.514	87.19
430.736	86.19
430.958	87.19
431.18	73.19
431.402	86.19
431.624	84.19
431.846	86.19
432.068	94.19
432.29	100.19
432.512	77.19
432.734	78.19
432.956	83.19
433.178	100.19
433.4	114.19
433.622	98.19
433.844	90.19
434.066	85.19
434.287	80.19
434.509	94.19
434.731	80.19
434.953	76.19
435.175	86.19
435.397	97.19
435.618	99.19
435.84	111.19
436.062	113.19
436.284	103.19
436.505	100.19
436.727	109.19
436.949	101.19
437.17	83.19
437.392	86.19
437.614	97.19
437.835	103.19
438.057	96.19
438.278	122.19
438.5	109.19
438.721	116.19
438.943	122.19
439.165	88.19
439.386	94.19
439.608	102.19
439.829	98.19
440.05	136.19
440.272	141.19
440.493	98.19
440.715	88.19
440.936	99.19
441.158	78.19
441.379	90.19
441.6	96.19
441.822	102.19
442.043	86.19
442.264	113.19
442.486	97.19
442.707	91.19
442.928	110.19
443.149	140.19
443.371	138.19
443.592	109.19
443.813	104.19
444.034	102.19
444.255	91.19
444.476	94.19
444.698	89.19
444.919	89.19
445.14	125.19
445.361	134.19
445.582	114.19
445.803	140.19
446.024	145.19
446.245	127.19
446.466	115.19
446.687	88.19
446.908	93.19
447.129	83.19
447.35	90.19
447.571	84.19
447.792	87.19
448.013	91.19
448.234	105.19
448.455	84.19
448.675	117.19
448.896	117.19
449.117	103.19
449.338	97.19
449.559	130.19
449.779	139.19
450	105.19
450.221	76.19
450.442	93.19
450.662	95.19
450.883	94.19
451.104	102.19
451.324	101.19
451.545	86.19
451.766	77.19
451.986	80.19
452.207	79.19
452.428	84.19
452.648	101.19
452.869	105.19
453.089	124.19
453.31	109.19
453.53	94.19
453.751	80.19
453.971	109.19
454.192	114.19
454.412	84.19
454.633	101.19
454.853	88.19
455.073	90.19
455.294	92.19
455.514	93.19
455.734	83.19
455.955	76.19
456.175	102.19
456.395	79.19
456.616	94.19
456.836	84.19
457.056	76.19
457.276	92.19
457.497	82.19
457.717	89.19
457.937	86.19
458.157	82.19
458.377	87.19
458.598	117.19
458.818	166.19
459.038	158.19
459.258	115.19
459.478	95.19
459.698	92.19
459.918	95.19
460.138	92.19
460.358	82.19
460.578	85.19
460.798	90.19
461.018	80.19
461.238	69.19
461.458	92.19
461.678	81.19
461.898	92.19
462.118	91.19
462.338	71.19
462.558	83.19
462.777	89.19
462.997	79.19
463.217	77.19
463.437	81.19
463.657	92.19
463.876	91.19
464.096	102.19
464.316	93.19
464.536	94.19
464.755	93.19
464.975	104.19
465.195	185.19
465.414	178.19
465.634	101.19
465.854	89.19
466.073	94.19
466.293	79.19
466.512	83.19
466.732	74.19
466.951	78.19
467.171	91.19
467.391	93.19
467.61	111.19
467.829	88.19
468.049	107.19
468.268	115.19
468.488	84.19
468.707	95.19
468.927	88.19
469.146	84.19
469.365	84.19
469.585	99.19
469.804	95.19
470.023	87.19
470.243	91.19
470.462	93.19
470.681	101.19
470.901	95.19
471.12	89.19
471.339	79.19
471.558	89.19
471.777	75.19
471.997	89.19
472.216	113.19
472.435	136.19
472.654	85.19
472.873	100.19
473.092	87.19
473.311	76.19
473.53	76.19
473.749	90.19
473.968	101.19
474.187	102.19
474.406	91.19
474.625	101.19
474.844	95.19
475.063	90.19
475.282	86.19
475.501	92.19
475.72	75.19
475.939	74.19
476.158	74.19
476.377	88.19
476.596	85.19
476.814	80.19
477.033	75.19
477.252	80.19
477.471	91.19
477.69	88.19
477.908	83.19
478.127	94.19
478.346	83.19
478.564	94.19
478.783	95.19
479.002	82.19
479.22	101.19
479.439	110.19
479.658	100.19
479.876	85.19
480.095	97.19
480.313	86.19
480.532	107.19
480.751	101.19
480.969	120.19
481.188	180.19
481.406	152.19
481.624	80.19
481.843	80.19
482.061	102.19
482.28	92.19
482.498	88.19
482.717	88.19
482.935	99.19
483.153	90.19
483.372	80.19
483.59	92.19
483.808	79.19
484.027	95.19
484.245	92.19
484.463	85.19
484.681	101.19
484.9	107.19
485.118	97.19
485.336	96.19
485.554	93.19
485.772	92.19
485.99	112.19
486.209	87.19
486.427	120.19
486.645	102.19
486.863	116.19
487.081	95.19
487.299	89.19
487.517	98.19
487.735	102.19
487.953	99.19
488.171	96.19
488.389	99.19
488.607	90.19
488.825	88.19
489.043	86.19
489.261	83.19
489.479	88.19
489.696	100.19
489.914	97.19
490.132	93.19
490.35	98.19
490.568	95.19
490.786	92.19
491.003	94.19
491.221	88.19
491.439	84.19
491.657	103.19
491.874	79.19
492.092	85.19
492.31	88.19
492.527	101.19
492.745	93.19
492.963	90.19
493.18	79.19
493.398	83.19
493.615	92.19
493.833	93.19
494.05	95.19
494.268	101.19
494.485	91.19
494.703	98.19
494.92	93.19
495.138	83.19
495.355	74.19
495.573	79.19
495.79	91.19
496.008	88.19
496.225	79.19
496.442	89.19
496.66	95.19
496.877	105.19
497.094	91.19
497.312	85.19
497.529	90.19
497.746	79.19
497.963	91.19
498.181	90.19
498.398	91.19
498.615	106.19
498.832	99.19
499.049	89.19
499.267	87.19
499.484	94.19
499.701	80.19
499.918	80.19
500.135	80.19
500.352	103.19
500.569	91.19
500.786	71.19
501.003	81.19
501.22	86.19
501.437	90.19
501.654	95.19
501.871	94.19
502.088	99.19
502.305	96.19
502.522	88.19
502.739	74.19
502.956	102.19
503.172	95.19
503.389	101.19
503.606	111.19
503.823	108.19
504.04	91.19
504.256	87.19
504.473	80.19
504.69	92.19
504.907	87.19
505.123	96.19
505.34	99.19
505.557	97.19
505.773	82.19
505.99	87.19
506.207	95.19
506.423	89.19
506.64	82.19
506.856	87.19
507.073	92.19
507.289	86.19
507.506	90.19
507.722	107.19
507.939	98.19
508.155	98.19
508.372	91.19
508.588	100.19
508.805	100.19
509.021	106.19
509.238	81.19
509.454	108.19
509.67	96.19
509.887	116.19
510.103	136.19
510.319	220.19
510.536	838.19
510.752	2843.19
510.968	818.19
511.184	178.19
511.401	99.19
511.617	98.19
511.833	84.19
512.049	90.19
512.265	109.19
512.481	100.19
512.698	93.19
512.914	100.19
513.13	90.19
513.346	94.19
513.562	99.19
513.778	96.19
513.994	104.19
514.21	113.19
514.426	122.19
514.642	139.19
514.858	131.19
515.074	169.19
515.29	504.19
515.506	1797.19
515.721	682.19
515.937	177.19
516.153	120.19
516.369	115.19
516.585	83.19
516.801	95.19
517.016	102.19
517.232	92.19
517.448	95.19
517.664	112.19
517.879	80.19
518.095	93.19
518.311	96.19
518.527	91.19
518.742	98.19
518.958	98.19
519.173	91.19
519.389	101.19
519.605	107.19
519.82	105.19
520.036	106.19
520.251	135.19
520.467	124.19
520.682	118.19
520.898	117.19
521.113	115.19
521.329	140.19
521.544	237.19
521.76	642.19
521.975	2919.19
522.19	1842.19
522.406	380.19
522.621	133.19
522.836	96.19
523.052	89.19
523.267	93.19
523.482	100.19
523.698	109.19
523.913	137.19
524.128	108.19
524.343	90.19
524.559	92.19
524.774	93.19
524.989	98.19
525.204	117.19
525.419	94.19
525.634	80.19
525.849	80.19
526.064	92.19
526.28	89.19
526.495	83.19
526.71	91.19
526.925	95.19
527.14	85.19
527.355	92.19
527.57	85.19
527.785	90.19
527.999	73.19
528.214	84.19
528.429	88.19
528.644	95.19
528.859	99.19
529.074	89.19
529.289	128.19
529.503	191.19
529.718	99.19
529.933	94.19
530.148	81.19
530.363	86.19
530.577	91.19
530.792	90.19
531.007	89.19
531.221	94.19
531.436	101.19
531.651	96.19
531.865	80.19
532.08	83.19
532.295	89.19
532.509	82.19
532.724	84.19
532.938	108.19
533.153	96.19
533.367	92.19
533.582	105.19
533.796	95.19
534.011	109.19
534.225	105.19
534.44	91.19
534.654	84.19
534.868	77.19
535.083	88.19
535.297	92.19
535.511	95.19
535.726	105.19
535.94	107.19
536.154	102.19
536.369	85.19
536.583	86.19
536.797	104.19
537.011	86.19
537.225	92.19
537.44	98.19
537.654	89.19
537.868	74.19
538.082	92.19
538.296	92.19
538.51	78.19
538.724	96.19
538.938	108.19
539.153	89.19
539.367	99.19
539.581	103.19
539.795	99.19
540.009	83.19
540.222	98.19
540.436	89.19
540.65	78.19
540.864	90.19
541.078	96.19
541.292	78.19
541.506	90.19
541.72	89.19
541.934	80.19
542.147	102.19
542.361	75.19
542.575	87.19
542.789	86.19
543.002	87.19
543.216	97.19
543.43	104.19
543.644	96.19
543.857	96.19
544.071	83.19
544.285	92.19
544.498	78.19
544.712	81.19
544.925	82.19
545.139	81.19
545.352	109.19
545.566	88.19
545.779	83.19
545.993	103.19
546.206	89.19
546.42	94.19
546.633	100.19
546.847	92.19
547.06	99.19
547.274	92.19
547.487	103.19
547.7	104.19
547.914	95.19
548.127	77.19
548.34	92.19
548.554	87.19
548.767	88.19
548.98	76.19
549.193	87.19
549.407	96.19
549.62	107.19
549.833	91.19
550.046	90.19
550.259	81.19
550.473	81.19
550.686	76.19
550.899	98.19
551.112	95.19
551.325	85.19
551.538	81.19
551.751	101.19
551.964	93.19
552.177	84.19
552.39	95.19
552.603	96.19
552.816	93.19
553.029	81.19
553.242	95.19
553.455	111.19
553.667	88.19
553.88	103.19
554.093	91.19
554.306	81.19
554.519	81.19
554.732	96.19
554.944	93.19
555.157	89.19
555.37	100.19
555.583	84.19
555.795	87.19
556.008	96.19
556.221	91.19
556.433	85.19
556.646	103.19
556.859	86.19
557.071	87.19
557.284	92.19
557.496	90.19
557.709	96.19
557.921	95.19
558.134	86.19
558.346	91.19
558.559	95.19
558.771	98.19
558.984	81.19
559.196	80.19
559.409	72.19
559.621	89.19
559.833	87.19
560.046	94.19
560.258	82.19
560.47	96.19
560.683	83.19
560.895	78.19
561.107	88.19
561.32	89.19
561.532	90.19
561.744	89.19
561.956	104.19
562.168	81.19
562.381	82.19
562.593	98.19
562.805	97.19
563.017	88.19
563.229	78.19
563.441	84.19
563.653	84.19
563.865	96.19
564.077	79.19
564.289	85.19
564.501	90.19
564.713	96.19
564.925	91.19
565.137	95.19
565.349	89.19
565.561	91.19
565.773	83.19
565.985	94.19
566.197	105.19
566.408	86.19
566.62	87.19
566.832	101.19
567.044	92.19
567.255	90.19
567.467	89.19
567.679	92.19
567.891	93.19
568.102	84.19
568.314	91.19
568.526	78.19
568.737	75.19
568.949	87.19
569.161	85.19
569.372	96.19
569.584	103.19
569.795	84.19
570.007	118.19
570.218	266.19
570.43	156.19
570.641	101.19
570.853	93.19
571.064	88.19
571.276	86.19
571.487	85.19
571.698	93.19
571.91	92.19
572.121	87.19
572.333	82.19
572.544	82.19
572.755	96.19
572.966	83.19
573.178	96.19
573.389	95.19
573.6	98.19
573.811	74.19
574.023	102.19
574.234	90.19
574.445	90.19
574.656	94.19
574.867	87.19
575.078	94.19
575.289	92.19
575.501	91.19
575.712	93.19
575.923	81.19
576.134	82.19
576.345	93.19
576.556	93.19
576.767	114.19
576.978	89.19
577.188	79.19
577.399	101.19
577.61	82.19
577.821	111.19
578.032	122.19
578.243	303.19
578.454	891.19
578.665	226.19
578.875	94.19
579.086	114.19
579.297	86.19
579.508	79.19
579.718	78.19
579.929	91.19
580.14	94.19
580.35	91.19
580.561	92.19
580.772	86.19
580.982	85.19
581.193	108.19
581.403	99.19
581.614	77.19
581.825	90.19
582.035	94.19
582.246	84.19
582.456	90.19
582.667	80.19
582.877	76.19
583.087	84.19
583.298	87.19
583.508	100.19
583.719	93.19
583.929	86.19
584.139	101.19
584.35	99.19
584.56	99.19
584.77	83.19
584.981	84.19
585.191	78.19
585.401	86.19
585.611	89.19
585.821	95.19
586.032	92.19
586.242	91.19
586.452	94.19
586.662	90.19
586.872	94.19
587.082	80.19
587.292	91.19
587.502	105.19
587.713	96.19
587.923	88.19
588.133	91.19
588.343	98.19
588.553	91.19
588.762	94.19
588.972	95.19
589.182	127.19
589.392	103.19
589.602	101.19
589.812	121.19
590.022	88.19
590.232	87.19
590.441	97.19
590.651	97.19
590.861	91.19
591.071	90.19
591.281	86.19
591.49	84.19
591.7	101.19
591.91	94.19
592.119	90.19
592.329	94.19
592.539	90.19
592.748	92.19
592.958	91.19
593.167	84.19
593.377	80.19
593.587	97.19
593.796	86.19
594.006	79.19
594.215	99.19
594.424	92.19
594.634	79.19
594.843	98.19
595.053	87.19
595.262	80.19
595.472	97.19
595.681	84.19
595.89	88.19
596.1	89.19
596.309	85.19
596.518	99.19
596.727	87.19
596.937	86.19
597.146	80.19
597.355	91.19
597.564	77.19
597.774	89.19
597.983	82.19
598.192	86.19
598.401	87.19
598.61	95.19
598.819	73.19
599.028	90.19
599.237	90.19
599.446	93.19
599.655	83.19
599.864	99.19
600.073	80.19
600.282	85.19
600.491	82.19
600.7	77.19
600.909	94.19
601.118	94.19
601.327	88.19
601.536	78.19
601.745	103.19
601.953	89.19
602.162	83.19
602.371	90.19
602.58	96.19
602.789	93.19
602.997	94.19
603.206	87.19
603.415	87.19
603.623	75.19
603.832	82.19
604.041	94.19
604.249	90.19
604.458	85.19
604.666	83.19
604.875	98.19
605.084	84.19
605.292	91.19
605.501	82.19
605.709	85.19
605.918	83.19
606.126	98.19
606.334	90.19
606.543	80.19
606.751	78.19
606.96	91.19
607.168	92.19
607.376	87.19
607.585	88.19
607.793	74.19
608.001	81.19
608.21	98.19
608.418	67.19
608.626	76.19
608.834	92.19
609.043	90.19
609.251	84.19
609.459	91.19
609.667	88.19
609.875	76.19
610.083	89.19
610.291	86.19
610.499	80.19
610.707	95.19
610.916	98.19
611.124	91.19
611.332	92.19
611.54	75.19
611.748	87.19
611.955	82.19
612.163	80.19
612.371	85.19
612.579	81.19
612.787	81.19
612.995	78.19
613.203	81.19
613.411	98.19
613.618	85.19
613.826	68.19
614.034	76.19
614.242	96.19
614.449	82.19
614.657	91.19
614.865	88.19
615.072	98.19
615.28	84.19
615.488	88.19
615.695	95.19
615.903	89.19
616.111	91.19
616.318	97.19
616.526	98.19
616.733	102.19
616.941	88.19
617.148	84.19
617.356	90.19
617.563	91.19
617.771	86.19
617.978	74.19
618.185	90.19
618.393	85.19
618.6	92.19
618.807	70.19
619.015	81.19
619.222	84.19
619.429	85.19
619.637	88.19
619.844	99.19
620.051	80.19
620.258	93.19
620.466	90.19
620.673	82.19
620.88	91.19
621.087	85.19
621.294	93.19
621.501	86.19
621.708	73.19
621.915	89.19
622.122	95.19
622.329	80.19
622.536	95.19
622.743	89.19
622.95	92.19
623.157	99.19
623.364	93.19
623.571	84.19
623.778	85.19
623.985	81.19
624.192	88.19
624.399	86.19
624.606	89.19
624.812	88.19
625.019	92.19
625.226	93.19
625.433	93.19
625.639	75.19
625.846	75.19
626.053	90.19
626.259	76.19
626.466	101.19
626.673	91.19
626.879	82.19
627.086	87.19
627.293	95.19
627.499	85.19
627.706	79.19
627.912	78.19
628.119	94.19
628.325	87.19
628.532	91.19
628.738	90.19
628.945	85.19
629.151	69.19
629.357	94.19
629.564	86.19
629.77	79.19
629.976	90.19
630.183	73.19
630.389	87.19
630.595	82.19
630.802	93.19
631.008	76.19
631.214	94.19
631.42	73.19
631.627	68.19
631.833	78.19
632.039	84.19
632.245	83.19
632.451	86.19
632.657	86.19
632.863	86.19
633.069	75.19
633.275	89.19
633.481	76.19
633.688	98.19
633.893	93.19
634.099	77.19
634.305	83.19
634.511	82.19
634.717	92.19
634.923	87.19
635.129	92.19
635.335	82.19
635.541	80.19
635.747	68.19
635.952	99.19
636.158	84.19
636.364	88.19
636.57	85.19
636.775	103.19
636.981	88.19
637.187	79.19
637.392	92.19
637.598	94.19
637.804	84.19
638.009	82.19
638.215	90.19
638.421	74.19
638.626	89.19
638.832	73.19
639.037	79.19
639.243	94.19
639.448	82.19
639.654	101.19
639.859	93.19
640.065	90.19
640.27	88.19
640.475	83.19
640.681	82.19
640.886	87.19
641.091	94.19
641.297	84.19
641.502	75.19
641.707	94.19
641.913	75.19
642.118	87.19
642.323	92.19
642.528	77.19
642.733	93.19
642.939	92.19
643.144	81.19
643.349	75.19
643.554	79.19
643.759	79.19
643.964	98.19
644.169	83.19
644.374	94.19
644.579	75.19
644.784	82.19
644.989	91.19
645.194	101.19
645.399	86.19
645.604	77.19
645.809	91.19
646.014	81.19
646.219	87.19
646.423	99.19
646.628	76.19
646.833	74.19
647.038	98.19
647.243	80.19
647.447	82.19
647.652	83.19
647.857	89.19
648.062	89.19
648.266	78.19
648.471	96.19
648.676	86.19
648.88	91.19
649.085	97.19
649.289	96.19
649.494	112.19
649.698	144.19
649.903	120.19
650.107	88.19
650.312	80.19
650.516	75.19
650.721	69.19
650.925	79.19
651.13	88.19
651.334	86.19
651.539	97.19
651.743	88.19
651.947	85.19
652.152	84.19
652.356	83.19
652.56	68.19
652.764	82.19
652.969	74.19
653.173	71.19
653.377	95.19
653.581	71.19
653.785	80.19
653.99	70.19
654.194	76.19
654.398	88.19
654.602	80.19
654.806	70.19
655.01	85.19
655.214	90.19
655.418	88.19
655.622	83.19
655.826	87.19
656.03	90.19
656.234	83.19
656.438	109.19
656.642	91.19
656.846	90.19
657.049	86.19
657.253	88.19
657.457	98.19
657.661	95.19
657.865	90.19
658.068	80.19
658.272	98.19
658.476	76.19
658.68	93.19
658.883	75.19
659.087	98.19
659.291	70.19
659.494	83.19
659.698	93.19
659.901	90.19
660.105	81.19
660.309	82.19
660.512	88.19
660.716	84.19
660.919	88.19
661.123	93.19
661.326	87.19
661.53	92.19
661.733	86.19
661.936	92.19
662.14	84.19
662.343	80.19
662.546	74.19
662.75	72.19
662.953	72.19
663.156	77.19
663.36	84.19
663.563	90.19
663.766	87.19
663.969	85.19
664.173	74.19
664.376	73.19
664.579	82.19
664.782	88.19
664.985	83.19
665.188	84.19
665.391	76.19
665.594	83.19
665.797	82.19
666	88.19
666.203	71.19
666.406	90.19
666.609	96.19
666.812	88.19
667.015	73.19
667.218	74.19
667.421	76.19
667.624	88.19
667.827	81.19
668.03	68.19
668.232	83.19
668.435	75.19
668.638	71.19
668.841	78.19
669.043	87.19
669.246	86.19
669.449	79.19
669.651	80.19
669.854	74.19
670.057	81.19
670.259	80.19
670.462	83.19
670.665	75.19
670.867	86.19
671.07	87.19
671.272	80.19
671.475	80.19
671.677	85.19
671.88	68.19
672.082	78.19
672.284	71.19
672.487	82.19
672.689	72.19
672.892	80.19
