Data from Circ_2012_H10_HRD10591_00033.txt Node
Date: Wed Jan 03 10:05:57 EST 2024
User: Yrep
Spectrometer: HR+D1059
Trigger mode: 1
Integration Time (sec): 1.000000E-1
Scans to average: 1
Electric dark correction enabled: true
Nonlinearity correction enabled: false
Boxcar width: 0
XAxis mode: Wavelengths
Number of Pixels in Spectrum: 2048
>>>>>Begin Spectral Data<<<<<
223.165	-12.75
223.4	-12.75
223.635	-12.75
223.869	-21.75
224.104	-19.75
224.338	-16.75
224.573	-18.75
224.808	-20.75
225.042	-9.75
225.277	-6.75
225.511	-0.75
225.746	20.25
225.98	11.25
226.215	13.25
226.449	9.25
226.683	25.25
226.918	15.25
227.152	33.25
227.387	39.25
227.621	51.25
227.856	66.25
228.09	58.25
228.324	50.25
228.559	54.25
228.793	180.25
229.027	448.25
229.262	498.25
229.496	621.25
229.73	811.25
229.964	825.25
230.199	527.25
230.433	456.25
230.667	473.25
230.901	453.25
231.136	429.25
231.37	444.25
231.604	461.25
231.838	423.25
232.072	455.25
232.306	454.25
232.541	427.25
232.775	459.25
233.009	456.25
233.243	463.25
233.477	460.25
233.711	480.25
233.945	512.25
234.179	517.25
234.413	492.25
234.647	504.25
234.881	509.25
235.115	533.25
235.349	542.25
235.583	547.25
235.817	563.25
236.051	643.25
236.285	608.25
236.519	629.25
236.753	711.25
236.987	919.25
237.221	1412.25
237.455	1491.25
237.689	861.25
237.922	730.25
238.156	693.25
238.39	681.25
238.624	637.25
238.858	660.25
239.091	621.25
239.325	666.25
239.559	689.25
239.793	683.25
240.027	766.25
240.26	913.25
240.494	949.25
240.728	949.25
240.961	868.25
241.195	786.25
241.429	787.25
241.662	780.25
241.896	775.25
242.13	768.25
242.363	774.25
242.597	783.25
242.83	808.25
243.064	800.25
243.298	816.25
243.531	797.25
243.765	796.25
243.998	826.25
244.232	830.25
244.465	865.25
244.699	888.25
244.932	879.25
245.166	877.25
245.399	879.25
245.633	880.25
245.866	918.25
246.099	923.25
246.333	958.25
246.566	960.25
246.8	943.25
247.033	997.25
247.266	1034.25
247.5	1100.25
247.733	1146.25
247.966	1153.25
248.2	1132.25
248.433	1128.25
248.666	1220.25
248.899	1336.25
249.133	1424.25
249.366	1440.25
249.599	1280.25
249.832	1242.25
250.066	1224.25
250.299	1342.25
250.532	1449.25
250.765	1621.25
250.998	1741.25
251.231	1623.25
251.465	1460.25
251.698	1371.25
251.931	1392.25
252.164	1360.25
252.397	1388.25
252.63	1428.25
252.863	1533.25
253.096	1676.25
253.329	1658.25
253.562	1608.25
253.795	1491.25
254.028	1533.25
254.261	1588.25
254.494	1770.25
254.727	2164.25
254.96	2169.25
255.193	1906.25
255.426	1729.25
255.659	1671.25
255.892	1767.25
256.124	1886.25
256.357	1786.25
256.59	1644.25
256.823	1550.25
257.056	1492.25
257.289	1566.25
257.521	1535.25
257.754	1499.25
257.987	1520.25
258.22	1535.25
258.452	1520.25
258.685	1531.25
258.918	1539.25
259.151	1598.25
259.383	1692.25
259.616	1660.25
259.849	1731.25
260.081	1934.25
260.314	2047.25
260.547	1976.25
260.779	1831.25
261.012	1753.25
261.244	1732.25
261.477	1671.25
261.71	1636.25
261.942	1769.25
262.175	1782.25
262.407	1712.25
262.64	1629.25
262.872	1673.25
263.105	1642.25
263.337	1653.25
263.57	1645.25
263.802	1653.25
264.035	1639.25
264.267	1636.25
264.499	1645.25
264.732	1655.25
264.964	1635.25
265.197	1675.25
265.429	1691.25
265.661	1685.25
265.894	1677.25
266.126	1727.25
266.358	1709.25
266.591	1756.25
266.823	1852.25
267.055	1861.25
267.287	1839.25
267.52	1804.25
267.752	1780.25
267.984	1843.25
268.216	1869.25
268.448	1892.25
268.681	1966.25
268.913	2069.25
269.145	2325.25
269.377	2361.25
269.609	2263.25
269.841	2195.25
270.073	2317.25
270.306	2608.25
270.538	2744.25
270.77	2575.25
271.002	2462.25
271.234	2400.25
271.466	2579.25
271.698	2679.25
271.93	2718.25
272.162	2711.25
272.394	2574.25
272.626	2450.25
272.858	2324.25
273.09	2225.25
273.322	2193.25
273.553	2199.25
273.785	2191.25
274.017	2196.25
274.249	2222.25
274.481	2222.25
274.713	2238.25
274.945	2271.25
275.176	2240.25
275.408	2235.25
275.64	2250.25
275.872	2227.25
276.104	2262.25
276.335	2312.25
276.567	2381.25
276.799	2563.25
277.031	2848.25
277.262	2911.25
277.494	2747.25
277.726	2553.25
277.957	2444.25
278.189	2382.25
278.421	2339.25
278.652	2363.25
278.884	2363.25
279.115	2332.25
279.347	2345.25
279.579	2372.25
279.81	2383.25
280.042	2318.25
280.273	2411.25
280.505	2422.25
280.736	2376.25
280.968	2439.25
281.199	2352.25
281.431	2443.25
281.662	2425.25
281.894	2449.25
282.125	2510.25
282.356	2691.25
282.588	2827.25
282.819	2666.25
283.051	2468.25
283.282	2474.25
283.513	2548.25
283.745	2602.25
283.976	2605.25
284.207	2621.25
284.439	2589.25
284.67	2559.25
284.901	2586.25
285.132	2598.25
285.364	2593.25
285.595	2572.25
285.826	2577.25
286.057	2711.25
286.288	2632.25
286.52	2639.25
286.751	2667.25
286.982	2673.25
287.213	2672.25
287.444	2712.25
287.675	2804.25
287.906	2834.25
288.138	2925.25
288.369	2902.25
288.6	2855.25
288.831	2839.25
289.062	2765.25
289.293	2808.25
289.524	2774.25
289.755	2733.25
289.986	2767.25
290.217	2742.25
290.448	2717.25
290.679	2759.25
290.91	2736.25
291.141	2761.25
291.371	2744.25
291.602	2797.25
291.833	2759.25
292.064	2820.25
292.295	2779.25
292.526	2768.25
292.757	2789.25
292.987	2761.25
293.218	2751.25
293.449	2838.25
293.68	2845.25
293.91	2847.25
294.141	2773.25
294.372	2805.25
294.603	2812.25
294.833	2839.25
295.064	2862.25
295.295	2878.25
295.525	2845.25
295.756	2942.25
295.987	2995.25
296.217	3189.25
296.448	3100.25
296.679	2908.25
296.909	2946.25
297.14	2911.25
297.37	2965.25
297.601	2977.25
297.831	3017.25
298.062	3010.25
298.292	3000.25
298.523	3048.25
298.753	3116.25
298.984	3061.25
299.214	3068.25
299.445	3054.25
299.675	3066.25
299.905	3089.25
300.136	3111.25
300.366	3103.25
300.597	3158.25
300.827	3247.25
301.057	3339.25
301.288	3350.25
301.518	3266.25
301.748	3263.25
301.979	3329.25
302.209	3347.25
302.439	3323.25
302.669	3268.25
302.9	3293.25
303.13	3246.25
303.36	3285.25
303.59	3364.25
303.82	3379.25
304.051	3345.25
304.281	3243.25
304.511	3261.25
304.741	3275.25
304.971	3231.25
305.201	3247.25
305.431	3229.25
305.661	3301.25
305.891	3258.25
306.121	3306.25
306.352	3299.25
306.582	3304.25
306.812	3293.25
307.042	3247.25
307.272	3258.25
307.502	3252.25
307.731	3266.25
307.961	3244.25
308.191	3217.25
308.421	3200.25
308.651	3259.25
308.881	3308.25
309.111	3335.25
309.341	3349.25
309.571	3398.25
309.8	3476.25
310.03	3545.25
310.26	3582.25
310.49	3548.25
310.72	3685.25
310.949	3824.25
311.179	3819.25
311.409	3615.25
311.639	3678.25
311.868	3646.25
312.098	3689.25
312.328	3802.25
312.557	3893.25
312.787	3933.25
313.017	3867.25
313.246	3764.25
313.476	3701.25
313.706	3765.25
313.935	3825.25
314.165	3956.25
314.394	3945.25
314.624	3909.25
314.853	3831.25
315.083	3811.25
315.312	3686.25
315.542	3688.25
315.771	3619.25
316.001	3612.25
316.23	3631.25
316.46	3704.25
316.689	3742.25
316.919	3731.25
317.148	3739.25
317.377	3745.25
317.607	3731.25
317.836	3648.25
318.065	3587.25
318.295	3596.25
318.524	3646.25
318.753	3600.25
318.983	3691.25
319.212	3690.25
319.441	3718.25
319.67	3776.25
319.9	3685.25
320.129	3690.25
320.358	3651.25
320.587	3694.25
320.816	3807.25
321.046	3830.25
321.275	3825.25
321.504	3856.25
321.733	3875.25
321.962	3907.25
322.191	4013.25
322.42	4112.25
322.649	4187.25
322.878	4263.25
323.108	4315.25
323.337	4666.25
323.566	4777.25
323.795	5126.25
324.024	5812.25
324.253	7839.25
324.482	11912.25
324.71	15601.25
324.939	15601.25
325.168	13832.25
325.397	6845.25
325.626	5383.25
325.855	4933.25
326.084	4774.25
326.313	4825.25
326.542	4996.25
326.77	5783.25
326.999	7503.25
327.228	11153.25
327.457	15106.25
327.686	14412.25
327.914	7786.25
328.143	6129.25
328.372	5851.25
328.6	5487.25
328.829	5351.25
329.058	5556.25
329.287	5525.25
329.515	5155.25
329.744	5024.25
329.972	5086.25
330.201	5520.25
330.43	5848.25
330.658	5915.25
330.887	6069.25
331.115	5570.25
331.344	5095.25
331.572	4983.25
331.801	5103.25
332.03	5060.25
332.258	4988.25
332.486	4952.25
332.715	5070.25
332.943	5286.25
333.172	5375.25
333.4	5562.25
333.629	5691.25
333.857	5836.25
334.085	5890.25
334.314	6191.25
334.542	6443.25
334.771	6368.25
334.999	5680.25
335.227	5388.25
335.455	5181.25
335.684	5054.25
335.912	5003.25
336.14	4938.25
336.369	4975.25
336.597	4985.25
336.825	4931.25
337.053	4889.25
337.281	4763.25
337.51	4779.25
337.738	4711.25
337.966	4685.25
338.194	4732.25
338.422	4592.25
338.65	4525.25
338.878	4475.25
339.106	4471.25
339.334	4465.25
339.562	4403.25
339.79	4371.25
340.018	4466.25
340.246	4339.25
340.474	4426.25
340.702	4423.25
340.93	4300.25
341.158	4327.25
341.386	4395.25
341.614	4360.25
341.842	4331.25
342.07	4271.25
342.298	4267.25
342.526	4199.25
342.754	4261.25
342.981	4311.25
343.209	4389.25
343.437	4564.25
343.665	4867.25
343.893	5113.25
344.12	5160.25
344.348	4907.25
344.576	4752.25
344.804	4714.25
345.031	4663.25
345.259	4605.25
345.487	4408.25
345.714	4347.25
345.942	4257.25
346.17	4196.25
346.397	4213.25
346.625	4144.25
346.853	4178.25
347.08	4172.25
347.308	4229.25
347.535	4274.25
347.763	4337.25
347.99	4283.25
348.218	4295.25
348.445	4300.25
348.673	4204.25
348.9	4118.25
349.128	4120.25
349.355	3998.25
349.583	4044.25
349.81	3990.25
350.037	4090.25
350.265	4042.25
350.492	3999.25
350.72	4013.25
350.947	4123.25
351.174	4170.25
351.402	4240.25
351.629	4151.25
351.856	4212.25
352.083	4251.25
352.311	4253.25
352.538	4262.25
352.765	4249.25
352.992	4141.25
353.22	4112.25
353.447	4047.25
353.674	3997.25
353.901	3948.25
354.128	3917.25
354.355	3910.25
354.583	3923.25
354.81	3931.25
355.037	3949.25
355.264	3867.25
355.491	3959.25
355.718	3895.25
355.945	3969.25
356.172	3945.25
356.399	3902.25
356.626	3943.25
356.853	3948.25
357.08	3920.25
357.307	3852.25
357.534	3881.25
357.761	3905.25
357.988	3940.25
358.215	3953.25
358.441	3984.25
358.668	3926.25
358.895	4001.25
359.122	4023.25
359.349	4143.25
359.576	4260.25
359.802	4537.25
360.029	4712.25
360.256	4650.25
360.483	4389.25
360.709	4156.25
360.936	4207.25
361.163	4177.25
361.39	4212.25
361.616	4218.25
361.843	4101.25
362.07	4178.25
362.296	4206.25
362.523	4128.25
362.749	4161.25
362.976	4081.25
363.203	4025.25
363.429	4067.25
363.656	4033.25
363.882	4041.25
364.109	4046.25
364.335	3960.25
364.562	4015.25
364.788	3977.25
365.015	4036.25
365.241	4071.25
365.468	4090.25
365.694	4131.25
365.92	4141.25
366.147	4057.25
366.373	4076.25
366.599	3983.25
366.826	3993.25
367.052	3952.25
367.278	4053.25
367.505	3989.25
367.731	4055.25
367.957	4025.25
368.184	4094.25
368.41	4187.25
368.636	4266.25
368.862	4204.25
369.089	4152.25
369.315	4074.25
369.541	4115.25
369.767	4132.25
369.993	4196.25
370.219	4105.25
370.445	4120.25
370.672	4193.25
370.898	4188.25
371.124	4175.25
371.35	4266.25
371.576	4234.25
371.802	4187.25
372.028	4253.25
372.254	4235.25
372.48	4295.25
372.706	4378.25
372.932	4474.25
373.158	4378.25
373.384	4368.25
373.61	4355.25
373.835	4324.25
374.061	4309.25
374.287	4391.25
374.513	4463.25
374.739	4588.25
374.965	4618.25
375.191	4625.25
375.416	4553.25
375.642	4462.25
375.868	4445.25
376.094	4399.25
376.319	4330.25
376.545	4313.25
376.771	4328.25
376.997	4302.25
377.222	4292.25
377.448	4231.25
377.674	4220.25
377.899	4222.25
378.125	4218.25
378.35	4170.25
378.576	4159.25
378.802	4163.25
379.027	4193.25
379.253	4256.25
379.478	4201.25
379.704	4216.25
379.929	4241.25
380.155	4268.25
380.38	4196.25
380.606	4261.25
380.831	4182.25
381.057	4255.25
381.282	4205.25
381.507	4290.25
381.733	4353.25
381.958	4419.25
382.184	4424.25
382.409	4440.25
382.634	4553.25
382.86	4487.25
383.085	4590.25
383.31	4689.25
383.535	4711.25
383.761	4772.25
383.986	4853.25
384.211	4941.25
384.436	4935.25
384.662	5038.25
384.887	5147.25
385.112	5021.25
385.337	5117.25
385.562	5109.25
385.787	5114.25
386.013	5245.25
386.238	5254.25
386.463	5256.25
386.688	5175.25
386.913	5087.25
387.138	5180.25
387.363	5135.25
387.588	5007.25
387.813	5059.25
388.038	5074.25
388.263	5133.25
388.488	5110.25
388.713	5079.25
388.938	5048.25
389.163	5011.25
389.387	5049.25
389.612	5044.25
389.837	4972.25
390.062	4899.25
390.287	5006.25
390.512	4994.25
390.736	5043.25
390.961	5214.25
391.186	5168.25
391.411	5355.25
391.636	5492.25
391.86	5664.25
392.085	5720.25
392.31	5627.25
392.534	5456.25
392.759	5414.25
392.984	5321.25
393.208	5292.25
393.433	5288.25
393.658	5335.25
393.882	5292.25
394.107	5303.25
394.331	5389.25
394.556	5386.25
394.78	5422.25
395.005	5482.25
395.229	5450.25
395.454	5599.25
395.678	5734.25
395.903	5712.25
396.127	5773.25
396.352	5610.25
396.576	5379.25
396.801	5336.25
397.025	5464.25
397.249	5641.25
397.474	5729.25
397.698	5739.25
397.922	5913.25
398.147	6018.25
398.371	6071.25
398.595	6239.25
398.82	6414.25
399.044	6989.25
399.268	7877.25
399.492	8860.25
399.717	9489.25
399.941	9304.25
400.165	8773.25
400.389	8002.25
400.613	7177.25
400.837	6711.25
401.062	6588.25
401.286	6426.25
401.51	6447.25
401.734	6458.25
401.958	6622.25
402.182	6692.25
402.406	6823.25
402.63	6825.25
402.854	6911.25
403.078	6953.25
403.302	7160.25
403.526	7225.25
403.75	7309.25
403.974	7339.25
404.198	7296.25
404.422	7441.25
404.645	7359.25
404.869	7428.25
405.093	7687.25
405.317	8026.25
405.541	7843.25
405.765	7366.25
405.988	7137.25
406.212	7408.25
406.436	7622.25
406.66	7740.25
406.883	7713.25
407.107	8318.25
407.331	8831.25
407.555	9330.25
407.778	9037.25
408.002	8255.25
408.226	7757.25
408.449	7692.25
408.673	7651.25
408.896	7787.25
409.12	7920.25
409.344	7544.25
409.567	7096.25
409.791	7022.25
410.014	6964.25
410.238	6854.25
410.461	6991.25
410.685	6968.25
410.908	7133.25
411.132	7311.25
411.355	7272.25
411.578	6928.25
411.802	6686.25
412.025	6735.25
412.249	6941.25
412.472	7141.25
412.695	7377.25
412.919	6916.25
413.142	6635.25
413.365	6547.25
413.589	6494.25
413.812	6332.25
414.035	6215.25
414.258	6298.25
414.482	6394.25
414.705	6391.25
414.928	6371.25
415.151	6345.25
415.374	6286.25
415.597	6248.25
415.821	6256.25
416.044	6289.25
416.267	6218.25
416.49	6147.25
416.713	6171.25
416.936	6186.25
417.159	6231.25
417.382	6246.25
417.605	6277.25
417.828	6446.25
418.051	6655.25
418.274	6485.25
418.497	6455.25
418.72	6473.25
418.943	6413.25
419.166	6774.25
419.389	7241.25
419.611	7032.25
419.834	6857.25
420.057	6820.25
420.28	6781.25
420.503	6544.25
420.726	6563.25
420.948	6575.25
421.171	6987.25
421.394	7004.25
421.617	6464.25
421.839	6445.25
422.062	6562.25
422.285	6693.25
422.507	7408.25
422.73	7943.25
422.953	7357.25
423.175	6928.25
423.398	6920.25
423.621	6942.25
423.843	7193.25
424.066	7109.25
424.288	7024.25
424.511	7267.25
424.733	7753.25
424.956	8217.25
425.178	7680.25
425.401	7920.25
425.623	7809.25
425.846	6752.25
426.068	6573.25
426.291	6401.25
426.513	6420.25
426.735	6720.25
426.958	7162.25
427.18	7944.25
427.402	9093.25
427.625	9304.25
427.847	7951.25
428.069	7144.25
428.292	6513.25
428.514	6000.25
428.736	5954.25
428.958	5972.25
429.181	5760.25
429.403	5713.25
429.625	5887.25
429.847	6334.25
430.069	6858.25
430.292	6326.25
430.514	5828.25
430.736	5731.25
430.958	5673.25
431.18	5504.25
431.402	5599.25
431.624	5640.25
431.846	5695.25
432.068	5642.25
432.29	5734.25
432.512	5630.25
432.734	5756.25
432.956	5734.25
433.178	5847.25
433.4	5829.25
433.622	5712.25
433.844	5703.25
434.066	5671.25
434.287	5821.25
434.509	6068.25
434.731	6250.25
434.953	6436.25
435.175	6488.25
435.397	6668.25
435.618	6603.25
435.84	6895.25
436.062	7800.25
436.284	7818.25
436.505	6631.25
436.727	6208.25
436.949	5941.25
437.17	5798.25
437.392	5789.25
437.614	5920.25
437.835	6435.25
438.057	7425.25
438.278	8067.25
438.5	7959.25
438.721	8820.25
438.943	7593.25
439.165	6434.25
439.386	6156.25
439.608	6295.25
439.829	6344.25
440.05	6751.25
440.272	7124.25
440.493	6416.25
440.715	6091.25
440.936	6051.25
441.158	6028.25
441.379	6221.25
441.6	6501.25
441.822	6744.25
442.043	7274.25
442.264	8051.25
442.486	7815.25
442.707	6902.25
442.928	6717.25
443.149	6984.25
443.371	7160.25
443.592	7712.25
443.813	8768.25
444.034	8719.25
444.255	7524.25
444.476	7267.25
444.698	7417.25
444.919	7487.25
445.14	7364.25
445.361	7197.25
445.582	7431.25
445.803	8165.25
446.024	8762.25
446.245	8347.25
446.466	7497.25
446.687	6435.25
446.908	6079.25
447.129	5729.25
447.35	5648.25
447.571	5574.25
447.792	5514.25
448.013	5667.25
448.234	5838.25
448.455	6509.25
448.675	7787.25
448.896	8350.25
449.117	6773.25
449.338	6925.25
449.559	8324.25
449.779	8542.25
450	6528.25
450.221	5838.25
450.442	5493.25
450.662	5448.25
450.883	5587.25
451.104	5677.25
451.324	5532.25
451.545	5346.25
451.766	5183.25
451.986	5075.25
452.207	5001.25
452.428	5050.25
452.648	5024.25
452.869	5119.25
453.089	5190.25
453.31	5285.25
453.53	5107.25
453.751	4998.25
453.971	5133.25
454.192	5181.25
454.412	4953.25
454.633	4941.25
454.853	4918.25
455.073	4891.25
455.294	5332.25
455.514	5895.25
455.734	5409.25
455.955	4881.25
456.175	4683.25
456.395	4620.25
456.616	4666.25
456.836	4624.25
457.056	4580.25
457.276	4460.25
457.497	4702.25
457.717	4719.25
457.937	4702.25
458.157	4863.25
458.377	4949.25
458.598	5291.25
458.818	6083.25
459.038	6861.25
459.258	6702.25
459.478	5928.25
459.698	5759.25
459.918	5805.25
460.138	5974.25
460.358	6226.25
460.578	6196.25
460.798	6333.25
461.018	6271.25
461.238	6105.25
461.458	6188.25
461.678	6151.25
461.898	6257.25
462.118	6311.25
462.338	6703.25
462.558	6735.25
462.777	7033.25
462.997	7605.25
463.217	8029.25
463.437	7800.25
463.657	7255.25
463.876	7103.25
464.096	7158.25
464.316	7110.25
464.536	7119.25
464.755	6930.25
464.975	6915.25
465.195	7191.25
465.414	7252.25
465.634	6211.25
465.854	5819.25
466.073	5635.25
466.293	5469.25
466.512	5263.25
466.732	5113.25
466.951	5243.25
467.171	5206.25
467.391	5220.25
467.61	5406.25
467.829	5315.25
468.049	5272.25
468.268	5261.25
468.488	5049.25
468.707	5011.25
468.927	4901.25
469.146	4870.25
469.365	5023.25
469.585	5035.25
469.804	5221.25
470.023	5486.25
470.243	5387.25
470.462	5435.25
470.681	5576.25
470.901	5509.25
471.12	5377.25
471.339	5206.25
471.558	5221.25
471.777	5167.25
471.997	5076.25
472.216	5239.25
472.435	5584.25
472.654	5269.25
472.873	5033.25
473.092	4987.25
473.311	4988.25
473.53	5005.25
473.749	5106.25
473.968	5668.25
474.187	6710.25
474.406	6268.25
474.625	5239.25
474.844	5028.25
475.063	4967.25
475.282	4968.25
475.501	5080.25
475.72	5066.25
475.939	5109.25
476.158	5126.25
476.377	5221.25
476.596	5144.25
476.814	5222.25
477.033	5336.25
477.252	5410.25
477.471	5457.25
477.69	5601.25
477.908	5725.25
478.127	5854.25
478.346	5919.25
478.564	6078.25
478.783	6120.25
479.002	6245.25
479.22	6308.25
479.439	6419.25
479.658	6488.25
479.876	6616.25
480.095	6715.25
480.313	7135.25
480.532	7024.25
480.751	6963.25
480.969	6983.25
481.188	7625.25
481.406	7545.25
481.624	6617.25
481.843	6307.25
482.061	6156.25
482.28	6026.25
482.498	5907.25
482.717	5849.25
482.935	5868.25
483.153	5893.25
483.372	5779.25
483.59	5796.25
483.808	5779.25
484.027	5820.25
484.245	5870.25
484.463	5974.25
484.681	6044.25
484.9	6061.25
485.118	6134.25
485.336	6083.25
485.554	6182.25
485.772	6212.25
485.99	6263.25
486.209	6255.25
486.427	6292.25
486.645	6311.25
486.863	6523.25
487.081	6409.25
487.299	6357.25
487.517	6272.25
487.735	6260.25
487.953	6254.25
488.171	6266.25
488.389	6264.25
488.607	6232.25
488.825	6233.25
489.043	6313.25
489.261	6382.25
489.479	6421.25
489.696	6403.25
489.914	6539.25
490.132	6569.25
490.35	6656.25
490.568	6739.25
490.786	6701.25
491.003	6812.25
491.221	7093.25
491.439	7150.25
491.657	7187.25
491.874	7363.25
492.092	7292.25
492.31	7342.25
492.527	7438.25
492.745	7462.25
492.963	7462.25
493.18	7560.25
493.398	7679.25
493.615	7684.25
493.833	7691.25
494.05	7587.25
494.268	7544.25
494.485	7526.25
494.703	7547.25
494.92	7563.25
495.138	7428.25
495.355	7466.25
495.573	7573.25
495.79	7475.25
496.008	7484.25
496.225	7486.25
496.442	7560.25
496.66	7584.25
496.877	7665.25
497.094	7685.25
497.312	7814.25
497.529	8072.25
497.746	8175.25
497.963	8348.25
498.181	8775.25
498.398	8933.25
498.615	9445.25
498.832	9884.25
499.049	10268.25
499.267	10958.25
499.484	11791.25
499.701	12541.25
499.918	13293.25
500.135	14159.25
500.352	14805.25
500.569	15001.25
500.786	14822.25
501.003	14371.25
501.22	13718.25
501.437	12961.25
501.654	12164.25
501.871	11511.25
502.088	10681.25
502.305	10155.25
502.522	9655.25
502.739	9276.25
502.956	8736.25
503.172	8516.25
503.389	8329.25
503.606	8140.25
503.823	8119.25
504.04	8049.25
504.256	7997.25
504.473	8138.25
504.69	8189.25
504.907	8011.25
505.123	7606.25
505.34	7430.25
505.557	7200.25
505.773	7088.25
505.99	7038.25
506.207	6997.25
506.423	6876.25
506.64	6853.25
506.856	6653.25
507.073	6654.25
507.289	6577.25
507.506	6663.25
507.722	6765.25
507.939	6788.25
508.155	6541.25
508.372	6374.25
508.588	6186.25
508.805	6313.25
509.021	6391.25
509.238	6541.25
509.454	6535.25
509.67	6402.25
509.887	6235.25
510.103	6210.25
510.319	6401.25
510.536	7879.25
510.752	12269.25
510.968	7841.25
511.184	6137.25
511.401	6028.25
511.617	5971.25
511.833	5963.25
512.049	6025.25
512.265	5964.25
512.481	5941.25
512.698	5846.25
512.914	5827.25
513.13	5817.25
513.346	5864.25
513.562	5812.25
513.778	5885.25
513.994	5922.25
514.21	6092.25
514.426	6289.25
514.642	6616.25
514.858	6830.25
515.074	7205.25
515.29	8845.25
515.506	12233.25
515.721	8652.25
515.937	6985.25
516.153	6746.25
516.369	6583.25
516.585	6661.25
516.801	6723.25
517.016	6883.25
517.232	7233.25
517.448	7303.25
517.664	7558.25
517.879	7535.25
518.095	7417.25
518.311	7327.25
518.527	6947.25
518.742	6839.25
518.958	6604.25
519.173	6427.25
519.389	6327.25
519.605	6229.25
519.82	6155.25
520.036	6249.25
520.251	6288.25
520.467	6547.25
520.682	6428.25
520.898	6391.25
521.113	6569.25
521.329	6858.25
521.544	7735.25
521.76	9952.25
521.975	14809.25
522.19	12204.25
522.406	7371.25
522.621	6147.25
522.836	5734.25
523.052	5613.25
523.267	5373.25
523.482	5274.25
523.698	5174.25
523.913	5302.25
524.128	5208.25
524.343	5090.25
524.559	5007.25
524.774	4989.25
524.989	4972.25
525.204	5007.25
525.419	4985.25
525.634	4873.25
525.849	4872.25
526.064	4859.25
526.28	4779.25
526.495	4791.25
526.71	4775.25
526.925	4732.25
527.14	4707.25
527.355	4674.25
527.57	4719.25
527.785	4663.25
527.999	4698.25
528.214	4712.25
528.429	4755.25
528.644	4699.25
528.859	4711.25
529.074	4772.25
529.289	5028.25
529.503	5662.25
529.718	5240.25
529.933	4853.25
530.148	4755.25
530.363	4706.25
530.577	4665.25
530.792	4598.25
531.007	4631.25
531.221	4701.25
531.436	4673.25
531.651	4606.25
531.865	4539.25
532.08	4585.25
532.295	4613.25
532.509	4567.25
532.724	4544.25
532.938	4552.25
533.153	4605.25
533.367	4585.25
533.582	4514.25
533.796	4527.25
534.011	4524.25
534.225	4517.25
534.44	4458.25
534.654	4496.25
534.868	4451.25
535.083	4469.25
535.297	4499.25
535.511	4564.25
535.726	4586.25
535.94	4605.25
536.154	4461.25
536.369	4454.25
536.583	4323.25
536.797	4279.25
537.011	4279.25
537.225	4243.25
537.44	4309.25
537.654	4222.25
537.868	4213.25
538.082	4303.25
538.296	4267.25
538.51	4241.25
538.724	4284.25
538.938	4160.25
539.153	4248.25
539.367	4351.25
539.581	4280.25
539.795	4240.25
540.009	4200.25
540.222	4187.25
540.436	4155.25
540.65	4199.25
540.864	4169.25
541.078	4228.25
541.292	4177.25
541.506	4039.25
541.72	4055.25
541.934	4013.25
542.147	4052.25
542.361	4002.25
542.575	3995.25
542.789	4040.25
543.002	4022.25
543.216	4095.25
543.43	4112.25
543.644	4043.25
543.857	3997.25
544.071	4087.25
544.285	4093.25
544.498	4100.25
544.712	4079.25
544.925	4108.25
545.139	4085.25
545.352	4067.25
545.566	4103.25
545.779	4120.25
545.993	4076.25
546.206	4127.25
546.42	3991.25
546.633	4027.25
546.847	4013.25
547.06	4045.25
547.274	4013.25
547.487	4000.25
547.7	4056.25
547.914	3997.25
548.127	4016.25
548.34	4105.25
548.554	4070.25
548.767	4014.25
548.98	4058.25
549.193	4035.25
549.407	4049.25
549.62	4155.25
549.833	4182.25
550.046	4077.25
550.259	4061.25
550.473	3935.25
550.686	3896.25
550.899	3963.25
551.112	3908.25
551.325	3864.25
551.538	3960.25
551.751	3945.25
551.964	3980.25
552.177	3993.25
552.39	4072.25
552.603	4221.25
552.816	4293.25
553.029	4331.25
553.242	4441.25
553.455	4460.25
553.667	4511.25
553.88	4485.25
554.093	4303.25
554.306	4224.25
554.519	4119.25
554.732	4040.25
554.944	3918.25
555.157	3832.25
555.37	3777.25
555.583	3729.25
555.795	3699.25
556.008	3597.25
556.221	3582.25
556.433	3533.25
556.646	3466.25
556.859	3448.25
557.071	3451.25
557.284	3408.25
557.496	3426.25
557.709	3397.25
557.921	3351.25
558.134	3368.25
558.346	3332.25
558.559	3337.25
558.771	3328.25
558.984	3282.25
559.196	3242.25
559.409	3281.25
559.621	3272.25
559.833	3280.25
560.046	3243.25
560.258	3235.25
560.47	3256.25
560.683	3193.25
560.895	3202.25
561.107	3160.25
561.32	3210.25
561.532	3267.25
561.744	3187.25
561.956	3216.25
562.168	3260.25
562.381	3258.25
562.593	3228.25
562.805	3243.25
563.017	3315.25
563.229	3249.25
563.441	3341.25
563.653	3293.25
563.865	3277.25
564.077	3360.25
564.289	3351.25
564.501	3408.25
564.713	3471.25
564.925	3617.25
565.137	3676.25
565.349	3751.25
565.561	3809.25
565.773	3952.25
565.985	4142.25
566.197	4301.25
566.408	4696.25
566.62	5007.25
566.832	5182.25
567.044	5275.25
567.255	5269.25
567.467	5477.25
567.679	5819.25
567.891	6108.25
568.102	6003.25
568.314	5763.25
568.526	5176.25
568.737	4723.25
568.949	4387.25
569.161	4187.25
569.372	3847.25
569.584	3711.25
569.795	3567.25
570.007	3512.25
570.218	3797.25
570.43	3500.25
570.641	3370.25
570.853	3330.25
571.064	3293.25
571.276	3287.25
571.487	3195.25
571.698	3099.25
571.91	2956.25
572.121	2899.25
572.333	2899.25
572.544	2810.25
572.755	2779.25
572.966	2741.25
573.178	2659.25
573.389	2675.25
573.6	2696.25
573.811	2668.25
574.023	2651.25
574.234	2576.25
574.445	2540.25
574.656	2573.25
574.867	2591.25
575.078	2596.25
575.289	2536.25
575.501	2514.25
575.712	2533.25
575.923	2503.25
576.134	2451.25
576.345	2411.25
576.556	2453.25
576.767	2410.25
576.978	2441.25
577.188	2403.25
577.399	2353.25
577.61	2327.25
577.821	2324.25
578.032	2378.25
578.243	2800.25
578.454	4136.25
578.665	2641.25
578.875	2323.25
579.086	2275.25
579.297	2267.25
579.508	2191.25
579.718	2194.25
579.929	2201.25
580.14	2184.25
580.35	2174.25
580.561	2202.25
580.772	2171.25
580.982	2110.25
581.193	2140.25
581.403	2158.25
581.614	2112.25
581.825	2121.25
582.035	2080.25
582.246	2096.25
582.456	2107.25
582.667	2129.25
582.877	2050.25
583.087	2104.25
583.298	2068.25
583.508	2061.25
583.719	2053.25
583.929	2047.25
584.139	2055.25
584.35	2049.25
584.56	2064.25
584.77	2016.25
584.981	2032.25
585.191	2020.25
585.401	2011.25
585.611	2064.25
585.821	2035.25
586.032	2043.25
586.242	1984.25
586.452	2014.25
586.662	2003.25
586.872	2000.25
587.082	2019.25
587.292	1954.25
587.502	1953.25
587.713	1958.25
587.923	1944.25
588.133	2007.25
588.343	1962.25
588.553	1964.25
588.762	1968.25
588.972	1992.25
589.182	1996.25
589.392	1978.25
589.602	1967.25
589.812	1983.25
590.022	1971.25
590.232	1973.25
590.441	1994.25
590.651	2032.25
590.861	1999.25
591.071	1997.25
591.281	2044.25
591.49	2084.25
591.7	2127.25
591.91	2152.25
592.119	2179.25
592.329	2222.25
592.539	2327.25
592.748	2331.25
592.958	2413.25
593.167	2442.25
593.377	2504.25
593.587	2501.25
593.796	2482.25
594.006	2560.25
594.215	2538.25
594.424	2521.25
594.634	2466.25
594.843	2361.25
595.053	2255.25
595.262	2159.25
595.472	2126.25
595.681	2101.25
595.89	2038.25
596.1	1950.25
596.309	1929.25
596.518	1905.25
596.727	1887.25
596.937	1871.25
597.146	1833.25
597.355	1815.25
597.564	1735.25
597.774	1711.25
597.983	1732.25
598.192	1730.25
598.401	1654.25
598.61	1673.25
598.819	1664.25
599.028	1652.25
599.237	1662.25
599.446	1654.25
599.655	1652.25
599.864	1631.25
600.073	1593.25
600.282	1656.25
600.491	1608.25
600.7	1583.25
600.909	1576.25
601.118	1552.25
601.327	1542.25
601.536	1536.25
601.745	1572.25
601.953	1544.25
602.162	1534.25
602.371	1527.25
602.58	1544.25
602.789	1519.25
602.997	1534.25
603.206	1514.25
603.415	1483.25
603.623	1489.25
603.832	1498.25
604.041	1472.25
604.249	1481.25
604.458	1492.25
604.666	1473.25
604.875	1445.25
605.084	1447.25
605.292	1450.25
605.501	1461.25
605.709	1430.25
605.918	1459.25
606.126	1455.25
606.334	1435.25
606.543	1437.25
606.751	1415.25
606.96	1396.25
607.168	1437.25
607.376	1412.25
607.585	1421.25
607.793	1367.25
608.001	1392.25
608.21	1389.25
608.418	1363.25
608.626	1339.25
608.834	1405.25
609.043	1341.25
609.251	1361.25
609.459	1359.25
609.667	1358.25
609.875	1387.25
610.083	1373.25
610.291	1326.25
610.499	1352.25
610.707	1384.25
610.916	1385.25
611.124	1390.25
611.332	1343.25
611.54	1355.25
611.748	1369.25
611.955	1373.25
612.163	1349.25
612.371	1363.25
612.579	1351.25
612.787	1331.25
612.995	1306.25
613.203	1326.25
613.411	1348.25
613.618	1323.25
613.826	1309.25
614.034	1315.25
614.242	1310.25
614.449	1318.25
614.657	1329.25
614.865	1283.25
615.072	1324.25
615.28	1326.25
615.488	1320.25
615.695	1329.25
615.903	1338.25
616.111	1349.25
616.318	1358.25
616.526	1372.25
616.733	1347.25
616.941	1324.25
617.148	1369.25
617.356	1340.25
617.563	1317.25
617.771	1327.25
617.978	1311.25
618.185	1321.25
618.393	1309.25
618.6	1328.25
618.807	1299.25
619.015	1286.25
619.222	1236.25
619.429	1277.25
619.637	1255.25
619.844	1264.25
620.051	1286.25
620.258	1250.25
620.466	1168.25
620.673	1177.25
620.88	1194.25
621.087	1219.25
621.294	1205.25
621.501	1187.25
621.708	1225.25
621.915	1214.25
622.122	1214.25
622.329	1234.25
622.536	1178.25
622.743	1174.25
622.95	1157.25
623.157	1172.25
623.364	1152.25
623.571	1162.25
623.778	1182.25
623.985	1120.25
624.192	1126.25
624.399	1114.25
624.606	1126.25
624.812	1140.25
625.019	1096.25
625.226	1113.25
625.433	1083.25
625.639	1085.25
625.846	1061.25
626.053	1116.25
626.259	1096.25
626.466	1099.25
626.673	1067.25
626.879	1061.25
627.086	1072.25
627.293	1071.25
627.499	1070.25
627.706	1050.25
627.912	1025.25
628.119	1064.25
628.325	1050.25
628.532	1025.25
628.738	1038.25
628.945	1027.25
629.151	1007.25
629.357	1024.25
629.564	996.25
629.77	1013.25
629.976	995.25
630.183	980.25
630.389	972.25
630.595	952.25
630.802	943.25
631.008	936.25
631.214	975.25
631.42	954.25
631.627	903.25
631.833	917.25
632.039	905.25
632.245	943.25
632.451	937.25
632.657	922.25
632.863	898.25
633.069	897.25
633.275	889.25
633.481	894.25
633.688	868.25
633.893	895.25
634.099	908.25
634.305	846.25
634.511	854.25
634.717	858.25
634.923	889.25
635.129	877.25
635.335	879.25
635.541	870.25
635.747	869.25
635.952	848.25
636.158	863.25
636.364	872.25
636.57	901.25
636.775	868.25
636.981	876.25
637.187	915.25
637.392	861.25
637.598	848.25
637.804	833.25
638.009	863.25
638.215	825.25
638.421	799.25
638.626	795.25
638.832	832.25
639.037	808.25
639.243	794.25
639.448	776.25
639.654	777.25
639.859	778.25
640.065	777.25
640.27	797.25
640.475	776.25
640.681	772.25
640.886	795.25
641.091	782.25
641.297	772.25
641.502	758.25
641.707	776.25
641.913	765.25
642.118	745.25
642.323	750.25
642.528	743.25
642.733	723.25
642.939	730.25
643.144	745.25
643.349	725.25
643.554	696.25
643.759	729.25
643.964	702.25
644.169	732.25
644.374	726.25
644.579	705.25
644.784	712.25
644.989	712.25
645.194	718.25
645.399	701.25
645.604	711.25
645.809	735.25
646.014	724.25
646.219	703.25
646.423	723.25
646.628	738.25
646.833	730.25
647.038	739.25
647.243	751.25
647.447	728.25
647.652	741.25
647.857	753.25
648.062	797.25
648.266	793.25
648.471	830.25
648.676	825.25
648.88	776.25
649.085	760.25
649.289	785.25
649.494	874.25
649.698	1033.25
649.903	848.25
650.107	733.25
650.312	687.25
650.516	675.25
650.721	637.25
650.925	622.25
651.13	618.25
651.334	606.25
651.539	605.25
651.743	579.25
651.947	565.25
652.152	546.25
652.356	554.25
652.56	536.25
652.764	545.25
652.969	509.25
653.173	504.25
653.377	493.25
653.581	501.25
653.785	482.25
653.99	496.25
654.194	480.25
654.398	445.25
654.602	467.25
654.806	493.25
655.01	547.25
655.214	490.25
655.418	443.25
655.622	441.25
655.826	449.25
656.03	460.25
656.234	430.25
656.438	457.25
656.642	473.25
656.846	431.25
657.049	417.25
657.253	375.25
657.457	346.25
657.661	330.25
657.865	313.25
658.068	279.25
658.272	292.25
658.476	278.25
658.68	250.25
658.883	233.25
659.087	237.25
659.291	208.25
659.494	224.25
659.698	201.25
659.901	210.25
660.105	183.25
660.309	181.25
660.512	160.25
660.716	149.25
660.919	156.25
661.123	143.25
661.326	145.25
661.53	140.25
661.733	125.25
661.936	134.25
662.14	119.25
662.343	107.25
662.546	106.25
662.75	104.25
662.953	94.25
663.156	106.25
663.36	110.25
663.563	102.25
663.766	108.25
663.969	85.25
664.173	94.25
664.376	102.25
664.579	80.25
664.782	88.25
664.985	81.25
665.188	96.25
665.391	76.25
665.594	86.25
665.797	79.25
666	92.25
666.203	91.25
666.406	74.25
666.609	80.25
666.812	97.25
667.015	85.25
667.218	95.25
667.421	88.25
667.624	89.25
667.827	87.25
668.03	65.25
668.232	77.25
668.435	76.25
668.638	99.25
668.841	93.25
669.043	55.25
669.246	86.25
669.449	80.25
669.651	87.25
669.854	93.25
670.057	83.25
670.259	96.25
670.462	85.25
670.665	91.25
670.867	84.25
671.07	79.25
671.272	73.25
671.475	87.25
671.677	89.25
671.88	85.25
672.082	91.25
672.284	83.25
672.487	93.25
672.689	97.25
672.892	84.25
