Data from Circ_2012_H10_HRD10591_00075.txt Node
Date: Wed Jan 03 10:06:05 EST 2024
User: Yrep
Spectrometer: HR+D1059
Trigger mode: 1
Integration Time (sec): 1.000000E-1
Scans to average: 1
Electric dark correction enabled: true
Nonlinearity correction enabled: false
Boxcar width: 0
XAxis mode: Wavelengths
Number of Pixels in Spectrum: 2048
>>>>>Begin Spectral Data<<<<<
223.165	-21.31
223.4	-21.31
223.635	-21.31
223.869	-21.31
224.104	-17.31
224.338	-19.31
224.573	-6.31
224.808	-16.31
225.042	-20.31
225.277	-13.31
225.511	-4.31
225.746	0.69
225.98	7.69
226.215	13.69
226.449	23.69
226.683	31.69
226.918	29.69
227.152	32.69
227.387	35.69
227.621	46.69
227.856	43.69
228.09	52.69
228.324	55.69
228.559	62.69
228.793	70.69
229.027	56.69
229.262	63.69
229.496	80.69
229.73	82.69
229.964	92.69
230.199	66.69
230.433	81.69
230.667	83.69
230.901	79.69
231.136	91.69
231.37	89.69
231.604	70.69
231.838	88.69
232.072	82.69
232.306	73.69
232.541	85.69
232.775	66.69
233.009	78.69
233.243	83.69
233.477	80.69
233.711	74.69
233.945	80.69
234.179	68.69
234.413	70.69
234.647	78.69
234.881	70.69
235.115	88.69
235.349	64.69
235.583	71.69
235.817	82.69
236.051	78.69
236.285	76.69
236.519	70.69
236.753	74.69
236.987	73.69
237.221	90.69
237.455	58.69
237.689	90.69
237.922	69.69
238.156	81.69
238.39	79.69
238.624	86.69
238.858	70.69
239.091	72.69
239.325	85.69
239.559	84.69
239.793	95.69
240.027	78.69
240.26	72.69
240.494	72.69
240.728	73.69
240.961	62.69
241.195	70.69
241.429	83.69
241.662	75.69
241.896	77.69
242.13	79.69
242.363	62.69
242.597	75.69
242.83	68.69
243.064	91.69
243.298	87.69
243.531	75.69
243.765	70.69
243.998	75.69
244.232	60.69
244.465	79.69
244.699	80.69
244.932	83.69
245.166	67.69
245.399	62.69
245.633	74.69
245.866	82.69
246.099	91.69
246.333	75.69
246.566	76.69
246.8	73.69
247.033	84.69
247.266	78.69
247.5	79.69
247.733	66.69
247.966	80.69
248.2	70.69
248.433	80.69
248.666	74.69
248.899	86.69
249.133	87.69
249.366	83.69
249.599	92.69
249.832	83.69
250.066	89.69
250.299	89.69
250.532	78.69
250.765	77.69
250.998	71.69
251.231	88.69
251.465	74.69
251.698	89.69
251.931	72.69
252.164	82.69
252.397	74.69
252.63	72.69
252.863	81.69
253.096	75.69
253.329	90.69
253.562	81.69
253.795	71.69
254.028	92.69
254.261	78.69
254.494	76.69
254.727	92.69
254.96	77.69
255.193	63.69
255.426	95.69
255.659	69.69
255.892	76.69
256.124	86.69
256.357	82.69
256.59	66.69
256.823	90.69
257.056	77.69
257.289	80.69
257.521	82.69
257.754	87.69
257.987	84.69
258.22	78.69
258.452	75.69
258.685	72.69
258.918	83.69
259.151	86.69
259.383	74.69
259.616	88.69
259.849	84.69
260.081	89.69
260.314	75.69
260.547	86.69
260.779	91.69
261.012	99.69
261.244	87.69
261.477	88.69
261.71	80.69
261.942	95.69
262.175	113.69
262.407	90.69
262.64	79.69
262.872	88.69
263.105	76.69
263.337	93.69
263.57	84.69
263.802	77.69
264.035	76.69
264.267	78.69
264.499	82.69
264.732	77.69
264.964	86.69
265.197	81.69
265.429	90.69
265.661	77.69
265.894	89.69
266.126	83.69
266.358	79.69
266.591	79.69
266.823	90.69
267.055	77.69
267.287	78.69
267.52	88.69
267.752	88.69
267.984	77.69
268.216	83.69
268.448	91.69
268.681	91.69
268.913	87.69
269.145	91.69
269.377	79.69
269.609	72.69
269.841	79.69
270.073	87.69
270.306	90.69
270.538	88.69
270.77	80.69
271.002	83.69
271.234	82.69
271.466	101.69
271.698	77.69
271.93	90.69
272.162	77.69
272.394	84.69
272.626	98.69
272.858	76.69
273.09	77.69
273.322	81.69
273.553	85.69
273.785	87.69
274.017	98.69
274.249	76.69
274.481	79.69
274.713	92.69
274.945	78.69
275.176	87.69
275.408	83.69
275.64	80.69
275.872	104.69
276.104	89.69
276.335	80.69
276.567	94.69
276.799	116.69
277.031	89.69
277.262	96.69
277.494	93.69
277.726	95.69
277.957	73.69
278.189	76.69
278.421	81.69
278.652	100.69
278.884	76.69
279.115	89.69
279.347	87.69
279.579	88.69
279.81	98.69
280.042	93.69
280.273	93.69
280.505	88.69
280.736	85.69
280.968	90.69
281.199	72.69
281.431	80.69
281.662	94.69
281.894	80.69
282.125	106.69
282.356	104.69
282.588	136.69
282.819	103.69
283.051	84.69
283.282	87.69
283.513	92.69
283.745	91.69
283.976	82.69
284.207	99.69
284.439	79.69
284.67	86.69
284.901	104.69
285.132	89.69
285.364	85.69
285.595	90.69
285.826	85.69
286.057	89.69
286.288	84.69
286.52	80.69
286.751	76.69
286.982	79.69
287.213	81.69
287.444	100.69
287.675	86.69
287.906	77.69
288.138	83.69
288.369	97.69
288.6	78.69
288.831	89.69
289.062	86.69
289.293	90.69
289.524	72.69
289.755	83.69
289.986	88.69
290.217	84.69
290.448	78.69
290.679	85.69
290.91	95.69
291.141	104.69
291.371	96.69
291.602	90.69
291.833	95.69
292.064	88.69
292.295	86.69
292.526	88.69
292.757	86.69
292.987	83.69
293.218	90.69
293.449	93.69
293.68	97.69
293.91	83.69
294.141	94.69
294.372	89.69
294.603	94.69
294.833	83.69
295.064	84.69
295.295	73.69
295.525	79.69
295.756	111.69
295.987	109.69
296.217	129.69
296.448	109.69
296.679	88.69
296.909	85.69
297.14	97.69
297.37	100.69
297.601	92.69
297.831	91.69
298.062	96.69
298.292	84.69
298.523	94.69
298.753	87.69
298.984	96.69
299.214	90.69
299.445	93.69
299.675	89.69
299.905	95.69
300.136	91.69
300.366	89.69
300.597	85.69
300.827	75.69
301.057	82.69
301.288	92.69
301.518	80.69
301.748	90.69
301.979	98.69
302.209	72.69
302.439	83.69
302.669	77.69
302.9	102.69
303.13	89.69
303.36	96.69
303.59	96.69
303.82	102.69
304.051	95.69
304.281	85.69
304.511	75.69
304.741	92.69
304.971	90.69
305.201	92.69
305.431	101.69
305.661	100.69
305.891	108.69
306.121	83.69
306.352	89.69
306.582	90.69
306.812	87.69
307.042	95.69
307.272	96.69
307.502	91.69
307.731	78.69
307.961	100.69
308.191	87.69
308.421	88.69
308.651	82.69
308.881	87.69
309.111	86.69
309.341	98.69
309.571	95.69
309.8	82.69
310.03	80.69
310.26	91.69
310.49	80.69
310.72	90.69
310.949	103.69
311.179	99.69
311.409	99.69
311.639	101.69
311.868	97.69
312.098	107.69
312.328	92.69
312.557	99.69
312.787	104.69
313.017	97.69
313.246	99.69
313.476	89.69
313.706	98.69
313.935	92.69
314.165	86.69
314.394	106.69
314.624	91.69
314.853	83.69
315.083	104.69
315.312	92.69
315.542	84.69
315.771	87.69
316.001	75.69
316.23	86.69
316.46	89.69
316.689	79.69
316.919	83.69
317.148	79.69
317.377	91.69
317.607	94.69
317.836	114.69
318.065	94.69
318.295	96.69
318.524	89.69
318.753	101.69
318.983	92.69
319.212	93.69
319.441	99.69
319.67	93.69
319.9	103.69
320.129	73.69
320.358	92.69
320.587	100.69
320.816	104.69
321.046	100.69
321.275	111.69
321.504	95.69
321.733	86.69
321.962	92.69
322.191	102.69
322.42	109.69
322.649	105.69
322.878	97.69
323.108	114.69
323.337	125.69
323.566	130.69
323.795	154.69
324.024	196.69
324.253	367.69
324.482	714.69
324.71	1447.69
324.939	1898.69
325.168	702.69
325.397	226.69
325.626	131.69
325.855	125.69
326.084	140.69
326.313	141.69
326.542	140.69
326.77	202.69
326.999	407.69
327.228	820.69
327.457	1463.69
327.686	1191.69
327.914	343.69
328.143	186.69
328.372	156.69
328.6	113.69
328.829	110.69
329.058	118.69
329.287	134.69
329.515	110.69
329.744	111.69
329.972	109.69
330.201	147.69
330.43	144.69
330.658	123.69
330.887	132.69
331.115	118.69
331.344	95.69
331.572	93.69
331.801	97.69
332.03	86.69
332.258	100.69
332.486	95.69
332.715	93.69
332.943	108.69
333.172	99.69
333.4	100.69
333.629	103.69
333.857	102.69
334.085	121.69
334.314	130.69
334.542	162.69
334.771	174.69
334.999	123.69
335.227	90.69
335.455	98.69
335.684	87.69
335.912	100.69
336.14	104.69
336.369	97.69
336.597	91.69
336.825	90.69
337.053	90.69
337.281	86.69
337.51	109.69
337.738	85.69
337.966	85.69
338.194	110.69
338.422	95.69
338.65	92.69
338.878	98.69
339.106	91.69
339.334	104.69
339.562	95.69
339.79	79.69
340.018	78.69
340.246	85.69
340.474	98.69
340.702	103.69
340.93	98.69
341.158	99.69
341.386	91.69
341.614	92.69
341.842	78.69
342.07	80.69
342.298	83.69
342.526	92.69
342.754	94.69
342.981	83.69
343.209	75.69
343.437	104.69
343.665	102.69
343.893	87.69
344.12	92.69
344.348	101.69
344.576	81.69
344.804	94.69
345.031	95.69
345.259	93.69
345.487	91.69
345.714	93.69
345.942	88.69
346.17	83.69
346.397	87.69
346.625	81.69
346.853	101.69
347.08	85.69
347.308	96.69
347.535	100.69
347.763	94.69
347.99	104.69
348.218	92.69
348.445	102.69
348.673	103.69
348.9	101.69
349.128	86.69
349.355	87.69
349.583	100.69
349.81	102.69
350.037	108.69
350.265	91.69
350.492	96.69
350.72	103.69
350.947	106.69
351.174	92.69
351.402	122.69
351.629	103.69
351.856	95.69
352.083	110.69
352.311	110.69
352.538	94.69
352.765	115.69
352.992	103.69
353.22	105.69
353.447	106.69
353.674	95.69
353.901	93.69
354.128	89.69
354.355	89.69
354.583	93.69
354.81	89.69
355.037	89.69
355.264	79.69
355.491	72.69
355.718	94.69
355.945	96.69
356.172	103.69
356.399	110.69
356.626	98.69
356.853	89.69
357.08	87.69
357.307	96.69
357.534	83.69
357.761	98.69
357.988	105.69
358.215	93.69
358.441	96.69
358.668	86.69
358.895	84.69
359.122	84.69
359.349	94.69
359.576	77.69
359.802	95.69
360.029	102.69
360.256	107.69
360.483	102.69
360.709	93.69
360.936	99.69
361.163	87.69
361.39	98.69
361.616	85.69
361.843	91.69
362.07	94.69
362.296	99.69
362.523	82.69
362.749	102.69
362.976	90.69
363.203	85.69
363.429	87.69
363.656	92.69
363.882	92.69
364.109	89.69
364.335	83.69
364.562	103.69
364.788	82.69
365.015	84.69
365.241	96.69
365.468	93.69
365.694	85.69
365.92	95.69
366.147	101.69
366.373	80.69
366.599	80.69
366.826	85.69
367.052	92.69
367.278	91.69
367.505	87.69
367.731	86.69
367.957	77.69
368.184	96.69
368.41	74.69
368.636	94.69
368.862	114.69
369.089	105.69
369.315	86.69
369.541	99.69
369.767	87.69
369.993	83.69
370.219	86.69
370.445	79.69
370.672	77.69
370.898	71.69
371.124	107.69
371.35	89.69
371.576	87.69
371.802	97.69
372.028	89.69
372.254	78.69
372.48	89.69
372.706	94.69
372.932	99.69
373.158	97.69
373.384	80.69
373.61	97.69
373.835	90.69
374.061	89.69
374.287	82.69
374.513	83.69
374.739	80.69
374.965	87.69
375.191	84.69
375.416	92.69
375.642	77.69
375.868	94.69
376.094	70.69
376.319	83.69
376.545	90.69
376.771	84.69
376.997	90.69
377.222	97.69
377.448	87.69
377.674	102.69
377.899	86.69
378.125	98.69
378.35	89.69
378.576	95.69
378.802	99.69
379.027	93.69
379.253	96.69
379.478	89.69
379.704	88.69
379.929	107.69
380.155	93.69
380.38	100.69
380.606	103.69
380.831	76.69
381.057	97.69
381.282	88.69
381.507	90.69
381.733	92.69
381.958	89.69
382.184	99.69
382.409	96.69
382.634	96.69
382.86	112.69
383.085	96.69
383.31	91.69
383.535	93.69
383.761	110.69
383.986	92.69
384.211	93.69
384.436	102.69
384.662	91.69
384.887	94.69
385.112	84.69
385.337	104.69
385.562	97.69
385.787	103.69
386.013	90.69
386.238	115.69
386.463	98.69
386.688	108.69
386.913	111.69
387.138	93.69
387.363	103.69
387.588	87.69
387.813	105.69
388.038	112.69
388.263	109.69
388.488	103.69
388.713	92.69
388.938	83.69
389.163	104.69
389.387	94.69
389.612	101.69
389.837	88.69
390.062	107.69
390.287	85.69
390.512	103.69
390.736	78.69
390.961	88.69
391.186	91.69
391.411	96.69
391.636	92.69
391.86	87.69
392.085	74.69
392.31	86.69
392.534	89.69
392.759	89.69
392.984	80.69
393.208	78.69
393.433	87.69
393.658	97.69
393.882	98.69
394.107	86.69
394.331	80.69
394.556	93.69
394.78	95.69
395.005	97.69
395.229	87.69
395.454	93.69
395.678	88.69
395.903	87.69
396.127	98.69
396.352	101.69
396.576	102.69
396.801	86.69
397.025	89.69
397.249	79.69
397.474	89.69
397.698	89.69
397.922	86.69
398.147	88.69
398.371	78.69
398.595	79.69
398.82	75.69
399.044	79.69
399.268	74.69
399.492	74.69
399.717	104.69
399.941	85.69
400.165	91.69
400.389	82.69
400.613	84.69
400.837	86.69
401.062	86.69
401.286	94.69
401.51	79.69
401.734	91.69
401.958	100.69
402.182	124.69
402.406	140.69
402.63	110.69
402.854	90.69
403.078	79.69
403.302	90.69
403.526	91.69
403.75	88.69
403.974	79.69
404.198	73.69
404.422	79.69
404.645	79.69
404.869	88.69
405.093	84.69
405.317	99.69
405.541	107.69
405.765	98.69
405.988	107.69
406.212	157.69
406.436	207.69
406.66	144.69
406.883	94.69
407.107	91.69
407.331	80.69
407.555	87.69
407.778	94.69
408.002	81.69
408.226	103.69
408.449	83.69
408.673	86.69
408.896	86.69
409.12	96.69
409.344	78.69
409.567	102.69
409.791	89.69
410.014	94.69
410.238	88.69
410.461	99.69
410.685	90.69
410.908	86.69
411.132	94.69
411.355	95.69
411.578	97.69
411.802	99.69
412.025	94.69
412.249	76.69
412.472	96.69
412.695	100.69
412.919	90.69
413.142	77.69
413.365	79.69
413.589	82.69
413.812	88.69
414.035	92.69
414.258	98.69
414.482	85.69
414.705	87.69
414.928	89.69
415.151	102.69
415.374	88.69
415.597	93.69
415.821	90.69
416.044	90.69
416.267	71.69
416.49	86.69
416.713	88.69
416.936	91.69
417.159	88.69
417.382	91.69
417.605	91.69
417.828	103.69
418.051	90.69
418.274	90.69
418.497	88.69
418.72	93.69
418.943	75.69
419.166	104.69
419.389	102.69
419.611	88.69
419.834	78.69
420.057	85.69
420.28	84.69
420.503	97.69
420.726	99.69
420.948	87.69
421.171	96.69
421.394	87.69
421.617	86.69
421.839	85.69
422.062	95.69
422.285	94.69
422.507	100.69
422.73	102.69
422.953	82.69
423.175	70.69
423.398	102.69
423.621	106.69
423.843	95.69
424.066	85.69
424.288	90.69
424.511	74.69
424.733	88.69
424.956	95.69
425.178	87.69
425.401	77.69
425.623	97.69
425.846	91.69
426.068	93.69
426.291	88.69
426.513	94.69
426.735	97.69
426.958	93.69
427.18	103.69
427.402	120.69
427.625	143.69
427.847	119.69
428.069	119.69
428.292	93.69
428.514	88.69
428.736	77.69
428.958	86.69
429.181	86.69
429.403	80.69
429.625	88.69
429.847	100.69
430.069	86.69
430.292	89.69
430.514	83.69
430.736	75.69
430.958	74.69
431.18	79.69
431.402	90.69
431.624	106.69
431.846	71.69
432.068	91.69
432.29	90.69
432.512	87.69
432.734	92.69
432.956	91.69
433.178	82.69
433.4	100.69
433.622	78.69
433.844	75.69
434.066	74.69
434.287	100.69
434.509	87.69
434.731	88.69
434.953	85.69
435.175	75.69
435.397	83.69
435.618	80.69
435.84	89.69
436.062	92.69
436.284	102.69
436.505	99.69
436.727	93.69
436.949	106.69
437.17	79.69
437.392	93.69
437.614	77.69
437.835	104.69
438.057	107.69
438.278	101.69
438.5	103.69
438.721	117.69
438.943	96.69
439.165	92.69
439.386	88.69
439.608	93.69
439.829	86.69
440.05	122.69
440.272	130.69
440.493	108.69
440.715	86.69
440.936	93.69
441.158	102.69
441.379	87.69
441.6	87.69
441.822	82.69
442.043	93.69
442.264	87.69
442.486	90.69
442.707	85.69
442.928	118.69
443.149	132.69
443.371	128.69
443.592	101.69
443.813	92.69
444.034	92.69
444.255	92.69
444.476	77.69
444.698	80.69
444.919	85.69
445.14	124.69
445.361	116.69
445.582	108.69
445.803	127.69
446.024	111.69
446.245	118.69
446.466	100.69
446.687	84.69
446.908	91.69
447.129	76.69
447.35	92.69
447.571	90.69
447.792	94.69
448.013	92.69
448.234	100.69
448.455	90.69
448.675	107.69
448.896	100.69
449.117	101.69
449.338	91.69
449.559	120.69
449.779	127.69
450	102.69
450.221	80.69
450.442	70.69
450.662	102.69
450.883	90.69
451.104	98.69
451.324	88.69
451.545	70.69
451.766	81.69
451.986	80.69
452.207	80.69
452.428	90.69
452.648	99.69
452.869	99.69
453.089	107.69
453.31	101.69
453.53	80.69
453.751	75.69
453.971	94.69
454.192	95.69
454.412	78.69
454.633	89.69
454.853	86.69
455.073	76.69
455.294	77.69
455.514	95.69
455.734	92.69
455.955	84.69
456.175	78.69
456.395	70.69
456.616	87.69
456.836	84.69
457.056	89.69
457.276	93.69
457.497	85.69
457.717	75.69
457.937	84.69
458.157	71.69
458.377	101.69
458.598	111.69
458.818	127.69
459.038	141.69
459.258	93.69
459.478	102.69
459.698	80.69
459.918	90.69
460.138	79.69
460.358	89.69
460.578	77.69
460.798	89.69
461.018	80.69
461.238	78.69
461.458	77.69
461.678	87.69
461.898	77.69
462.118	86.69
462.338	91.69
462.558	91.69
462.777	79.69
462.997	94.69
463.217	70.69
463.437	112.69
463.657	78.69
463.876	86.69
464.096	83.69
464.316	90.69
464.536	98.69
464.755	98.69
464.975	103.69
465.195	131.69
465.414	133.69
465.634	84.69
465.854	66.69
466.073	85.69
466.293	93.69
466.512	101.69
466.732	97.69
466.951	101.69
467.171	84.69
467.391	106.69
467.61	92.69
467.829	99.69
468.049	103.69
468.268	118.69
468.488	94.69
468.707	83.69
468.927	92.69
469.146	88.69
469.365	96.69
469.585	75.69
469.804	95.69
470.023	91.69
470.243	84.69
470.462	100.69
470.681	99.69
470.901	86.69
471.12	87.69
471.339	94.69
471.558	93.69
471.777	85.69
471.997	101.69
472.216	124.69
472.435	193.69
472.654	115.69
472.873	78.69
473.092	92.69
473.311	103.69
473.53	89.69
473.749	89.69
473.968	86.69
474.187	103.69
474.406	101.69
474.625	82.69
474.844	84.69
475.063	78.69
475.282	93.69
475.501	83.69
475.72	85.69
475.939	79.69
476.158	82.69
476.377	87.69
476.596	90.69
476.814	80.69
477.033	74.69
477.252	99.69
477.471	88.69
477.69	85.69
477.908	92.69
478.127	87.69
478.346	94.69
478.564	79.69
478.783	94.69
479.002	87.69
479.22	86.69
479.439	101.69
479.658	90.69
479.876	105.69
480.095	80.69
480.313	112.69
480.532	99.69
480.751	96.69
480.969	154.69
481.188	297.69
481.406	212.69
481.624	102.69
481.843	89.69
482.061	81.69
482.28	87.69
482.498	90.69
482.717	85.69
482.935	75.69
483.153	82.69
483.372	99.69
483.59	85.69
483.808	92.69
484.027	84.69
484.245	91.69
484.463	89.69
484.681	102.69
484.9	96.69
485.118	85.69
485.336	87.69
485.554	97.69
485.772	92.69
485.99	93.69
486.209	101.69
486.427	111.69
486.645	100.69
486.863	97.69
487.081	85.69
487.299	109.69
487.517	97.69
487.735	96.69
487.953	85.69
488.171	91.69
488.389	109.69
488.607	106.69
488.825	85.69
489.043	96.69
489.261	95.69
489.479	85.69
489.696	94.69
489.914	85.69
490.132	94.69
490.35	76.69
490.568	85.69
490.786	92.69
491.003	82.69
491.221	94.69
491.439	86.69
491.657	95.69
491.874	90.69
492.092	87.69
492.31	83.69
492.527	81.69
492.745	86.69
492.963	85.69
493.18	100.69
493.398	99.69
493.615	96.69
493.833	109.69
494.05	95.69
494.268	109.69
494.485	107.69
494.703	101.69
494.92	100.69
495.138	89.69
495.355	85.69
495.573	97.69
495.79	91.69
496.008	85.69
496.225	99.69
496.442	96.69
496.66	100.69
496.877	96.69
497.094	89.69
497.312	88.69
497.529	87.69
497.746	94.69
497.963	93.69
498.181	89.69
498.398	84.69
498.615	107.69
498.832	99.69
499.049	90.69
499.267	84.69
499.484	93.69
499.701	78.69
499.918	104.69
500.135	87.69
500.352	90.69
500.569	87.69
500.786	88.69
501.003	79.69
501.22	95.69
501.437	98.69
501.654	108.69
501.871	100.69
502.088	90.69
502.305	80.69
502.522	93.69
502.739	82.69
502.956	75.69
503.172	82.69
503.389	95.69
503.606	105.69
503.823	108.69
504.04	98.69
504.256	89.69
504.473	92.69
504.69	86.69
504.907	86.69
505.123	78.69
505.34	80.69
505.557	93.69
505.773	83.69
505.99	92.69
506.207	88.69
506.423	87.69
506.64	103.69
506.856	85.69
507.073	83.69
507.289	102.69
507.506	92.69
507.722	106.69
507.939	95.69
508.155	95.69
508.372	96.69
508.588	100.69
508.805	101.69
509.021	91.69
509.238	95.69
509.454	99.69
509.67	105.69
509.887	108.69
510.103	137.69
510.319	205.69
510.536	693.69
510.752	2134.69
510.968	628.69
511.184	152.69
511.401	107.69
511.617	105.69
511.833	108.69
512.049	98.69
512.265	77.69
512.481	84.69
512.698	87.69
512.914	102.69
513.13	96.69
513.346	89.69
513.562	91.69
513.778	72.69
513.994	80.69
514.21	95.69
514.426	101.69
514.642	121.69
514.858	117.69
515.074	143.69
515.29	356.69
515.506	1249.69
515.721	478.69
515.937	153.69
516.153	106.69
516.369	104.69
516.585	115.69
516.801	99.69
517.016	98.69
517.232	79.69
517.448	100.69
517.664	90.69
517.879	98.69
518.095	94.69
518.311	100.69
518.527	79.69
518.742	91.69
518.958	81.69
519.173	96.69
519.389	93.69
519.605	96.69
519.82	92.69
520.036	103.69
520.251	105.69
520.467	95.69
520.682	106.69
520.898	103.69
521.113	118.69
521.329	128.69
521.544	171.69
521.76	452.69
521.975	1995.69
522.19	1252.69
522.406	285.69
522.621	114.69
522.836	94.69
523.052	95.69
523.267	82.69
523.482	93.69
523.698	106.69
523.913	111.69
524.128	100.69
524.343	94.69
524.559	88.69
524.774	86.69
524.989	78.69
525.204	99.69
525.419	79.69
525.634	88.69
525.849	91.69
526.064	76.69
526.28	97.69
526.495	86.69
526.71	82.69
526.925	92.69
527.14	77.69
527.355	88.69
527.57	83.69
527.785	79.69
527.999	92.69
528.214	80.69
528.429	106.69
528.644	96.69
528.859	93.69
529.074	110.69
529.289	121.69
529.503	149.69
529.718	99.69
529.933	95.69
530.148	96.69
530.363	97.69
530.577	97.69
530.792	89.69
531.007	96.69
531.221	89.69
531.436	100.69
531.651	105.69
531.865	90.69
532.08	80.69
532.295	92.69
532.509	91.69
532.724	78.69
532.938	85.69
533.153	88.69
533.367	87.69
533.582	104.69
533.796	94.69
534.011	74.69
534.225	83.69
534.44	103.69
534.654	95.69
534.868	87.69
535.083	85.69
535.297	98.69
535.511	106.69
535.726	100.69
535.94	102.69
536.154	91.69
536.369	99.69
536.583	90.69
536.797	103.69
537.011	89.69
537.225	83.69
537.44	101.69
537.654	91.69
537.868	98.69
538.082	114.69
538.296	97.69
538.51	85.69
538.724	82.69
538.938	85.69
539.153	95.69
539.367	101.69
539.581	95.69
539.795	88.69
540.009	69.69
540.222	103.69
540.436	98.69
540.65	87.69
540.864	83.69
541.078	94.69
541.292	85.69
541.506	93.69
541.72	91.69
541.934	93.69
542.147	99.69
542.361	85.69
542.575	64.69
542.789	85.69
543.002	77.69
543.216	90.69
543.43	96.69
543.644	98.69
543.857	96.69
544.071	81.69
544.285	81.69
544.498	100.69
544.712	92.69
544.925	100.69
545.139	79.69
545.352	86.69
545.566	103.69
545.779	76.69
545.993	80.69
546.206	93.69
546.42	93.69
546.633	113.69
546.847	98.69
547.06	76.69
547.274	89.69
547.487	100.69
547.7	84.69
547.914	75.69
548.127	73.69
548.34	90.69
548.554	89.69
548.767	93.69
548.98	89.69
549.193	95.69
549.407	98.69
549.62	88.69
549.833	95.69
550.046	94.69
550.259	98.69
550.473	79.69
550.686	70.69
550.899	85.69
551.112	92.69
551.325	73.69
551.538	85.69
551.751	78.69
551.964	88.69
552.177	85.69
552.39	75.69
552.603	102.69
552.816	90.69
553.029	94.69
553.242	108.69
553.455	106.69
553.667	99.69
553.88	101.69
554.093	100.69
554.306	87.69
554.519	84.69
554.732	90.69
554.944	101.69
555.157	86.69
555.37	96.69
555.583	81.69
555.795	86.69
556.008	107.69
556.221	94.69
556.433	73.69
556.646	89.69
556.859	92.69
557.071	106.69
557.284	83.69
557.496	94.69
557.709	80.69
557.921	92.69
558.134	70.69
558.346	78.69
558.559	83.69
558.771	84.69
558.984	76.69
559.196	100.69
559.409	89.69
559.621	83.69
559.833	71.69
560.046	92.69
560.258	93.69
560.47	96.69
560.683	89.69
560.895	89.69
561.107	87.69
561.32	92.69
561.532	81.69
561.744	87.69
561.956	86.69
562.168	101.69
562.381	94.69
562.593	97.69
562.805	84.69
563.017	96.69
563.229	96.69
563.441	83.69
563.653	84.69
563.865	87.69
564.077	86.69
564.289	99.69
564.501	79.69
564.713	86.69
564.925	86.69
565.137	95.69
565.349	91.69
565.561	70.69
565.773	78.69
565.985	91.69
566.197	71.69
566.408	87.69
566.62	77.69
566.832	82.69
567.044	69.69
567.255	72.69
567.467	93.69
567.679	84.69
567.891	83.69
568.102	77.69
568.314	94.69
568.526	81.69
568.737	74.69
568.949	79.69
569.161	94.69
569.372	79.69
569.584	85.69
569.795	99.69
570.007	108.69
570.218	220.69
570.43	124.69
570.641	86.69
570.853	95.69
571.064	102.69
571.276	96.69
571.487	90.69
571.698	82.69
571.91	100.69
572.121	79.69
572.333	88.69
572.544	92.69
572.755	92.69
572.966	97.69
573.178	105.69
573.389	93.69
573.6	102.69
573.811	95.69
574.023	86.69
574.234	95.69
574.445	84.69
574.656	77.69
574.867	75.69
575.078	90.69
575.289	84.69
575.501	83.69
575.712	88.69
575.923	95.69
576.134	102.69
576.345	95.69
576.556	96.69
576.767	85.69
576.978	90.69
577.188	87.69
577.399	99.69
577.61	95.69
577.821	103.69
578.032	106.69
578.243	229.69
578.454	674.69
578.665	202.69
578.875	102.69
579.086	88.69
579.297	99.69
579.508	82.69
579.718	85.69
579.929	97.69
580.14	90.69
580.35	98.69
580.561	93.69
580.772	77.69
580.982	87.69
581.193	76.69
581.403	79.69
581.614	83.69
581.825	78.69
582.035	90.69
582.246	86.69
582.456	79.69
582.667	102.69
582.877	84.69
583.087	81.69
583.298	84.69
583.508	95.69
583.719	64.69
583.929	77.69
584.139	84.69
584.35	81.69
584.56	90.69
584.77	78.69
584.981	72.69
585.191	77.69
585.401	82.69
585.611	82.69
585.821	90.69
586.032	80.69
586.242	93.69
586.452	76.69
586.662	86.69
586.872	79.69
587.082	74.69
587.292	76.69
587.502	70.69
587.713	94.69
587.923	82.69
588.133	87.69
588.343	84.69
588.553	78.69
588.762	85.69
588.972	90.69
589.182	97.69
589.392	87.69
589.602	90.69
589.812	109.69
590.022	100.69
590.232	94.69
590.441	90.69
590.651	80.69
590.861	100.69
591.071	104.69
591.281	90.69
591.49	92.69
591.7	75.69
591.91	93.69
592.119	78.69
592.329	80.69
592.539	100.69
592.748	96.69
592.958	75.69
593.167	86.69
593.377	82.69
593.587	98.69
593.796	89.69
594.006	78.69
594.215	90.69
594.424	100.69
594.634	80.69
594.843	90.69
595.053	97.69
595.262	85.69
595.472	76.69
595.681	74.69
595.89	87.69
596.1	84.69
596.309	76.69
596.518	90.69
596.727	81.69
596.937	94.69
597.146	88.69
597.355	83.69
597.564	85.69
597.774	91.69
597.983	78.69
598.192	72.69
598.401	78.69
598.61	83.69
598.819	101.69
599.028	84.69
599.237	78.69
599.446	74.69
599.655	83.69
599.864	90.69
600.073	82.69
600.282	91.69
600.491	91.69
600.7	92.69
600.909	79.69
601.118	86.69
601.327	80.69
601.536	79.69
601.745	74.69
601.953	80.69
602.162	86.69
602.371	83.69
602.58	80.69
602.789	75.69
602.997	82.69
603.206	69.69
603.415	83.69
603.623	99.69
603.832	66.69
604.041	81.69
604.249	87.69
604.458	85.69
604.666	84.69
604.875	84.69
605.084	89.69
605.292	89.69
605.501	83.69
605.709	85.69
605.918	73.69
606.126	79.69
606.334	85.69
606.543	79.69
606.751	92.69
606.96	79.69
607.168	78.69
607.376	100.69
607.585	92.69
607.793	81.69
608.001	80.69
608.21	87.69
608.418	77.69
608.626	79.69
608.834	97.69
609.043	86.69
609.251	86.69
609.459	114.69
609.667	89.69
609.875	81.69
610.083	85.69
610.291	89.69
610.499	91.69
610.707	86.69
610.916	79.69
611.124	87.69
611.332	88.69
611.54	88.69
611.748	89.69
611.955	86.69
612.163	86.69
612.371	86.69
612.579	80.69
612.787	82.69
612.995	84.69
613.203	78.69
613.411	79.69
613.618	79.69
613.826	79.69
614.034	92.69
614.242	94.69
614.449	88.69
614.657	84.69
614.865	86.69
615.072	85.69
615.28	87.69
615.488	78.69
615.695	92.69
615.903	90.69
616.111	115.69
616.318	106.69
616.526	97.69
616.733	95.69
616.941	93.69
617.148	88.69
617.356	104.69
617.563	82.69
617.771	84.69
617.978	101.69
618.185	89.69
618.393	74.69
618.6	78.69
618.807	94.69
619.015	76.69
619.222	85.69
619.429	97.69
619.637	92.69
619.844	87.69
620.051	85.69
620.258	87.69
620.466	73.69
620.673	79.69
620.88	68.69
621.087	87.69
621.294	78.69
621.501	78.69
621.708	86.69
621.915	88.69
622.122	86.69
622.329	93.69
622.536	100.69
622.743	90.69
622.95	87.69
623.157	84.69
623.364	84.69
623.571	101.69
623.778	85.69
623.985	73.69
624.192	84.69
624.399	97.69
624.606	90.69
624.812	79.69
625.019	76.69
625.226	87.69
625.433	95.69
625.639	93.69
625.846	95.69
626.053	90.69
626.259	77.69
626.466	80.69
626.673	90.69
626.879	97.69
627.086	84.69
627.293	73.69
627.499	78.69
627.706	85.69
627.912	87.69
628.119	94.69
628.325	88.69
628.532	98.69
628.738	92.69
628.945	80.69
629.151	84.69
629.357	84.69
629.564	89.69
629.77	81.69
629.976	95.69
630.183	83.69
630.389	73.69
630.595	59.69
630.802	95.69
631.008	71.69
631.214	68.69
631.42	86.69
631.627	81.69
631.833	67.69
632.039	65.69
632.245	86.69
632.451	80.69
632.657	93.69
632.863	80.69
633.069	98.69
633.275	84.69
633.481	92.69
633.688	79.69
633.893	90.69
634.099	92.69
634.305	88.69
634.511	80.69
634.717	77.69
634.923	77.69
635.129	93.69
635.335	78.69
635.541	85.69
635.747	78.69
635.952	93.69
636.158	78.69
636.364	104.69
636.57	97.69
636.775	87.69
636.981	89.69
637.187	72.69
637.392	77.69
637.598	84.69
637.804	98.69
638.009	70.69
638.215	73.69
638.421	68.69
638.626	93.69
638.832	74.69
639.037	81.69
639.243	95.69
639.448	76.69
639.654	77.69
639.859	63.69
640.065	85.69
640.27	89.69
640.475	80.69
640.681	85.69
640.886	92.69
641.091	71.69
641.297	92.69
641.502	84.69
641.707	94.69
641.913	83.69
642.118	83.69
642.323	76.69
642.528	100.69
642.733	81.69
642.939	96.69
643.144	95.69
643.349	89.69
643.554	84.69
643.759	72.69
643.964	79.69
644.169	85.69
644.374	89.69
644.579	79.69
644.784	86.69
644.989	94.69
645.194	84.69
645.399	74.69
645.604	76.69
645.809	84.69
646.014	75.69
646.219	87.69
646.423	92.69
646.628	67.69
646.833	88.69
647.038	80.69
647.243	79.69
647.447	92.69
647.652	83.69
647.857	84.69
648.062	94.69
648.266	89.69
648.471	97.69
648.676	91.69
648.88	95.69
649.085	75.69
649.289	90.69
649.494	106.69
649.698	116.69
649.903	95.69
650.107	110.69
650.312	95.69
650.516	86.69
650.721	69.69
650.925	68.69
651.13	78.69
651.334	77.69
651.539	89.69
651.743	67.69
651.947	84.69
652.152	86.69
652.356	70.69
652.56	74.69
652.764	79.69
652.969	71.69
653.173	79.69
653.377	78.69
653.581	87.69
653.785	81.69
653.99	82.69
654.194	91.69
654.398	86.69
654.602	91.69
654.806	91.69
655.01	101.69
655.214	86.69
655.418	73.69
655.622	89.69
655.826	97.69
656.03	77.69
656.234	83.69
656.438	95.69
656.642	82.69
656.846	84.69
657.049	79.69
657.253	78.69
657.457	78.69
657.661	82.69
657.865	95.69
658.068	77.69
658.272	83.69
658.476	86.69
658.68	83.69
658.883	89.69
659.087	87.69
659.291	72.69
659.494	100.69
659.698	84.69
659.901	83.69
660.105	95.69
660.309	92.69
660.512	79.69
660.716	73.69
660.919	79.69
661.123	79.69
661.326	77.69
661.53	78.69
661.733	59.69
661.936	81.69
662.14	87.69
662.343	79.69
662.546	72.69
662.75	79.69
662.953	74.69
663.156	80.69
663.36	75.69
663.563	73.69
663.766	78.69
663.969	78.69
664.173	82.69
664.376	74.69
664.579	92.69
664.782	90.69
664.985	96.69
665.188	82.69
665.391	76.69
665.594	73.69
665.797	80.69
666	76.69
666.203	75.69
666.406	69.69
666.609	74.69
666.812	77.69
667.015	81.69
667.218	79.69
667.421	91.69
667.624	82.69
667.827	80.69
668.03	85.69
668.232	92.69
668.435	74.69
668.638	85.69
668.841	82.69
669.043	72.69
669.246	81.69
669.449	89.69
669.651	84.69
669.854	85.69
670.057	61.69
670.259	78.69
670.462	81.69
670.665	71.69
670.867	71.69
671.07	76.69
671.272	82.69
671.475	82.69
671.677	85.69
671.88	82.69
672.082	73.69
672.284	88.69
672.487	86.69
672.689	74.69
672.892	87.69
