Data from StdB_HRD10591_041.txt Node
Date: Fri May 16 15:25:06 EDT 2025
User: Yrep
Spectrometer: HR+D1059
Trigger mode: 1
Integration Time (sec): 1.000000E-1
Scans to average: 1
Electric dark correction enabled: true
Nonlinearity correction enabled: false
Boxcar width: 0
XAxis mode: Wavelengths
Number of Pixels in Spectrum: 2048
>>>>>Begin Spectral Data<<<<<
223.165	-13.88
223.4	-13.88
223.635	-13.88
223.869	-20.88
224.104	-18.88
224.338	-18.88
224.573	-21.88
224.808	-0.88
225.042	-11.88
225.277	-0.88
225.511	-4.88
225.746	0.12
225.98	11.12
226.215	21.12
226.449	6.12
226.683	27.12
226.918	23.12
227.152	24.12
227.387	38.12
227.621	46.12
227.856	34.12
228.09	35.12
228.324	44.12
228.559	57.12
228.793	79.12
229.027	55.12
229.262	77.12
229.496	70.12
229.73	69.12
229.964	92.12
230.199	83.12
230.433	82.12
230.667	90.12
230.901	72.12
231.136	72.12
231.37	94.12
231.604	74.12
231.838	83.12
232.072	71.12
232.306	96.12
232.541	73.12
232.775	89.12
233.009	92.12
233.243	81.12
233.477	92.12
233.711	85.12
233.945	76.12
234.179	84.12
234.413	82.12
234.647	77.12
234.881	80.12
235.115	73.12
235.349	75.12
235.583	84.12
235.817	81.12
236.051	90.12
236.285	95.12
236.519	75.12
236.753	76.12
236.987	83.12
237.221	69.12
237.455	65.12
237.689	69.12
237.922	85.12
238.156	84.12
238.39	91.12
238.624	75.12
238.858	77.12
239.091	75.12
239.325	99.12
239.559	90.12
239.793	83.12
240.027	81.12
240.26	82.12
240.494	77.12
240.728	87.12
240.961	67.12
241.195	78.12
241.429	73.12
241.662	97.12
241.896	80.12
242.13	94.12
242.363	59.12
242.597	79.12
242.83	69.12
243.064	77.12
243.298	57.12
243.531	81.12
243.765	79.12
243.998	81.12
244.232	82.12
244.465	87.12
244.699	78.12
244.932	74.12
245.166	73.12
245.399	73.12
245.633	86.12
245.866	73.12
246.099	75.12
246.333	79.12
246.566	77.12
246.8	83.12
247.033	66.12
247.266	65.12
247.5	71.12
247.733	76.12
247.966	78.12
248.2	80.12
248.433	70.12
248.666	90.12
248.899	83.12
249.133	91.12
249.366	84.12
249.599	78.12
249.832	74.12
250.066	69.12
250.299	80.12
250.532	77.12
250.765	70.12
250.998	93.12
251.231	82.12
251.465	89.12
251.698	83.12
251.931	87.12
252.164	73.12
252.397	72.12
252.63	78.12
252.863	78.12
253.096	88.12
253.329	79.12
253.562	83.12
253.795	78.12
254.028	80.12
254.261	81.12
254.494	79.12
254.727	87.12
254.96	79.12
255.193	85.12
255.426	82.12
255.659	89.12
255.892	90.12
256.124	75.12
256.357	83.12
256.59	77.12
256.823	71.12
257.056	72.12
257.289	89.12
257.521	90.12
257.754	68.12
257.987	73.12
258.22	96.12
258.452	83.12
258.685	84.12
258.918	95.12
259.151	72.12
259.383	81.12
259.616	83.12
259.849	87.12
260.081	89.12
260.314	92.12
260.547	79.12
260.779	74.12
261.012	89.12
261.244	95.12
261.477	103.12
261.71	87.12
261.942	89.12
262.175	97.12
262.407	78.12
262.64	77.12
262.872	71.12
263.105	82.12
263.337	87.12
263.57	82.12
263.802	78.12
264.035	81.12
264.267	87.12
264.499	74.12
264.732	88.12
264.964	78.12
265.197	90.12
265.429	84.12
265.661	82.12
265.894	105.12
266.126	94.12
266.358	99.12
266.591	101.12
266.823	79.12
267.055	68.12
267.287	87.12
267.52	87.12
267.752	84.12
267.984	75.12
268.216	90.12
268.448	88.12
268.681	86.12
268.913	87.12
269.145	81.12
269.377	95.12
269.609	85.12
269.841	83.12
270.073	85.12
270.306	77.12
270.538	82.12
270.77	90.12
271.002	76.12
271.234	74.12
271.466	87.12
271.698	84.12
271.93	77.12
272.162	93.12
272.394	104.12
272.626	81.12
272.858	75.12
273.09	86.12
273.322	101.12
273.553	101.12
273.785	83.12
274.017	82.12
274.249	80.12
274.481	81.12
274.713	68.12
274.945	73.12
275.176	72.12
275.408	91.12
275.64	81.12
275.872	89.12
276.104	84.12
276.335	97.12
276.567	90.12
276.799	85.12
277.031	81.12
277.262	79.12
277.494	76.12
277.726	80.12
277.957	81.12
278.189	74.12
278.421	89.12
278.652	99.12
278.884	94.12
279.115	80.12
279.347	89.12
279.579	81.12
279.81	94.12
280.042	114.12
280.273	120.12
280.505	123.12
280.736	97.12
280.968	92.12
281.199	89.12
281.431	90.12
281.662	86.12
281.894	90.12
282.125	97.12
282.356	88.12
282.588	85.12
282.819	96.12
283.051	103.12
283.282	107.12
283.513	118.12
283.745	99.12
283.976	85.12
284.207	83.12
284.439	87.12
284.67	86.12
284.901	103.12
285.132	93.12
285.364	80.12
285.595	88.12
285.826	82.12
286.057	95.12
286.288	81.12
286.52	89.12
286.751	73.12
286.982	81.12
287.213	96.12
287.444	123.12
287.675	98.12
287.906	99.12
288.138	83.12
288.369	96.12
288.6	73.12
288.831	88.12
289.062	82.12
289.293	92.12
289.524	80.12
289.755	86.12
289.986	76.12
290.217	89.12
290.448	92.12
290.679	73.12
290.91	90.12
291.141	94.12
291.371	73.12
291.602	79.12
291.833	89.12
292.064	91.12
292.295	85.12
292.526	82.12
292.757	85.12
292.987	90.12
293.218	95.12
293.449	89.12
293.68	71.12
293.91	103.12
294.141	71.12
294.372	102.12
294.603	97.12
294.833	90.12
295.064	80.12
295.295	82.12
295.525	94.12
295.756	88.12
295.987	92.12
296.217	89.12
296.448	81.12
296.679	81.12
296.909	71.12
297.14	94.12
297.37	99.12
297.601	83.12
297.831	79.12
298.062	97.12
298.292	77.12
298.523	89.12
298.753	84.12
298.984	83.12
299.214	88.12
299.445	82.12
299.675	94.12
299.905	88.12
300.136	85.12
300.366	87.12
300.597	86.12
300.827	89.12
301.057	88.12
301.288	76.12
301.518	105.12
301.748	88.12
301.979	109.12
302.209	90.12
302.439	85.12
302.669	82.12
302.9	81.12
303.13	78.12
303.36	93.12
303.59	89.12
303.82	75.12
304.051	82.12
304.281	84.12
304.511	103.12
304.741	83.12
304.971	99.12
305.201	85.12
305.431	86.12
305.661	91.12
305.891	83.12
306.121	77.12
306.352	87.12
306.582	79.12
306.812	78.12
307.042	96.12
307.272	85.12
307.502	81.12
307.731	85.12
307.961	81.12
308.191	92.12
308.421	88.12
308.651	79.12
308.881	80.12
309.111	83.12
309.341	88.12
309.571	83.12
309.8	93.12
310.03	101.12
310.26	85.12
310.49	89.12
310.72	91.12
310.949	87.12
311.179	88.12
311.409	94.12
311.639	72.12
311.868	95.12
312.098	83.12
312.328	65.12
312.557	81.12
312.787	81.12
313.017	90.12
313.246	94.12
313.476	90.12
313.706	97.12
313.935	80.12
314.165	80.12
314.394	79.12
314.624	78.12
314.853	82.12
315.083	99.12
315.312	97.12
315.542	93.12
315.771	86.12
316.001	94.12
316.23	78.12
316.46	80.12
316.689	79.12
316.919	99.12
317.148	75.12
317.377	99.12
317.607	88.12
317.836	96.12
318.065	78.12
318.295	90.12
318.524	85.12
318.753	82.12
318.983	91.12
319.212	94.12
319.441	88.12
319.67	89.12
319.9	88.12
320.129	78.12
320.358	82.12
320.587	90.12
320.816	86.12
321.046	94.12
321.275	88.12
321.504	95.12
321.733	89.12
321.962	91.12
322.191	93.12
322.42	92.12
322.649	91.12
322.878	97.12
323.108	77.12
323.337	84.12
323.566	94.12
323.795	89.12
324.024	95.12
324.253	90.12
324.482	90.12
324.71	82.12
324.939	79.12
325.168	68.12
325.397	88.12
325.626	99.12
325.855	104.12
326.084	99.12
326.313	87.12
326.542	68.12
326.77	72.12
326.999	81.12
327.228	86.12
327.457	85.12
327.686	81.12
327.914	84.12
328.143	85.12
328.372	86.12
328.6	97.12
328.829	75.12
329.058	80.12
329.287	85.12
329.515	88.12
329.744	93.12
329.972	87.12
330.201	91.12
330.43	98.12
330.658	83.12
330.887	90.12
331.115	90.12
331.344	89.12
331.572	81.12
331.801	74.12
332.03	85.12
332.258	100.12
332.486	93.12
332.715	82.12
332.943	71.12
333.172	85.12
333.4	91.12
333.629	75.12
333.857	75.12
334.085	85.12
334.314	100.12
334.542	85.12
334.771	79.12
334.999	93.12
335.227	79.12
335.455	83.12
335.684	86.12
335.912	97.12
336.14	83.12
336.369	85.12
336.597	85.12
336.825	98.12
337.053	89.12
337.281	78.12
337.51	93.12
337.738	96.12
337.966	88.12
338.194	88.12
338.422	88.12
338.65	96.12
338.878	82.12
339.106	71.12
339.334	97.12
339.562	89.12
339.79	81.12
340.018	89.12
340.246	92.12
340.474	74.12
340.702	97.12
340.93	84.12
341.158	81.12
341.386	69.12
341.614	77.12
341.842	87.12
342.07	85.12
342.298	77.12
342.526	83.12
342.754	83.12
342.981	90.12
343.209	82.12
343.437	88.12
343.665	99.12
343.893	99.12
344.12	81.12
344.348	66.12
344.576	82.12
344.804	92.12
345.031	89.12
345.259	90.12
345.487	87.12
345.714	82.12
345.942	75.12
346.17	90.12
346.397	82.12
346.625	89.12
346.853	79.12
347.08	82.12
347.308	76.12
347.535	85.12
347.763	84.12
347.99	91.12
348.218	88.12
348.445	91.12
348.673	88.12
348.9	91.12
349.128	83.12
349.355	87.12
349.583	88.12
349.81	71.12
350.037	103.12
350.265	89.12
350.492	82.12
350.72	79.12
350.947	83.12
351.174	90.12
351.402	79.12
351.629	77.12
351.856	89.12
352.083	78.12
352.311	87.12
352.538	78.12
352.765	91.12
352.992	92.12
353.22	98.12
353.447	85.12
353.674	93.12
353.901	77.12
354.128	83.12
354.355	91.12
354.583	82.12
354.81	95.12
355.037	89.12
355.264	86.12
355.491	70.12
355.718	78.12
355.945	92.12
356.172	90.12
356.399	98.12
356.626	96.12
356.853	97.12
357.08	142.12
357.307	145.12
357.534	143.12
357.761	98.12
357.988	96.12
358.215	99.12
358.441	86.12
358.668	73.12
358.895	69.12
359.122	67.12
359.349	78.12
359.576	92.12
359.802	87.12
360.029	79.12
360.256	89.12
360.483	80.12
360.709	83.12
360.936	92.12
361.163	84.12
361.39	84.12
361.616	73.12
361.843	88.12
362.07	81.12
362.296	80.12
362.523	82.12
362.749	99.12
362.976	85.12
363.203	78.12
363.429	83.12
363.656	137.12
363.882	187.12
364.109	197.12
364.335	131.12
364.562	103.12
364.788	85.12
365.015	91.12
365.241	101.12
365.468	71.12
365.694	86.12
365.92	87.12
366.147	97.12
366.373	92.12
366.599	85.12
366.826	93.12
367.052	116.12
367.278	136.12
367.505	117.12
367.731	115.12
367.957	143.12
368.184	227.12
368.41	266.12
368.636	218.12
368.862	114.12
369.089	91.12
369.315	88.12
369.541	88.12
369.767	92.12
369.993	97.12
370.219	98.12
370.445	81.12
370.672	71.12
370.898	90.12
371.124	74.12
371.35	70.12
371.576	93.12
371.802	87.12
372.028	89.12
372.254	89.12
372.48	90.12
372.706	63.12
372.932	86.12
373.158	69.12
373.384	93.12
373.61	115.12
373.835	142.12
374.061	143.12
374.287	133.12
374.513	88.12
374.739	94.12
374.965	99.12
375.191	101.12
375.416	81.12
375.642	83.12
375.868	91.12
376.094	85.12
376.319	85.12
376.545	85.12
376.771	67.12
376.997	59.12
377.222	75.12
377.448	77.12
377.674	86.12
377.899	81.12
378.125	79.12
378.35	80.12
378.576	107.12
378.802	77.12
379.027	89.12
379.253	99.12
379.478	59.12
379.704	87.12
379.929	96.12
380.155	93.12
380.38	91.12
380.606	77.12
380.831	90.12
381.057	77.12
381.282	85.12
381.507	92.12
381.733	86.12
381.958	67.12
382.184	84.12
382.409	82.12
382.634	93.12
382.86	81.12
383.085	82.12
383.31	83.12
383.535	68.12
383.761	86.12
383.986	82.12
384.211	87.12
384.436	81.12
384.662	86.12
384.887	84.12
385.112	83.12
385.337	83.12
385.562	75.12
385.787	82.12
386.013	83.12
386.238	75.12
386.463	74.12
386.688	98.12
386.913	98.12
387.138	80.12
387.363	85.12
387.588	82.12
387.813	87.12
388.038	85.12
388.263	92.12
388.488	78.12
388.713	92.12
388.938	86.12
389.163	83.12
389.387	85.12
389.612	74.12
389.837	101.12
390.062	62.12
390.287	77.12
390.512	79.12
390.736	85.12
390.961	74.12
391.186	92.12
391.411	73.12
391.636	73.12
391.86	79.12
392.085	88.12
392.31	95.12
392.534	75.12
392.759	93.12
392.984	81.12
393.208	75.12
393.433	88.12
393.658	88.12
393.882	88.12
394.107	87.12
394.331	88.12
394.556	78.12
394.78	79.12
395.005	83.12
395.229	73.12
395.454	90.12
395.678	78.12
395.903	88.12
396.127	75.12
396.352	88.12
396.576	80.12
396.801	88.12
397.025	96.12
397.249	89.12
397.474	93.12
397.698	90.12
397.922	101.12
398.147	79.12
398.371	77.12
398.595	91.12
398.82	81.12
399.044	74.12
399.268	79.12
399.492	72.12
399.717	94.12
399.941	75.12
400.165	90.12
400.389	87.12
400.613	78.12
400.837	82.12
401.062	83.12
401.286	97.12
401.51	92.12
401.734	102.12
401.958	107.12
402.182	111.12
402.406	87.12
402.63	93.12
402.854	99.12
403.078	79.12
403.302	87.12
403.526	92.12
403.75	85.12
403.974	88.12
404.198	93.12
404.422	94.12
404.645	79.12
404.869	112.12
405.093	106.12
405.317	131.12
405.541	237.12
405.765	385.12
405.988	428.12
406.212	223.12
406.436	149.12
406.66	103.12
406.883	104.12
407.107	96.12
407.331	110.12
407.555	77.12
407.778	84.12
408.002	91.12
408.226	90.12
408.449	91.12
408.673	74.12
408.896	94.12
409.12	88.12
409.344	86.12
409.567	86.12
409.791	81.12
410.014	87.12
410.238	94.12
410.461	90.12
410.685	86.12
410.908	90.12
411.132	97.12
411.355	75.12
411.578	89.12
411.802	76.12
412.025	69.12
412.249	89.12
412.472	72.12
412.695	86.12
412.919	82.12
413.142	89.12
413.365	84.12
413.589	83.12
413.812	87.12
414.035	78.12
414.258	77.12
414.482	83.12
414.705	90.12
414.928	77.12
415.151	87.12
415.374	85.12
415.597	81.12
415.821	86.12
416.044	83.12
416.267	82.12
416.49	81.12
416.713	91.12
416.936	105.12
417.159	96.12
417.382	69.12
417.605	89.12
417.828	83.12
418.051	89.12
418.274	96.12
418.497	85.12
418.72	84.12
418.943	101.12
419.166	85.12
419.389	71.12
419.611	80.12
419.834	90.12
420.057	87.12
420.28	85.12
420.503	86.12
420.726	77.12
420.948	81.12
421.171	83.12
421.394	75.12
421.617	77.12
421.839	88.12
422.062	82.12
422.285	66.12
422.507	102.12
422.73	75.12
422.953	84.12
423.175	76.12
423.398	94.12
423.621	81.12
423.843	96.12
424.066	92.12
424.288	76.12
424.511	84.12
424.733	107.12
424.956	89.12
425.178	91.12
425.401	62.12
425.623	71.12
425.846	80.12
426.068	91.12
426.291	85.12
426.513	80.12
426.735	83.12
426.958	84.12
427.18	72.12
427.402	74.12
427.625	77.12
427.847	77.12
428.069	93.12
428.292	83.12
428.514	76.12
428.736	75.12
428.958	81.12
429.181	80.12
429.403	76.12
429.625	90.12
429.847	88.12
430.069	81.12
430.292	82.12
430.514	88.12
430.736	73.12
430.958	81.12
431.18	83.12
431.402	72.12
431.624	75.12
431.846	66.12
432.068	78.12
432.29	85.12
432.512	97.12
432.734	97.12
432.956	90.12
433.178	80.12
433.4	79.12
433.622	72.12
433.844	85.12
434.066	87.12
434.287	81.12
434.509	76.12
434.731	84.12
434.953	83.12
435.175	75.12
435.397	80.12
435.618	86.12
435.84	89.12
436.062	87.12
436.284	80.12
436.505	81.12
436.727	79.12
436.949	80.12
437.17	84.12
437.392	84.12
437.614	84.12
437.835	81.12
438.057	92.12
438.278	77.12
438.5	86.12
438.721	75.12
438.943	82.12
439.165	85.12
439.386	65.12
439.608	93.12
439.829	75.12
440.05	78.12
440.272	82.12
440.493	75.12
440.715	85.12
440.936	87.12
441.158	83.12
441.379	80.12
441.6	88.12
441.822	78.12
442.043	86.12
442.264	80.12
442.486	71.12
442.707	84.12
442.928	67.12
443.149	73.12
443.371	80.12
443.592	93.12
443.813	79.12
444.034	74.12
444.255	77.12
444.476	84.12
444.698	81.12
444.919	90.12
445.14	145.12
445.361	111.12
445.582	93.12
445.803	78.12
446.024	71.12
446.245	86.12
446.466	84.12
446.687	90.12
446.908	81.12
447.129	94.12
447.35	73.12
447.571	77.12
447.792	84.12
448.013	84.12
448.234	89.12
448.455	82.12
448.675	83.12
448.896	90.12
449.117	88.12
449.338	85.12
449.559	99.12
449.779	87.12
450	83.12
450.221	83.12
450.442	89.12
450.662	68.12
450.883	89.12
451.104	86.12
451.324	79.12
451.545	88.12
451.766	79.12
451.986	69.12
452.207	77.12
452.428	93.12
452.648	81.12
452.869	81.12
453.089	76.12
453.31	79.12
453.53	78.12
453.751	93.12
453.971	87.12
454.192	83.12
454.412	97.12
454.633	73.12
454.853	76.12
455.073	65.12
455.294	73.12
455.514	69.12
455.734	85.12
455.955	83.12
456.175	77.12
456.395	80.12
456.616	83.12
456.836	74.12
457.056	87.12
457.276	91.12
457.497	76.12
457.717	80.12
457.937	86.12
458.157	90.12
458.377	77.12
458.598	83.12
458.818	86.12
459.038	77.12
459.258	75.12
459.478	85.12
459.698	90.12
459.918	85.12
460.138	63.12
460.358	67.12
460.578	84.12
460.798	68.12
461.018	88.12
461.238	70.12
461.458	84.12
461.678	78.12
461.898	97.12
462.118	76.12
462.338	92.12
462.558	83.12
462.777	84.12
462.997	71.12
463.217	91.12
463.437	77.12
463.657	88.12
463.876	111.12
464.096	95.12
464.316	91.12
464.536	97.12
464.755	95.12
464.975	87.12
465.195	79.12
465.414	90.12
465.634	80.12
465.854	81.12
466.073	93.12
466.293	90.12
466.512	92.12
466.732	68.12
466.951	91.12
467.171	81.12
467.391	80.12
467.61	89.12
467.829	87.12
468.049	96.12
468.268	96.12
468.488	81.12
468.707	86.12
468.927	73.12
469.146	84.12
469.365	83.12
469.585	82.12
469.804	79.12
470.023	85.12
470.243	69.12
470.462	85.12
470.681	87.12
470.901	71.12
471.12	85.12
471.339	85.12
471.558	92.12
471.777	83.12
471.997	92.12
472.216	75.12
472.435	91.12
472.654	85.12
472.873	75.12
473.092	79.12
473.311	98.12
473.53	83.12
473.749	80.12
473.968	85.12
474.187	77.12
474.406	83.12
474.625	87.12
474.844	91.12
475.063	74.12
475.282	94.12
475.501	93.12
475.72	98.12
475.939	88.12
476.158	82.12
476.377	94.12
476.596	70.12
476.814	98.12
477.033	81.12
477.252	82.12
477.471	89.12
477.69	85.12
477.908	93.12
478.127	81.12
478.346	80.12
478.564	75.12
478.783	85.12
479.002	91.12
479.22	89.12
479.439	86.12
479.658	97.12
479.876	96.12
480.095	80.12
480.313	88.12
480.532	86.12
480.751	85.12
480.969	81.12
481.188	86.12
481.406	94.12
481.624	80.12
481.843	65.12
482.061	87.12
482.28	94.12
482.498	88.12
482.717	74.12
482.935	83.12
483.153	96.12
483.372	93.12
483.59	80.12
483.808	82.12
484.027	82.12
484.245	76.12
484.463	81.12
484.681	85.12
484.9	97.12
485.118	91.12
485.336	91.12
485.554	96.12
485.772	80.12
485.99	85.12
486.209	85.12
486.427	85.12
486.645	78.12
486.863	84.12
487.081	91.12
487.299	82.12
487.517	76.12
487.735	93.12
487.953	103.12
488.171	92.12
488.389	87.12
488.607	97.12
488.825	96.12
489.043	89.12
489.261	96.12
489.479	89.12
489.696	92.12
489.914	90.12
490.132	85.12
490.35	80.12
490.568	90.12
490.786	84.12
491.003	81.12
491.221	89.12
491.439	95.12
491.657	83.12
491.874	73.12
492.092	85.12
492.31	82.12
492.527	87.12
492.745	96.12
492.963	101.12
493.18	93.12
493.398	102.12
493.615	78.12
493.833	79.12
494.05	98.12
494.268	85.12
494.485	90.12
494.703	87.12
494.92	81.12
495.138	73.12
495.355	93.12
495.573	89.12
495.79	85.12
496.008	89.12
496.225	71.12
496.442	89.12
496.66	82.12
496.877	86.12
497.094	89.12
497.312	97.12
497.529	82.12
497.746	82.12
497.963	87.12
498.181	76.12
498.398	93.12
498.615	91.12
498.832	91.12
499.049	92.12
499.267	83.12
499.484	79.12
499.701	88.12
499.918	95.12
500.135	96.12
500.352	103.12
500.569	126.12
500.786	142.12
501.003	82.12
501.22	81.12
501.437	88.12
501.654	93.12
501.871	89.12
502.088	102.12
502.305	84.12
502.522	96.12
502.739	75.12
502.956	97.12
503.172	87.12
503.389	91.12
503.606	89.12
503.823	88.12
504.04	81.12
504.256	88.12
504.473	83.12
504.69	101.12
504.907	91.12
505.123	97.12
505.34	83.12
505.557	85.12
505.773	88.12
505.99	83.12
506.207	87.12
506.423	82.12
506.64	83.12
506.856	83.12
507.073	81.12
507.289	93.12
507.506	79.12
507.722	84.12
507.939	78.12
508.155	79.12
508.372	81.12
508.588	97.12
508.805	103.12
509.021	95.12
509.238	91.12
509.454	85.12
509.67	97.12
509.887	83.12
510.103	96.12
510.319	86.12
510.536	93.12
510.752	98.12
510.968	97.12
511.184	78.12
511.401	79.12
511.617	93.12
511.833	103.12
512.049	81.12
512.265	91.12
512.481	98.12
512.698	88.12
512.914	94.12
513.13	78.12
513.346	78.12
513.562	88.12
513.778	82.12
513.994	80.12
514.21	92.12
514.426	82.12
514.642	99.12
514.858	93.12
515.074	81.12
515.29	86.12
515.506	83.12
515.721	81.12
515.937	101.12
516.153	89.12
516.369	93.12
516.585	98.12
516.801	83.12
517.016	93.12
517.232	83.12
517.448	101.12
517.664	95.12
517.879	82.12
518.095	83.12
518.311	90.12
518.527	74.12
518.742	91.12
518.958	80.12
519.173	103.12
519.389	82.12
519.605	77.12
519.82	77.12
520.036	95.12
520.251	109.12
520.467	105.12
520.682	105.12
520.898	103.12
521.113	91.12
521.329	80.12
521.544	80.12
521.76	89.12
521.975	85.12
522.19	90.12
522.406	82.12
522.621	79.12
522.836	95.12
523.052	91.12
523.267	95.12
523.482	88.12
523.698	89.12
523.913	87.12
524.128	72.12
524.343	93.12
524.559	90.12
524.774	91.12
524.989	92.12
525.204	89.12
525.419	78.12
525.634	80.12
525.849	92.12
526.064	101.12
526.28	96.12
526.495	83.12
526.71	90.12
526.925	85.12
527.14	78.12
527.355	83.12
527.57	85.12
527.785	93.12
527.999	94.12
528.214	86.12
528.429	92.12
528.644	92.12
528.859	72.12
529.074	90.12
529.289	95.12
529.503	97.12
529.718	79.12
529.933	102.12
530.148	93.12
530.363	91.12
530.577	82.12
530.792	83.12
531.007	86.12
531.221	91.12
531.436	74.12
531.651	88.12
531.865	89.12
532.08	86.12
532.295	82.12
532.509	90.12
532.724	88.12
532.938	82.12
533.153	86.12
533.367	92.12
533.582	98.12
533.796	87.12
534.011	94.12
534.225	79.12
534.44	109.12
534.654	88.12
534.868	83.12
535.083	86.12
535.297	89.12
535.511	94.12
535.726	87.12
535.94	71.12
536.154	81.12
536.369	83.12
536.583	82.12
536.797	83.12
537.011	64.12
537.225	93.12
537.44	83.12
537.654	96.12
537.868	83.12
538.082	75.12
538.296	66.12
538.51	94.12
538.724	83.12
538.938	91.12
539.153	79.12
539.367	111.12
539.581	92.12
539.795	86.12
540.009	82.12
540.222	90.12
540.436	86.12
540.65	94.12
540.864	83.12
541.078	87.12
541.292	97.12
541.506	91.12
541.72	88.12
541.934	84.12
542.147	86.12
542.361	82.12
542.575	96.12
542.789	67.12
543.002	82.12
543.216	98.12
543.43	87.12
543.644	88.12
543.857	84.12
544.071	92.12
544.285	99.12
544.498	87.12
544.712	85.12
544.925	95.12
545.139	88.12
545.352	89.12
545.566	85.12
545.779	82.12
545.993	91.12
546.206	92.12
546.42	76.12
546.633	94.12
546.847	94.12
547.06	82.12
547.274	89.12
547.487	87.12
547.7	83.12
547.914	90.12
548.127	93.12
548.34	97.12
548.554	89.12
548.767	93.12
548.98	92.12
549.193	97.12
549.407	104.12
549.62	87.12
549.833	77.12
550.046	79.12
550.259	107.12
550.473	88.12
550.686	103.12
550.899	91.12
551.112	82.12
551.325	80.12
551.538	73.12
551.751	81.12
551.964	78.12
552.177	84.12
552.39	74.12
552.603	85.12
552.816	99.12
553.029	111.12
553.242	86.12
553.455	98.12
553.667	86.12
553.88	94.12
554.093	83.12
554.306	96.12
554.519	80.12
554.732	97.12
554.944	92.12
555.157	82.12
555.37	87.12
555.583	82.12
555.795	82.12
556.008	81.12
556.221	85.12
556.433	87.12
556.646	100.12
556.859	85.12
557.071	86.12
557.284	83.12
557.496	88.12
557.709	104.12
557.921	87.12
558.134	85.12
558.346	83.12
558.559	80.12
558.771	98.12
558.984	103.12
559.196	90.12
559.409	88.12
559.621	107.12
559.833	91.12
560.046	94.12
560.258	98.12
560.47	92.12
560.683	105.12
560.895	97.12
561.107	84.12
561.32	82.12
561.532	97.12
561.744	96.12
561.956	86.12
562.168	88.12
562.381	76.12
562.593	88.12
562.805	91.12
563.017	91.12
563.229	89.12
563.441	87.12
563.653	98.12
563.865	97.12
564.077	89.12
564.289	78.12
564.501	79.12
564.713	82.12
564.925	79.12
565.137	84.12
565.349	97.12
565.561	74.12
565.773	84.12
565.985	75.12
566.197	86.12
566.408	88.12
566.62	99.12
566.832	95.12
567.044	84.12
567.255	91.12
567.467	96.12
567.679	82.12
567.891	78.12
568.102	78.12
568.314	76.12
568.526	72.12
568.737	86.12
568.949	83.12
569.161	85.12
569.372	82.12
569.584	81.12
569.795	94.12
570.007	99.12
570.218	96.12
570.43	74.12
570.641	67.12
570.853	76.12
571.064	88.12
571.276	82.12
571.487	102.12
571.698	85.12
571.91	93.12
572.121	75.12
572.333	98.12
572.544	73.12
572.755	90.12
572.966	87.12
573.178	83.12
573.389	87.12
573.6	88.12
573.811	87.12
574.023	95.12
574.234	94.12
574.445	91.12
574.656	96.12
574.867	99.12
575.078	95.12
575.289	96.12
575.501	99.12
575.712	79.12
575.923	77.12
576.134	93.12
576.345	74.12
576.556	85.12
576.767	85.12
576.978	95.12
577.188	85.12
577.399	86.12
577.61	78.12
577.821	109.12
578.032	82.12
578.243	81.12
578.454	91.12
578.665	94.12
578.875	80.12
579.086	91.12
579.297	85.12
579.508	105.12
579.718	87.12
579.929	93.12
580.14	73.12
580.35	93.12
580.561	86.12
580.772	79.12
580.982	87.12
581.193	75.12
581.403	83.12
581.614	85.12
581.825	90.12
582.035	97.12
582.246	102.12
582.456	84.12
582.667	82.12
582.877	86.12
583.087	86.12
583.298	93.12
583.508	73.12
583.719	90.12
583.929	88.12
584.139	94.12
584.35	73.12
584.56	77.12
584.77	79.12
584.981	74.12
585.191	87.12
585.401	92.12
585.611	82.12
585.821	101.12
586.032	84.12
586.242	88.12
586.452	86.12
586.662	90.12
586.872	81.12
587.082	81.12
587.292	80.12
587.502	79.12
587.713	90.12
587.923	81.12
588.133	87.12
588.343	71.12
588.553	80.12
588.762	92.12
588.972	88.12
589.182	93.12
589.392	76.12
589.602	104.12
589.812	124.12
590.022	93.12
590.232	93.12
590.441	84.12
590.651	104.12
590.861	80.12
591.071	80.12
591.281	101.12
591.49	77.12
591.7	88.12
591.91	90.12
592.119	75.12
592.329	80.12
592.539	93.12
592.748	85.12
592.958	82.12
593.167	91.12
593.377	91.12
593.587	109.12
593.796	98.12
594.006	94.12
594.215	75.12
594.424	95.12
594.634	90.12
594.843	80.12
595.053	81.12
595.262	86.12
595.472	84.12
595.681	86.12
595.89	73.12
596.1	96.12
596.309	87.12
596.518	85.12
596.727	76.12
596.937	90.12
597.146	85.12
597.355	94.12
597.564	79.12
597.774	90.12
597.983	87.12
598.192	90.12
598.401	92.12
598.61	75.12
598.819	89.12
599.028	81.12
599.237	83.12
599.446	79.12
599.655	78.12
599.864	83.12
600.073	85.12
600.282	94.12
600.491	97.12
600.7	94.12
600.909	89.12
601.118	94.12
601.327	82.12
601.536	94.12
601.745	83.12
601.953	91.12
602.162	90.12
602.371	91.12
602.58	88.12
602.789	94.12
602.997	82.12
603.206	63.12
603.415	75.12
603.623	90.12
603.832	82.12
604.041	80.12
604.249	93.12
604.458	92.12
604.666	96.12
604.875	87.12
605.084	86.12
605.292	86.12
605.501	86.12
605.709	96.12
605.918	98.12
606.126	99.12
606.334	88.12
606.543	96.12
606.751	90.12
606.96	92.12
607.168	100.12
607.376	82.12
607.585	82.12
607.793	94.12
608.001	87.12
608.21	78.12
608.418	96.12
608.626	86.12
608.834	79.12
609.043	88.12
609.251	91.12
609.459	80.12
609.667	87.12
609.875	85.12
610.083	74.12
610.291	77.12
610.499	91.12
610.707	91.12
610.916	92.12
611.124	83.12
611.332	99.12
611.54	86.12
611.748	90.12
611.955	87.12
612.163	97.12
612.371	93.12
612.579	89.12
612.787	87.12
612.995	91.12
613.203	90.12
613.411	91.12
613.618	86.12
613.826	84.12
614.034	93.12
614.242	87.12
614.449	80.12
614.657	101.12
614.865	95.12
615.072	69.12
615.28	90.12
615.488	89.12
615.695	91.12
615.903	102.12
616.111	81.12
616.318	79.12
616.526	100.12
616.733	77.12
616.941	78.12
617.148	89.12
617.356	80.12
617.563	77.12
617.771	85.12
617.978	83.12
618.185	74.12
618.393	73.12
618.6	78.12
618.807	83.12
619.015	96.12
619.222	79.12
619.429	83.12
619.637	96.12
619.844	95.12
620.051	89.12
620.258	77.12
620.466	83.12
620.673	90.12
620.88	86.12
621.087	90.12
621.294	97.12
621.501	90.12
621.708	83.12
621.915	83.12
622.122	86.12
622.329	81.12
622.536	88.12
622.743	101.12
622.95	89.12
623.157	87.12
623.364	76.12
623.571	87.12
623.778	79.12
623.985	80.12
624.192	89.12
624.399	82.12
624.606	94.12
624.812	81.12
625.019	90.12
625.226	98.12
625.433	81.12
625.639	75.12
625.846	74.12
626.053	88.12
626.259	75.12
626.466	89.12
626.673	85.12
626.879	79.12
627.086	93.12
627.293	82.12
627.499	80.12
627.706	92.12
627.912	77.12
628.119	81.12
628.325	88.12
628.532	95.12
628.738	79.12
628.945	91.12
629.151	89.12
629.357	85.12
629.564	78.12
629.77	97.12
629.976	65.12
630.183	68.12
630.389	83.12
630.595	77.12
630.802	88.12
631.008	94.12
631.214	94.12
631.42	67.12
631.627	86.12
631.833	76.12
632.039	68.12
632.245	84.12
632.451	80.12
632.657	80.12
632.863	82.12
633.069	74.12
633.275	90.12
633.481	90.12
633.688	67.12
633.893	79.12
634.099	63.12
634.305	79.12
634.511	83.12
634.717	85.12
634.923	83.12
635.129	91.12
635.335	91.12
635.541	89.12
635.747	85.12
635.952	74.12
636.158	79.12
636.364	87.12
636.57	92.12
636.775	101.12
636.981	83.12
637.187	101.12
637.392	73.12
637.598	81.12
637.804	91.12
638.009	77.12
638.215	87.12
638.421	83.12
638.626	94.12
638.832	91.12
639.037	65.12
639.243	82.12
639.448	97.12
639.654	97.12
639.859	89.12
640.065	87.12
640.27	103.12
640.475	93.12
640.681	81.12
640.886	79.12
641.091	86.12
641.297	81.12
641.502	75.12
641.707	104.12
641.913	81.12
642.118	79.12
642.323	72.12
642.528	93.12
642.733	93.12
642.939	85.12
643.144	72.12
643.349	86.12
643.554	81.12
643.759	69.12
643.964	77.12
644.169	73.12
644.374	76.12
644.579	89.12
644.784	76.12
644.989	89.12
645.194	90.12
645.399	94.12
645.604	84.12
645.809	85.12
646.014	73.12
646.219	88.12
646.423	82.12
646.628	57.12
646.833	81.12
647.038	80.12
647.243	87.12
647.447	76.12
647.652	77.12
647.857	86.12
648.062	93.12
648.266	81.12
648.471	85.12
648.676	80.12
648.88	80.12
649.085	78.12
649.289	85.12
649.494	76.12
649.698	88.12
649.903	75.12
650.107	87.12
650.312	91.12
650.516	91.12
650.721	79.12
650.925	89.12
651.13	89.12
651.334	88.12
651.539	85.12
651.743	74.12
651.947	99.12
652.152	91.12
652.356	86.12
652.56	77.12
652.764	82.12
652.969	81.12
653.173	75.12
653.377	75.12
653.581	84.12
653.785	93.12
653.99	84.12
654.194	90.12
654.398	78.12
654.602	77.12
654.806	77.12
655.01	80.12
655.214	71.12
655.418	87.12
655.622	75.12
655.826	85.12
656.03	78.12
656.234	89.12
656.438	72.12
656.642	87.12
656.846	77.12
657.049	86.12
657.253	76.12
657.457	79.12
657.661	90.12
657.865	85.12
658.068	96.12
658.272	83.12
658.476	83.12
658.68	79.12
658.883	76.12
659.087	86.12
659.291	94.12
659.494	93.12
659.698	76.12
659.901	94.12
660.105	96.12
660.309	91.12
660.512	89.12
660.716	92.12
660.919	80.12
661.123	88.12
661.326	66.12
661.53	71.12
661.733	77.12
661.936	86.12
662.14	83.12
662.343	71.12
662.546	75.12
662.75	77.12
662.953	77.12
663.156	80.12
663.36	92.12
663.563	85.12
663.766	78.12
663.969	92.12
664.173	73.12
664.376	86.12
664.579	74.12
664.782	90.12
664.985	91.12
665.188	76.12
665.391	79.12
665.594	78.12
665.797	82.12
666	74.12
666.203	88.12
666.406	96.12
666.609	89.12
666.812	85.12
667.015	93.12
667.218	82.12
667.421	85.12
667.624	81.12
667.827	83.12
668.03	79.12
668.232	88.12
668.435	80.12
668.638	80.12
668.841	72.12
669.043	85.12
669.246	81.12
669.449	72.12
669.651	88.12
669.854	89.12
670.057	104.12
670.259	93.12
670.462	80.12
670.665	75.12
670.867	95.12
671.07	87.12
671.272	84.12
671.475	83.12
671.677	90.12
671.88	78.12
672.082	82.12
672.284	94.12
672.487	83.12
672.689	73.12
672.892	91.12
