Data from StdB_HRD10591_075.txt Node
Date: Fri May 16 15:25:23 EDT 2025
User: Yrep
Spectrometer: HR+D1059
Trigger mode: 1
Integration Time (sec): 1.000000E-1
Scans to average: 1
Electric dark correction enabled: true
Nonlinearity correction enabled: false
Boxcar width: 0
XAxis mode: Wavelengths
Number of Pixels in Spectrum: 2048
>>>>>Begin Spectral Data<<<<<
223.165	-7.94
223.4	-7.94
223.635	-7.94
223.869	-34.94
224.104	-19.94
224.338	-21.94
224.573	-14.94
224.808	-9.94
225.042	-3.94
225.277	8.06
225.511	-5.94
225.746	16.06
225.98	12.06
226.215	4.06
226.449	8.06
226.683	25.06
226.918	26.06
227.152	20.06
227.387	31.06
227.621	46.06
227.856	44.06
228.09	48.06
228.324	42.06
228.559	65.06
228.793	48.06
229.027	52.06
229.262	54.06
229.496	62.06
229.73	72.06
229.964	78.06
230.199	74.06
230.433	81.06
230.667	66.06
230.901	75.06
231.136	72.06
231.37	68.06
231.604	72.06
231.838	78.06
232.072	79.06
232.306	73.06
232.541	74.06
232.775	69.06
233.009	72.06
233.243	76.06
233.477	73.06
233.711	71.06
233.945	84.06
234.179	84.06
234.413	73.06
234.647	79.06
234.881	77.06
235.115	68.06
235.349	71.06
235.583	68.06
235.817	77.06
236.051	73.06
236.285	83.06
236.519	76.06
236.753	72.06
236.987	70.06
237.221	82.06
237.455	77.06
237.689	60.06
237.922	80.06
238.156	63.06
238.39	67.06
238.624	75.06
238.858	72.06
239.091	88.06
239.325	76.06
239.559	74.06
239.793	77.06
240.027	58.06
240.26	66.06
240.494	80.06
240.728	74.06
240.961	91.06
241.195	82.06
241.429	72.06
241.662	84.06
241.896	72.06
242.13	73.06
242.363	87.06
242.597	71.06
242.83	68.06
243.064	66.06
243.298	83.06
243.531	78.06
243.765	62.06
243.998	69.06
244.232	69.06
244.465	81.06
244.699	77.06
244.932	61.06
245.166	57.06
245.399	71.06
245.633	77.06
245.866	66.06
246.099	77.06
246.333	81.06
246.566	85.06
246.8	66.06
247.033	76.06
247.266	77.06
247.5	80.06
247.733	78.06
247.966	98.06
248.2	73.06
248.433	73.06
248.666	72.06
248.899	73.06
249.133	61.06
249.366	73.06
249.599	82.06
249.832	65.06
250.066	73.06
250.299	73.06
250.532	77.06
250.765	61.06
250.998	75.06
251.231	72.06
251.465	89.06
251.698	72.06
251.931	72.06
252.164	64.06
252.397	80.06
252.63	68.06
252.863	71.06
253.096	66.06
253.329	86.06
253.562	86.06
253.795	84.06
254.028	79.06
254.261	76.06
254.494	85.06
254.727	82.06
254.96	68.06
255.193	83.06
255.426	75.06
255.659	69.06
255.892	97.06
256.124	82.06
256.357	62.06
256.59	89.06
256.823	86.06
257.056	77.06
257.289	85.06
257.521	84.06
257.754	78.06
257.987	83.06
258.22	72.06
258.452	76.06
258.685	86.06
258.918	75.06
259.151	68.06
259.383	78.06
259.616	77.06
259.849	71.06
260.081	76.06
260.314	84.06
260.547	75.06
260.779	88.06
261.012	76.06
261.244	83.06
261.477	110.06
261.71	87.06
261.942	78.06
262.175	86.06
262.407	80.06
262.64	86.06
262.872	86.06
263.105	65.06
263.337	71.06
263.57	66.06
263.802	92.06
264.035	84.06
264.267	86.06
264.499	88.06
264.732	80.06
264.964	80.06
265.197	88.06
265.429	80.06
265.661	89.06
265.894	77.06
266.126	103.06
266.358	84.06
266.591	96.06
266.823	84.06
267.055	62.06
267.287	78.06
267.52	76.06
267.752	80.06
267.984	71.06
268.216	87.06
268.448	76.06
268.681	76.06
268.913	72.06
269.145	73.06
269.377	74.06
269.609	86.06
269.841	78.06
270.073	80.06
270.306	64.06
270.538	73.06
270.77	65.06
271.002	77.06
271.234	84.06
271.466	86.06
271.698	82.06
271.93	76.06
272.162	65.06
272.394	70.06
272.626	70.06
272.858	75.06
273.09	76.06
273.322	68.06
273.553	70.06
273.785	83.06
274.017	63.06
274.249	78.06
274.481	74.06
274.713	94.06
274.945	72.06
275.176	69.06
275.408	91.06
275.64	94.06
275.872	75.06
276.104	82.06
276.335	82.06
276.567	90.06
276.799	83.06
277.031	90.06
277.262	79.06
277.494	86.06
277.726	72.06
277.957	77.06
278.189	84.06
278.421	79.06
278.652	77.06
278.884	79.06
279.115	86.06
279.347	86.06
279.579	93.06
279.81	81.06
280.042	102.06
280.273	114.06
280.505	97.06
280.736	88.06
280.968	85.06
281.199	90.06
281.431	88.06
281.662	75.06
281.894	69.06
282.125	80.06
282.356	76.06
282.588	87.06
282.819	82.06
283.051	68.06
283.282	94.06
283.513	111.06
283.745	87.06
283.976	79.06
284.207	86.06
284.439	78.06
284.67	92.06
284.901	71.06
285.132	79.06
285.364	71.06
285.595	79.06
285.826	82.06
286.057	84.06
286.288	66.06
286.52	85.06
286.751	80.06
286.982	85.06
287.213	86.06
287.444	106.06
287.675	89.06
287.906	82.06
288.138	82.06
288.369	71.06
288.6	85.06
288.831	84.06
289.062	83.06
289.293	86.06
289.524	93.06
289.755	83.06
289.986	82.06
290.217	74.06
290.448	70.06
290.679	71.06
290.91	96.06
291.141	70.06
291.371	91.06
291.602	73.06
291.833	88.06
292.064	81.06
292.295	71.06
292.526	87.06
292.757	77.06
292.987	80.06
293.218	79.06
293.449	83.06
293.68	77.06
293.91	75.06
294.141	79.06
294.372	102.06
294.603	63.06
294.833	78.06
295.064	85.06
295.295	84.06
295.525	77.06
295.756	74.06
295.987	85.06
296.217	74.06
296.448	78.06
296.679	87.06
296.909	72.06
297.14	71.06
297.37	81.06
297.601	75.06
297.831	81.06
298.062	98.06
298.292	74.06
298.523	87.06
298.753	81.06
298.984	73.06
299.214	77.06
299.445	87.06
299.675	83.06
299.905	76.06
300.136	83.06
300.366	65.06
300.597	79.06
300.827	83.06
301.057	94.06
301.288	82.06
301.518	83.06
301.748	86.06
301.979	99.06
302.209	82.06
302.439	68.06
302.669	88.06
302.9	87.06
303.13	74.06
303.36	94.06
303.59	88.06
303.82	71.06
304.051	85.06
304.281	88.06
304.511	95.06
304.741	80.06
304.971	74.06
305.201	84.06
305.431	80.06
305.661	94.06
305.891	84.06
306.121	76.06
306.352	85.06
306.582	80.06
306.812	68.06
307.042	83.06
307.272	89.06
307.502	87.06
307.731	80.06
307.961	87.06
308.191	91.06
308.421	73.06
308.651	84.06
308.881	61.06
309.111	88.06
309.341	78.06
309.571	80.06
309.8	96.06
310.03	68.06
310.26	82.06
310.49	77.06
310.72	80.06
310.949	78.06
311.179	76.06
311.409	66.06
311.639	81.06
311.868	81.06
312.098	60.06
312.328	83.06
312.557	74.06
312.787	68.06
313.017	75.06
313.246	87.06
313.476	92.06
313.706	75.06
313.935	72.06
314.165	70.06
314.394	85.06
314.624	80.06
314.853	89.06
315.083	88.06
315.312	81.06
315.542	87.06
315.771	76.06
316.001	90.06
316.23	83.06
316.46	83.06
316.689	72.06
316.919	86.06
317.148	85.06
317.377	69.06
317.607	88.06
317.836	72.06
318.065	92.06
318.295	66.06
318.524	80.06
318.753	84.06
318.983	76.06
319.212	75.06
319.441	76.06
319.67	82.06
319.9	85.06
320.129	86.06
320.358	85.06
320.587	90.06
320.816	76.06
321.046	68.06
321.275	70.06
321.504	71.06
321.733	70.06
321.962	69.06
322.191	74.06
322.42	76.06
322.649	93.06
322.878	81.06
323.108	74.06
323.337	80.06
323.566	87.06
323.795	89.06
324.024	80.06
324.253	90.06
324.482	77.06
324.71	68.06
324.939	74.06
325.168	75.06
325.397	76.06
325.626	96.06
325.855	78.06
326.084	85.06
326.313	82.06
326.542	81.06
326.77	95.06
326.999	104.06
327.228	87.06
327.457	73.06
327.686	76.06
327.914	97.06
328.143	89.06
328.372	80.06
328.6	69.06
328.829	90.06
329.058	87.06
329.287	80.06
329.515	89.06
329.744	70.06
329.972	82.06
330.201	71.06
330.43	76.06
330.658	92.06
330.887	86.06
331.115	89.06
331.344	77.06
331.572	97.06
331.801	91.06
332.03	82.06
332.258	74.06
332.486	87.06
332.715	82.06
332.943	86.06
333.172	82.06
333.4	71.06
333.629	75.06
333.857	81.06
334.085	70.06
334.314	68.06
334.542	83.06
334.771	74.06
334.999	81.06
335.227	87.06
335.455	84.06
335.684	93.06
335.912	100.06
336.14	78.06
336.369	89.06
336.597	76.06
336.825	80.06
337.053	66.06
337.281	90.06
337.51	82.06
337.738	84.06
337.966	83.06
338.194	86.06
338.422	76.06
338.65	71.06
338.878	80.06
339.106	85.06
339.334	90.06
339.562	93.06
339.79	73.06
340.018	77.06
340.246	73.06
340.474	101.06
340.702	81.06
340.93	73.06
341.158	76.06
341.386	89.06
341.614	82.06
341.842	79.06
342.07	81.06
342.298	84.06
342.526	72.06
342.754	85.06
342.981	82.06
343.209	70.06
343.437	90.06
343.665	72.06
343.893	87.06
344.12	86.06
344.348	80.06
344.576	84.06
344.804	85.06
345.031	80.06
345.259	68.06
345.487	83.06
345.714	78.06
345.942	90.06
346.17	74.06
346.397	79.06
346.625	67.06
346.853	77.06
347.08	86.06
347.308	85.06
347.535	80.06
347.763	78.06
347.99	67.06
348.218	84.06
348.445	87.06
348.673	75.06
348.9	83.06
349.128	81.06
349.355	58.06
349.583	70.06
349.81	76.06
350.037	88.06
350.265	80.06
350.492	80.06
350.72	73.06
350.947	74.06
351.174	79.06
351.402	79.06
351.629	78.06
351.856	73.06
352.083	82.06
352.311	84.06
352.538	80.06
352.765	82.06
352.992	80.06
353.22	75.06
353.447	80.06
353.674	76.06
353.901	78.06
354.128	80.06
354.355	88.06
354.583	75.06
354.81	85.06
355.037	72.06
355.264	82.06
355.491	74.06
355.718	85.06
355.945	72.06
356.172	81.06
356.399	91.06
356.626	80.06
356.853	93.06
357.08	114.06
357.307	149.06
357.534	115.06
357.761	81.06
357.988	79.06
358.215	85.06
358.441	76.06
358.668	91.06
358.895	86.06
359.122	72.06
359.349	91.06
359.576	75.06
359.802	72.06
360.029	80.06
360.256	68.06
360.483	80.06
360.709	87.06
360.936	84.06
361.163	84.06
361.39	81.06
361.616	76.06
361.843	73.06
362.07	75.06
362.296	80.06
362.523	72.06
362.749	88.06
362.976	92.06
363.203	82.06
363.429	99.06
363.656	121.06
363.882	153.06
364.109	192.06
364.335	101.06
364.562	68.06
364.788	85.06
365.015	86.06
365.241	74.06
365.468	81.06
365.694	88.06
365.92	87.06
366.147	86.06
366.373	81.06
366.599	79.06
366.826	88.06
367.052	101.06
367.278	104.06
367.505	100.06
367.731	102.06
367.957	136.06
368.184	180.06
368.41	234.06
368.636	170.06
368.862	110.06
369.089	82.06
369.315	80.06
369.541	84.06
369.767	82.06
369.993	62.06
370.219	76.06
370.445	80.06
370.672	85.06
370.898	71.06
371.124	66.06
371.35	86.06
371.576	74.06
371.802	70.06
372.028	77.06
372.254	84.06
372.48	86.06
372.706	88.06
372.932	85.06
373.158	82.06
373.384	88.06
373.61	96.06
373.835	117.06
374.061	128.06
374.287	109.06
374.513	84.06
374.739	63.06
374.965	82.06
375.191	83.06
375.416	80.06
375.642	79.06
375.868	72.06
376.094	77.06
376.319	77.06
376.545	85.06
376.771	82.06
376.997	72.06
377.222	93.06
377.448	91.06
377.674	82.06
377.899	82.06
378.125	83.06
378.35	76.06
378.576	68.06
378.802	84.06
379.027	91.06
379.253	77.06
379.478	64.06
379.704	66.06
379.929	72.06
380.155	68.06
380.38	75.06
380.606	75.06
380.831	82.06
381.057	89.06
381.282	82.06
381.507	88.06
381.733	78.06
381.958	90.06
382.184	81.06
382.409	56.06
382.634	78.06
382.86	82.06
383.085	77.06
383.31	70.06
383.535	60.06
383.761	69.06
383.986	69.06
384.211	76.06
384.436	60.06
384.662	84.06
384.887	79.06
385.112	67.06
385.337	97.06
385.562	91.06
385.787	78.06
386.013	83.06
386.238	77.06
386.463	84.06
386.688	86.06
386.913	74.06
387.138	62.06
387.363	82.06
387.588	58.06
387.813	69.06
388.038	76.06
388.263	84.06
388.488	80.06
388.713	84.06
388.938	81.06
389.163	73.06
389.387	74.06
389.612	75.06
389.837	80.06
390.062	73.06
390.287	76.06
390.512	86.06
390.736	78.06
390.961	83.06
391.186	73.06
391.411	85.06
391.636	76.06
391.86	78.06
392.085	60.06
392.31	80.06
392.534	82.06
392.759	83.06
392.984	81.06
393.208	83.06
393.433	73.06
393.658	67.06
393.882	68.06
394.107	78.06
394.331	78.06
394.556	73.06
394.78	83.06
395.005	86.06
395.229	70.06
395.454	72.06
395.678	77.06
395.903	87.06
396.127	83.06
396.352	83.06
396.576	73.06
396.801	68.06
397.025	85.06
397.249	76.06
397.474	74.06
397.698	79.06
397.922	74.06
398.147	76.06
398.371	83.06
398.595	72.06
398.82	80.06
399.044	70.06
399.268	89.06
399.492	87.06
399.717	74.06
399.941	75.06
400.165	86.06
400.389	88.06
400.613	74.06
400.837	80.06
401.062	73.06
401.286	74.06
401.51	83.06
401.734	92.06
401.958	102.06
402.182	99.06
402.406	85.06
402.63	84.06
402.854	89.06
403.078	60.06
403.302	71.06
403.526	75.06
403.75	85.06
403.974	71.06
404.198	80.06
404.422	66.06
404.645	77.06
404.869	83.06
405.093	102.06
405.317	102.06
405.541	201.06
405.765	324.06
405.988	348.06
406.212	172.06
406.436	144.06
406.66	89.06
406.883	86.06
407.107	92.06
407.331	76.06
407.555	86.06
407.778	80.06
408.002	64.06
408.226	65.06
408.449	85.06
408.673	82.06
408.896	70.06
409.12	79.06
409.344	63.06
409.567	69.06
409.791	83.06
410.014	83.06
410.238	76.06
410.461	76.06
410.685	71.06
410.908	91.06
411.132	92.06
411.355	67.06
411.578	74.06
411.802	82.06
412.025	80.06
412.249	83.06
412.472	86.06
412.695	68.06
412.919	70.06
413.142	78.06
413.365	79.06
413.589	80.06
413.812	83.06
414.035	88.06
414.258	87.06
414.482	76.06
414.705	63.06
414.928	90.06
415.151	79.06
415.374	75.06
415.597	84.06
415.821	68.06
416.044	74.06
416.267	70.06
416.49	64.06
416.713	83.06
416.936	70.06
417.159	76.06
417.382	80.06
417.605	70.06
417.828	81.06
418.051	88.06
418.274	85.06
418.497	77.06
418.72	81.06
418.943	77.06
419.166	85.06
419.389	75.06
419.611	75.06
419.834	75.06
420.057	85.06
420.28	68.06
420.503	82.06
420.726	75.06
420.948	83.06
421.171	72.06
421.394	64.06
421.617	71.06
421.839	80.06
422.062	68.06
422.285	93.06
422.507	93.06
422.73	73.06
422.953	81.06
423.175	81.06
423.398	74.06
423.621	88.06
423.843	78.06
424.066	80.06
424.288	85.06
424.511	88.06
424.733	80.06
424.956	76.06
425.178	63.06
425.401	76.06
425.623	72.06
425.846	70.06
426.068	82.06
426.291	75.06
426.513	74.06
426.735	89.06
426.958	70.06
427.18	82.06
427.402	71.06
427.625	84.06
427.847	70.06
428.069	78.06
428.292	89.06
428.514	88.06
428.736	79.06
428.958	75.06
429.181	82.06
429.403	84.06
429.625	71.06
429.847	68.06
430.069	81.06
430.292	74.06
430.514	73.06
430.736	78.06
430.958	68.06
431.18	88.06
431.402	81.06
431.624	87.06
431.846	72.06
432.068	76.06
432.29	79.06
432.512	89.06
432.734	71.06
432.956	80.06
433.178	77.06
433.4	63.06
433.622	81.06
433.844	79.06
434.066	80.06
434.287	87.06
434.509	80.06
434.731	78.06
434.953	61.06
435.175	82.06
435.397	81.06
435.618	72.06
435.84	74.06
436.062	75.06
436.284	68.06
436.505	84.06
436.727	86.06
436.949	72.06
437.17	74.06
437.392	88.06
437.614	83.06
437.835	80.06
438.057	81.06
438.278	83.06
438.5	62.06
438.721	78.06
438.943	86.06
439.165	83.06
439.386	71.06
439.608	76.06
439.829	76.06
440.05	68.06
440.272	75.06
440.493	76.06
440.715	75.06
440.936	83.06
441.158	91.06
441.379	75.06
441.6	66.06
441.822	81.06
442.043	89.06
442.264	82.06
442.486	72.06
442.707	83.06
442.928	89.06
443.149	83.06
443.371	86.06
443.592	82.06
443.813	76.06
444.034	91.06
444.255	84.06
444.476	80.06
444.698	69.06
444.919	82.06
445.14	139.06
445.361	123.06
445.582	94.06
445.803	86.06
446.024	79.06
446.245	77.06
446.466	73.06
446.687	72.06
446.908	71.06
447.129	71.06
447.35	76.06
447.571	83.06
447.792	80.06
448.013	80.06
448.234	72.06
448.455	71.06
448.675	75.06
448.896	70.06
449.117	91.06
449.338	81.06
449.559	82.06
449.779	79.06
450	74.06
450.221	71.06
450.442	92.06
450.662	91.06
450.883	84.06
451.104	76.06
451.324	70.06
451.545	89.06
451.766	92.06
451.986	83.06
452.207	59.06
452.428	77.06
452.648	68.06
452.869	85.06
453.089	66.06
453.31	81.06
453.53	78.06
453.751	69.06
453.971	78.06
454.192	86.06
454.412	65.06
454.633	88.06
454.853	83.06
455.073	77.06
455.294	68.06
455.514	80.06
455.734	81.06
455.955	85.06
456.175	83.06
456.395	74.06
456.616	80.06
456.836	64.06
457.056	71.06
457.276	74.06
457.497	62.06
457.717	86.06
457.937	87.06
458.157	79.06
458.377	100.06
458.598	55.06
458.818	73.06
459.038	82.06
459.258	76.06
459.478	90.06
459.698	90.06
459.918	85.06
460.138	78.06
460.358	86.06
460.578	75.06
460.798	71.06
461.018	78.06
461.238	94.06
461.458	80.06
461.678	74.06
461.898	82.06
462.118	91.06
462.338	74.06
462.558	90.06
462.777	77.06
462.997	91.06
463.217	69.06
463.437	75.06
463.657	88.06
463.876	82.06
464.096	77.06
464.316	76.06
464.536	61.06
464.755	75.06
464.975	87.06
465.195	68.06
465.414	71.06
465.634	70.06
465.854	89.06
466.073	84.06
466.293	80.06
466.512	83.06
466.732	64.06
466.951	86.06
467.171	77.06
467.391	88.06
467.61	75.06
467.829	66.06
468.049	74.06
468.268	73.06
468.488	74.06
468.707	68.06
468.927	84.06
469.146	87.06
469.365	83.06
469.585	75.06
469.804	77.06
470.023	80.06
470.243	74.06
470.462	87.06
470.681	81.06
470.901	83.06
471.12	79.06
471.339	86.06
471.558	83.06
471.777	87.06
471.997	83.06
472.216	77.06
472.435	78.06
472.654	72.06
472.873	68.06
473.092	77.06
473.311	68.06
473.53	78.06
473.749	91.06
473.968	90.06
474.187	70.06
474.406	82.06
474.625	75.06
474.844	78.06
475.063	73.06
475.282	70.06
475.501	79.06
475.72	84.06
475.939	80.06
476.158	80.06
476.377	89.06
476.596	85.06
476.814	83.06
477.033	78.06
477.252	62.06
477.471	80.06
477.69	82.06
477.908	72.06
478.127	90.06
478.346	74.06
478.564	81.06
478.783	74.06
479.002	89.06
479.22	97.06
479.439	85.06
479.658	68.06
479.876	73.06
480.095	76.06
480.313	81.06
480.532	77.06
480.751	73.06
480.969	75.06
481.188	74.06
481.406	75.06
481.624	71.06
481.843	73.06
482.061	63.06
482.28	90.06
482.498	74.06
482.717	81.06
482.935	72.06
483.153	87.06
483.372	77.06
483.59	92.06
483.808	85.06
484.027	74.06
484.245	74.06
484.463	79.06
484.681	80.06
484.9	75.06
485.118	84.06
485.336	74.06
485.554	82.06
485.772	80.06
485.99	74.06
486.209	70.06
486.427	65.06
486.645	81.06
486.863	70.06
487.081	61.06
487.299	74.06
487.517	86.06
487.735	74.06
487.953	83.06
488.171	75.06
488.389	67.06
488.607	81.06
488.825	101.06
489.043	89.06
489.261	70.06
489.479	77.06
489.696	93.06
489.914	80.06
490.132	76.06
490.35	75.06
490.568	62.06
490.786	75.06
491.003	91.06
491.221	92.06
491.439	76.06
491.657	88.06
491.874	83.06
492.092	91.06
492.31	92.06
492.527	89.06
492.745	89.06
492.963	82.06
493.18	80.06
493.398	89.06
493.615	71.06
493.833	76.06
494.05	86.06
494.268	80.06
494.485	83.06
494.703	77.06
494.92	89.06
495.138	87.06
495.355	84.06
495.573	89.06
495.79	96.06
496.008	89.06
496.225	80.06
496.442	77.06
496.66	76.06
496.877	80.06
497.094	82.06
497.312	76.06
497.529	86.06
497.746	86.06
497.963	88.06
498.181	66.06
498.398	68.06
498.615	81.06
498.832	91.06
499.049	84.06
499.267	79.06
499.484	78.06
499.701	90.06
499.918	80.06
500.135	73.06
500.352	93.06
500.569	113.06
500.786	132.06
501.003	87.06
501.22	98.06
501.437	102.06
501.654	86.06
501.871	93.06
502.088	92.06
502.305	79.06
502.522	103.06
502.739	84.06
502.956	89.06
503.172	94.06
503.389	77.06
503.606	91.06
503.823	70.06
504.04	88.06
504.256	76.06
504.473	83.06
504.69	84.06
504.907	89.06
505.123	82.06
505.34	81.06
505.557	75.06
505.773	78.06
505.99	86.06
506.207	60.06
506.423	79.06
506.64	80.06
506.856	90.06
507.073	72.06
507.289	74.06
507.506	60.06
507.722	74.06
507.939	81.06
508.155	81.06
508.372	82.06
508.588	91.06
508.805	82.06
509.021	73.06
509.238	77.06
509.454	77.06
509.67	72.06
509.887	74.06
510.103	90.06
510.319	81.06
510.536	84.06
510.752	68.06
510.968	85.06
511.184	84.06
511.401	74.06
511.617	84.06
511.833	82.06
512.049	72.06
512.265	72.06
512.481	77.06
512.698	83.06
512.914	89.06
513.13	83.06
513.346	80.06
513.562	66.06
513.778	74.06
513.994	86.06
514.21	75.06
514.426	96.06
514.642	72.06
514.858	86.06
515.074	74.06
515.29	80.06
515.506	80.06
515.721	69.06
515.937	82.06
516.153	96.06
516.369	80.06
516.585	74.06
516.801	82.06
517.016	78.06
517.232	77.06
517.448	71.06
517.664	68.06
517.879	78.06
518.095	74.06
518.311	83.06
518.527	77.06
518.742	82.06
518.958	78.06
519.173	77.06
519.389	75.06
519.605	77.06
519.82	77.06
520.036	85.06
520.251	93.06
520.467	83.06
520.682	83.06
520.898	76.06
521.113	81.06
521.329	84.06
521.544	84.06
521.76	77.06
521.975	83.06
522.19	79.06
522.406	93.06
522.621	70.06
522.836	69.06
523.052	91.06
523.267	70.06
523.482	90.06
523.698	76.06
523.913	70.06
524.128	85.06
524.343	78.06
524.559	87.06
524.774	89.06
524.989	78.06
525.204	70.06
525.419	93.06
525.634	80.06
525.849	68.06
526.064	92.06
526.28	77.06
526.495	82.06
526.71	76.06
526.925	82.06
527.14	77.06
527.355	75.06
527.57	79.06
527.785	83.06
527.999	69.06
528.214	82.06
528.429	85.06
528.644	89.06
528.859	84.06
529.074	89.06
529.289	75.06
529.503	83.06
529.718	89.06
529.933	92.06
530.148	87.06
530.363	68.06
530.577	87.06
530.792	80.06
531.007	80.06
531.221	100.06
531.436	89.06
531.651	87.06
531.865	111.06
532.08	78.06
532.295	80.06
532.509	81.06
532.724	77.06
532.938	76.06
533.153	79.06
533.367	74.06
533.582	84.06
533.796	82.06
534.011	86.06
534.225	66.06
534.44	86.06
534.654	90.06
534.868	83.06
535.083	75.06
535.297	85.06
535.511	74.06
535.726	90.06
535.94	72.06
536.154	78.06
536.369	87.06
536.583	82.06
536.797	76.06
537.011	80.06
537.225	88.06
537.44	89.06
537.654	81.06
537.868	79.06
538.082	75.06
538.296	84.06
538.51	78.06
538.724	71.06
538.938	88.06
539.153	80.06
539.367	88.06
539.581	87.06
539.795	70.06
540.009	85.06
540.222	82.06
540.436	66.06
540.65	80.06
540.864	89.06
541.078	89.06
541.292	94.06
541.506	78.06
541.72	73.06
541.934	77.06
542.147	86.06
542.361	81.06
542.575	83.06
542.789	93.06
543.002	75.06
543.216	77.06
543.43	81.06
543.644	68.06
543.857	77.06
544.071	83.06
544.285	83.06
544.498	83.06
544.712	77.06
544.925	81.06
545.139	77.06
545.352	78.06
545.566	82.06
545.779	96.06
545.993	68.06
546.206	76.06
546.42	83.06
546.633	91.06
546.847	89.06
547.06	76.06
547.274	74.06
547.487	73.06
547.7	76.06
547.914	87.06
548.127	89.06
548.34	86.06
548.554	94.06
548.767	86.06
548.98	72.06
549.193	86.06
549.407	87.06
549.62	72.06
549.833	80.06
550.046	78.06
550.259	74.06
550.473	89.06
550.686	78.06
550.899	86.06
551.112	92.06
551.325	69.06
551.538	82.06
551.751	90.06
551.964	82.06
552.177	83.06
552.39	82.06
552.603	86.06
552.816	80.06
553.029	91.06
553.242	79.06
553.455	87.06
553.667	94.06
553.88	82.06
554.093	76.06
554.306	93.06
554.519	75.06
554.732	81.06
554.944	84.06
555.157	96.06
555.37	58.06
555.583	81.06
555.795	73.06
556.008	80.06
556.221	86.06
556.433	78.06
556.646	84.06
556.859	92.06
557.071	93.06
557.284	73.06
557.496	84.06
557.709	92.06
557.921	68.06
558.134	82.06
558.346	98.06
558.559	81.06
558.771	84.06
558.984	81.06
559.196	70.06
559.409	105.06
559.621	75.06
559.833	66.06
560.046	85.06
560.258	80.06
560.47	78.06
560.683	78.06
560.895	94.06
561.107	81.06
561.32	75.06
561.532	78.06
561.744	86.06
561.956	77.06
562.168	72.06
562.381	93.06
562.593	85.06
562.805	74.06
563.017	78.06
563.229	78.06
563.441	86.06
563.653	81.06
563.865	81.06
564.077	74.06
564.289	82.06
564.501	79.06
564.713	81.06
564.925	69.06
565.137	76.06
565.349	92.06
565.561	85.06
565.773	85.06
565.985	83.06
566.197	89.06
566.408	80.06
566.62	98.06
566.832	90.06
567.044	79.06
567.255	75.06
567.467	70.06
567.679	81.06
567.891	72.06
568.102	75.06
568.314	73.06
568.526	84.06
568.737	83.06
568.949	74.06
569.161	75.06
569.372	76.06
569.584	80.06
569.795	83.06
570.007	80.06
570.218	69.06
570.43	88.06
570.641	80.06
570.853	70.06
571.064	76.06
571.276	81.06
571.487	84.06
571.698	90.06
571.91	92.06
572.121	80.06
572.333	82.06
572.544	82.06
572.755	77.06
572.966	73.06
573.178	89.06
573.389	90.06
573.6	92.06
573.811	78.06
574.023	93.06
574.234	79.06
574.445	76.06
574.656	81.06
574.867	89.06
575.078	94.06
575.289	65.06
575.501	87.06
575.712	86.06
575.923	74.06
576.134	76.06
576.345	80.06
576.556	91.06
576.767	104.06
576.978	90.06
577.188	89.06
577.399	83.06
577.61	83.06
577.821	96.06
578.032	92.06
578.243	76.06
578.454	83.06
578.665	84.06
578.875	65.06
579.086	72.06
579.297	84.06
579.508	83.06
579.718	81.06
579.929	89.06
580.14	77.06
580.35	79.06
580.561	87.06
580.772	85.06
580.982	76.06
581.193	80.06
581.403	73.06
581.614	74.06
581.825	74.06
582.035	75.06
582.246	78.06
582.456	86.06
582.667	64.06
582.877	75.06
583.087	86.06
583.298	93.06
583.508	70.06
583.719	91.06
583.929	88.06
584.139	93.06
584.35	91.06
584.56	86.06
584.77	73.06
584.981	71.06
585.191	84.06
585.401	86.06
585.611	69.06
585.821	89.06
586.032	89.06
586.242	88.06
586.452	101.06
586.662	80.06
586.872	77.06
587.082	76.06
587.292	75.06
587.502	86.06
587.713	65.06
587.923	88.06
588.133	86.06
588.343	76.06
588.553	76.06
588.762	96.06
588.972	94.06
589.182	92.06
589.392	87.06
589.602	87.06
589.812	74.06
590.022	92.06
590.232	81.06
590.441	77.06
590.651	84.06
590.861	75.06
591.071	85.06
591.281	79.06
591.49	75.06
591.7	77.06
591.91	82.06
592.119	68.06
592.329	74.06
592.539	84.06
592.748	90.06
592.958	87.06
593.167	78.06
593.377	68.06
593.587	88.06
593.796	70.06
594.006	82.06
594.215	94.06
594.424	77.06
594.634	78.06
594.843	76.06
595.053	86.06
595.262	77.06
595.472	77.06
595.681	81.06
595.89	90.06
596.1	87.06
596.309	83.06
596.518	80.06
596.727	72.06
596.937	83.06
597.146	82.06
597.355	78.06
597.564	82.06
597.774	78.06
597.983	87.06
598.192	98.06
598.401	82.06
598.61	71.06
598.819	88.06
599.028	81.06
599.237	73.06
599.446	75.06
599.655	92.06
599.864	75.06
600.073	64.06
600.282	65.06
600.491	101.06
600.7	81.06
600.909	81.06
601.118	84.06
601.327	72.06
601.536	99.06
601.745	87.06
601.953	85.06
602.162	85.06
602.371	75.06
602.58	64.06
602.789	81.06
602.997	93.06
603.206	100.06
603.415	91.06
603.623	102.06
603.832	72.06
604.041	66.06
604.249	78.06
604.458	72.06
604.666	78.06
604.875	85.06
605.084	72.06
605.292	75.06
605.501	84.06
605.709	82.06
605.918	80.06
606.126	68.06
606.334	82.06
606.543	89.06
606.751	89.06
606.96	75.06
607.168	70.06
607.376	89.06
607.585	88.06
607.793	86.06
608.001	75.06
608.21	78.06
608.418	85.06
608.626	84.06
608.834	87.06
609.043	77.06
609.251	75.06
609.459	85.06
609.667	86.06
609.875	74.06
610.083	67.06
610.291	63.06
610.499	71.06
610.707	75.06
610.916	85.06
611.124	91.06
611.332	85.06
611.54	84.06
611.748	69.06
611.955	84.06
612.163	78.06
612.371	80.06
612.579	77.06
612.787	84.06
612.995	81.06
613.203	78.06
613.411	76.06
613.618	76.06
613.826	77.06
614.034	74.06
614.242	83.06
614.449	86.06
614.657	72.06
614.865	85.06
615.072	82.06
615.28	73.06
615.488	83.06
615.695	82.06
615.903	88.06
616.111	84.06
616.318	88.06
616.526	90.06
616.733	88.06
616.941	81.06
617.148	79.06
617.356	78.06
617.563	72.06
617.771	85.06
617.978	96.06
618.185	80.06
618.393	83.06
618.6	78.06
618.807	69.06
619.015	84.06
619.222	60.06
619.429	85.06
619.637	92.06
619.844	87.06
620.051	91.06
620.258	84.06
620.466	78.06
620.673	70.06
620.88	73.06
621.087	96.06
621.294	81.06
621.501	93.06
621.708	77.06
621.915	85.06
622.122	80.06
622.329	73.06
622.536	82.06
622.743	74.06
622.95	74.06
623.157	84.06
623.364	86.06
623.571	74.06
623.778	73.06
623.985	80.06
624.192	66.06
624.399	88.06
624.606	77.06
624.812	86.06
625.019	73.06
625.226	83.06
625.433	63.06
625.639	75.06
625.846	74.06
626.053	70.06
626.259	82.06
626.466	73.06
626.673	78.06
626.879	77.06
627.086	76.06
627.293	79.06
627.499	78.06
627.706	82.06
627.912	74.06
628.119	79.06
628.325	96.06
628.532	71.06
628.738	92.06
628.945	83.06
629.151	81.06
629.357	78.06
629.564	76.06
629.77	79.06
629.976	76.06
630.183	89.06
630.389	76.06
630.595	70.06
630.802	89.06
631.008	83.06
631.214	62.06
631.42	81.06
631.627	84.06
631.833	85.06
632.039	82.06
632.245	98.06
632.451	85.06
632.657	75.06
632.863	76.06
633.069	68.06
633.275	74.06
633.481	74.06
633.688	78.06
633.893	84.06
634.099	68.06
634.305	69.06
634.511	85.06
634.717	79.06
634.923	80.06
635.129	89.06
635.335	62.06
635.541	70.06
635.747	71.06
635.952	67.06
636.158	76.06
636.364	85.06
636.57	78.06
636.775	70.06
636.981	73.06
637.187	68.06
637.392	76.06
637.598	93.06
637.804	86.06
638.009	85.06
638.215	81.06
638.421	73.06
638.626	68.06
638.832	59.06
639.037	74.06
639.243	70.06
639.448	88.06
639.654	88.06
639.859	71.06
640.065	76.06
640.27	82.06
640.475	79.06
640.681	94.06
640.886	81.06
641.091	74.06
641.297	74.06
641.502	81.06
641.707	87.06
641.913	69.06
642.118	72.06
642.323	70.06
642.528	79.06
642.733	89.06
642.939	99.06
643.144	69.06
643.349	79.06
643.554	72.06
643.759	71.06
643.964	75.06
644.169	79.06
644.374	85.06
644.579	66.06
644.784	84.06
644.989	81.06
645.194	79.06
645.399	60.06
645.604	76.06
645.809	92.06
646.014	68.06
646.219	81.06
646.423	82.06
646.628	81.06
646.833	83.06
647.038	63.06
647.243	88.06
647.447	79.06
647.652	78.06
647.857	75.06
648.062	66.06
648.266	96.06
648.471	77.06
648.676	85.06
648.88	83.06
649.085	77.06
649.289	78.06
649.494	74.06
649.698	76.06
649.903	81.06
650.107	68.06
650.312	81.06
650.516	76.06
650.721	68.06
650.925	85.06
651.13	86.06
651.334	80.06
651.539	76.06
651.743	69.06
651.947	80.06
652.152	77.06
652.356	78.06
652.56	75.06
652.764	73.06
652.969	92.06
653.173	77.06
653.377	61.06
653.581	82.06
653.785	74.06
653.99	80.06
654.194	88.06
654.398	81.06
654.602	56.06
654.806	72.06
655.01	83.06
655.214	88.06
655.418	82.06
655.622	68.06
655.826	81.06
656.03	64.06
656.234	69.06
656.438	70.06
656.642	75.06
656.846	89.06
657.049	82.06
657.253	67.06
657.457	69.06
657.661	76.06
657.865	75.06
658.068	69.06
658.272	77.06
658.476	62.06
658.68	74.06
658.883	84.06
659.087	83.06
659.291	72.06
659.494	76.06
659.698	76.06
659.901	81.06
660.105	76.06
660.309	76.06
660.512	99.06
660.716	81.06
660.919	82.06
661.123	83.06
661.326	76.06
661.53	74.06
661.733	93.06
661.936	87.06
662.14	81.06
662.343	90.06
662.546	84.06
662.75	80.06
662.953	68.06
663.156	71.06
663.36	78.06
663.563	76.06
663.766	72.06
663.969	70.06
664.173	83.06
664.376	77.06
664.579	67.06
664.782	85.06
664.985	74.06
665.188	80.06
665.391	77.06
665.594	74.06
665.797	91.06
666	87.06
666.203	67.06
666.406	75.06
666.609	73.06
666.812	74.06
667.015	81.06
667.218	81.06
667.421	79.06
667.624	80.06
667.827	76.06
668.03	66.06
668.232	62.06
668.435	63.06
668.638	78.06
668.841	92.06
669.043	72.06
669.246	76.06
669.449	75.06
669.651	84.06
669.854	59.06
670.057	77.06
670.259	74.06
670.462	76.06
670.665	82.06
670.867	82.06
671.07	84.06
671.272	73.06
671.475	82.06
671.677	80.06
671.88	65.06
672.082	86.06
672.284	83.06
672.487	84.06
672.689	89.06
672.892	76.06
