Data from Mixnoheat2_HRD10591_00005.txt Node
Date: Fri Dec 27 14:59:44 EST 2024
User: Yrep
Spectrometer: HR+D1059
Trigger mode: 1
Integration Time (sec): 1.000000E-1
Scans to average: 1
Electric dark correction enabled: true
Nonlinearity correction enabled: false
Boxcar width: 0
XAxis mode: Wavelengths
Number of Pixels in Spectrum: 2048
>>>>>Begin Spectral Data<<<<<
223.165	-13.25
223.4	-13.25
223.635	-13.25
223.869	-23.25
224.104	-8.25
224.338	-26.25
224.573	-8.25
224.808	-17.25
225.042	-12.25
225.277	-5.25
225.511	-0.25
225.746	13.75
225.98	-3.25
226.215	21.75
226.449	13.75
226.683	19.75
226.918	22.75
227.152	25.75
227.387	36.75
227.621	42.75
227.856	46.75
228.09	51.75
228.324	48.75
228.559	69.75
228.793	54.75
229.027	59.75
229.262	70.75
229.496	61.75
229.73	64.75
229.964	82.75
230.199	64.75
230.433	76.75
230.667	61.75
230.901	86.75
231.136	76.75
231.37	67.75
231.604	75.75
231.838	89.75
232.072	84.75
232.306	88.75
232.541	82.75
232.775	82.75
233.009	84.75
233.243	82.75
233.477	79.75
233.711	90.75
233.945	90.75
234.179	84.75
234.413	90.75
234.647	76.75
234.881	96.75
235.115	90.75
235.349	67.75
235.583	83.75
235.817	80.75
236.051	74.75
236.285	70.75
236.519	83.75
236.753	64.75
236.987	94.75
237.221	68.75
237.455	67.75
237.689	71.75
237.922	76.75
238.156	89.75
238.39	76.75
238.624	72.75
238.858	79.75
239.091	88.75
239.325	80.75
239.559	65.75
239.793	70.75
240.027	63.75
240.26	78.75
240.494	86.75
240.728	74.75
240.961	73.75
241.195	75.75
241.429	72.75
241.662	74.75
241.896	77.75
242.13	86.75
242.363	74.75
242.597	78.75
242.83	72.75
243.064	71.75
243.298	73.75
243.531	75.75
243.765	76.75
243.998	78.75
244.232	61.75
244.465	71.75
244.699	81.75
244.932	80.75
245.166	77.75
245.399	84.75
245.633	72.75
245.866	84.75
246.099	66.75
246.333	90.75
246.566	87.75
246.8	72.75
247.033	80.75
247.266	84.75
247.5	74.75
247.733	85.75
247.966	83.75
248.2	75.75
248.433	83.75
248.666	77.75
248.899	75.75
249.133	74.75
249.366	89.75
249.599	75.75
249.832	90.75
250.066	89.75
250.299	90.75
250.532	78.75
250.765	88.75
250.998	68.75
251.231	82.75
251.465	81.75
251.698	83.75
251.931	89.75
252.164	78.75
252.397	86.75
252.63	82.75
252.863	73.75
253.096	68.75
253.329	61.75
253.562	78.75
253.795	76.75
254.028	93.75
254.261	84.75
254.494	78.75
254.727	85.75
254.96	72.75
255.193	79.75
255.426	77.75
255.659	84.75
255.892	79.75
256.124	68.75
256.357	59.75
256.59	74.75
256.823	68.75
257.056	79.75
257.289	84.75
257.521	86.75
257.754	79.75
257.987	84.75
258.22	87.75
258.452	88.75
258.685	69.75
258.918	90.75
259.151	84.75
259.383	90.75
259.616	79.75
259.849	82.75
260.081	81.75
260.314	86.75
260.547	93.75
260.779	74.75
261.012	82.75
261.244	79.75
261.477	86.75
261.71	84.75
261.942	79.75
262.175	79.75
262.407	75.75
262.64	91.75
262.872	78.75
263.105	87.75
263.337	84.75
263.57	79.75
263.802	82.75
264.035	66.75
264.267	87.75
264.499	78.75
264.732	94.75
264.964	89.75
265.197	88.75
265.429	98.75
265.661	99.75
265.894	81.75
266.126	98.75
266.358	86.75
266.591	77.75
266.823	79.75
267.055	93.75
267.287	85.75
267.52	81.75
267.752	89.75
267.984	91.75
268.216	62.75
268.448	82.75
268.681	73.75
268.913	89.75
269.145	79.75
269.377	83.75
269.609	84.75
269.841	81.75
270.073	98.75
270.306	68.75
270.538	78.75
270.77	90.75
271.002	85.75
271.234	77.75
271.466	86.75
271.698	71.75
271.93	80.75
272.162	81.75
272.394	78.75
272.626	92.75
272.858	83.75
273.09	84.75
273.322	85.75
273.553	84.75
273.785	90.75
274.017	69.75
274.249	80.75
274.481	91.75
274.713	84.75
274.945	70.75
275.176	88.75
275.408	88.75
275.64	83.75
275.872	88.75
276.104	87.75
276.335	67.75
276.567	82.75
276.799	87.75
277.031	89.75
277.262	87.75
277.494	83.75
277.726	88.75
277.957	73.75
278.189	61.75
278.421	79.75
278.652	84.75
278.884	88.75
279.115	79.75
279.347	77.75
279.579	68.75
279.81	66.75
280.042	63.75
280.273	81.75
280.505	86.75
280.736	82.75
280.968	88.75
281.199	78.75
281.431	85.75
281.662	91.75
281.894	99.75
282.125	86.75
282.356	92.75
282.588	83.75
282.819	76.75
283.051	86.75
283.282	92.75
283.513	78.75
283.745	79.75
283.976	83.75
284.207	85.75
284.439	82.75
284.67	87.75
284.901	76.75
285.132	92.75
285.364	84.75
285.595	87.75
285.826	76.75
286.057	92.75
286.288	74.75
286.52	90.75
286.751	82.75
286.982	90.75
287.213	74.75
287.444	92.75
287.675	82.75
287.906	83.75
288.138	79.75
288.369	76.75
288.6	88.75
288.831	71.75
289.062	83.75
289.293	86.75
289.524	72.75
289.755	70.75
289.986	76.75
290.217	91.75
290.448	77.75
290.679	93.75
290.91	75.75
291.141	84.75
291.371	83.75
291.602	74.75
291.833	79.75
292.064	78.75
292.295	87.75
292.526	81.75
292.757	75.75
292.987	84.75
293.218	85.75
293.449	93.75
293.68	85.75
293.91	91.75
294.141	87.75
294.372	90.75
294.603	86.75
294.833	86.75
295.064	78.75
295.295	80.75
295.525	84.75
295.756	86.75
295.987	82.75
296.217	83.75
296.448	90.75
296.679	85.75
296.909	81.75
297.14	78.75
297.37	88.75
297.601	70.75
297.831	89.75
298.062	74.75
298.292	76.75
298.523	92.75
298.753	93.75
298.984	74.75
299.214	77.75
299.445	84.75
299.675	80.75
299.905	92.75
300.136	88.75
300.366	75.75
300.597	88.75
300.827	92.75
301.057	85.75
301.288	84.75
301.518	73.75
301.748	88.75
301.979	100.75
302.209	100.75
302.439	94.75
302.669	72.75
302.9	71.75
303.13	92.75
303.36	80.75
303.59	88.75
303.82	85.75
304.051	96.75
304.281	86.75
304.511	79.75
304.741	86.75
304.971	77.75
305.201	94.75
305.431	72.75
305.661	85.75
305.891	83.75
306.121	71.75
306.352	83.75
306.582	82.75
306.812	86.75
307.042	78.75
307.272	79.75
307.502	85.75
307.731	82.75
307.961	82.75
308.191	72.75
308.421	61.75
308.651	85.75
308.881	84.75
309.111	76.75
309.341	90.75
309.571	85.75
309.8	91.75
310.03	94.75
310.26	83.75
310.49	79.75
310.72	82.75
310.949	69.75
311.179	81.75
311.409	86.75
311.639	74.75
311.868	74.75
312.098	78.75
312.328	83.75
312.557	95.75
312.787	90.75
313.017	93.75
313.246	77.75
313.476	95.75
313.706	91.75
313.935	77.75
314.165	72.75
314.394	86.75
314.624	86.75
314.853	78.75
315.083	77.75
315.312	86.75
315.542	83.75
315.771	74.75
316.001	77.75
316.23	84.75
316.46	87.75
316.689	84.75
316.919	87.75
317.148	99.75
317.377	80.75
317.607	90.75
317.836	71.75
318.065	86.75
318.295	90.75
318.524	102.75
318.753	79.75
318.983	91.75
319.212	83.75
319.441	94.75
319.67	83.75
319.9	84.75
320.129	94.75
320.358	87.75
320.587	87.75
320.816	92.75
321.046	96.75
321.275	72.75
321.504	100.75
321.733	84.75
321.962	81.75
322.191	79.75
322.42	78.75
322.649	93.75
322.878	96.75
323.108	99.75
323.337	83.75
323.566	79.75
323.795	82.75
324.024	89.75
324.253	79.75
324.482	68.75
324.71	85.75
324.939	84.75
325.168	88.75
325.397	77.75
325.626	104.75
325.855	89.75
326.084	98.75
326.313	94.75
326.542	86.75
326.77	83.75
326.999	86.75
327.228	72.75
327.457	73.75
327.686	79.75
327.914	79.75
328.143	85.75
328.372	93.75
328.6	69.75
328.829	102.75
329.058	86.75
329.287	105.75
329.515	78.75
329.744	83.75
329.972	79.75
330.201	93.75
330.43	83.75
330.658	80.75
330.887	101.75
331.115	92.75
331.344	82.75
331.572	78.75
331.801	77.75
332.03	81.75
332.258	95.75
332.486	92.75
332.715	86.75
332.943	75.75
333.172	73.75
333.4	90.75
333.629	83.75
333.857	89.75
334.085	76.75
334.314	65.75
334.542	79.75
334.771	82.75
334.999	82.75
335.227	79.75
335.455	90.75
335.684	98.75
335.912	82.75
336.14	86.75
336.369	88.75
336.597	76.75
336.825	83.75
337.053	92.75
337.281	91.75
337.51	85.75
337.738	80.75
337.966	89.75
338.194	78.75
338.422	82.75
338.65	95.75
338.878	108.75
339.106	91.75
339.334	96.75
339.562	86.75
339.79	95.75
340.018	76.75
340.246	75.75
340.474	83.75
340.702	86.75
340.93	77.75
341.158	76.75
341.386	76.75
341.614	75.75
341.842	72.75
342.07	78.75
342.298	83.75
342.526	70.75
342.754	87.75
342.981	90.75
343.209	76.75
343.437	106.75
343.665	75.75
343.893	79.75
344.12	98.75
344.348	70.75
344.576	89.75
344.804	95.75
345.031	82.75
345.259	77.75
345.487	83.75
345.714	86.75
345.942	91.75
346.17	74.75
346.397	75.75
346.625	90.75
346.853	82.75
347.08	82.75
347.308	86.75
347.535	87.75
347.763	94.75
347.99	84.75
348.218	94.75
348.445	78.75
348.673	84.75
348.9	91.75
349.128	84.75
349.355	83.75
349.583	87.75
349.81	88.75
350.037	93.75
350.265	84.75
350.492	82.75
350.72	79.75
350.947	75.75
351.174	79.75
351.402	82.75
351.629	86.75
351.856	83.75
352.083	80.75
352.311	93.75
352.538	91.75
352.765	91.75
352.992	95.75
353.22	92.75
353.447	83.75
353.674	96.75
353.901	85.75
354.128	99.75
354.355	93.75
354.583	70.75
354.81	89.75
355.037	97.75
355.264	98.75
355.491	72.75
355.718	89.75
355.945	85.75
356.172	77.75
356.399	85.75
356.626	86.75
356.853	94.75
357.08	89.75
357.307	83.75
357.534	81.75
357.761	83.75
357.988	91.75
358.215	84.75
358.441	85.75
358.668	86.75
358.895	88.75
359.122	83.75
359.349	88.75
359.576	82.75
359.802	80.75
360.029	84.75
360.256	78.75
360.483	85.75
360.709	62.75
360.936	79.75
361.163	71.75
361.39	80.75
361.616	82.75
361.843	81.75
362.07	80.75
362.296	85.75
362.523	77.75
362.749	86.75
362.976	82.75
363.203	92.75
363.429	93.75
363.656	83.75
363.882	77.75
364.109	89.75
364.335	89.75
364.562	70.75
364.788	91.75
365.015	90.75
365.241	88.75
365.468	81.75
365.694	86.75
365.92	91.75
366.147	99.75
366.373	92.75
366.599	83.75
366.826	82.75
367.052	89.75
367.278	78.75
367.505	93.75
367.731	86.75
367.957	81.75
368.184	93.75
368.41	73.75
368.636	76.75
368.862	78.75
369.089	78.75
369.315	81.75
369.541	85.75
369.767	94.75
369.993	95.75
370.219	72.75
370.445	70.75
370.672	92.75
370.898	95.75
371.124	90.75
371.35	84.75
371.576	73.75
371.802	82.75
372.028	95.75
372.254	84.75
372.48	75.75
372.706	79.75
372.932	88.75
373.158	84.75
373.384	84.75
373.61	93.75
373.835	76.75
374.061	88.75
374.287	86.75
374.513	87.75
374.739	90.75
374.965	86.75
375.191	83.75
375.416	75.75
375.642	63.75
375.868	80.75
376.094	91.75
376.319	79.75
376.545	89.75
376.771	84.75
376.997	85.75
377.222	78.75
377.448	93.75
377.674	63.75
377.899	79.75
378.125	79.75
378.35	92.75
378.576	75.75
378.802	84.75
379.027	95.75
379.253	84.75
379.478	87.75
379.704	88.75
379.929	77.75
380.155	79.75
380.38	74.75
380.606	81.75
380.831	83.75
381.057	84.75
381.282	104.75
381.507	87.75
381.733	99.75
381.958	86.75
382.184	89.75
382.409	90.75
382.634	68.75
382.86	90.75
383.085	86.75
383.31	82.75
383.535	84.75
383.761	84.75
383.986	83.75
384.211	70.75
384.436	80.75
384.662	82.75
384.887	73.75
385.112	93.75
385.337	63.75
385.562	76.75
385.787	90.75
386.013	86.75
386.238	79.75
386.463	83.75
386.688	88.75
386.913	85.75
387.138	86.75
387.363	80.75
387.588	82.75
387.813	99.75
388.038	91.75
388.263	78.75
388.488	76.75
388.713	94.75
388.938	66.75
389.163	83.75
389.387	84.75
389.612	71.75
389.837	77.75
390.062	77.75
390.287	76.75
390.512	86.75
390.736	88.75
390.961	86.75
391.186	79.75
391.411	81.75
391.636	80.75
391.86	79.75
392.085	73.75
392.31	82.75
392.534	78.75
392.759	83.75
392.984	79.75
393.208	82.75
393.433	111.75
393.658	99.75
393.882	84.75
394.107	88.75
394.331	96.75
394.556	91.75
394.78	83.75
395.005	82.75
395.229	90.75
395.454	84.75
395.678	87.75
395.903	79.75
396.127	95.75
396.352	90.75
396.576	88.75
396.801	99.75
397.025	100.75
397.249	91.75
397.474	88.75
397.698	89.75
397.922	94.75
398.147	86.75
398.371	85.75
398.595	100.75
398.82	87.75
399.044	79.75
399.268	82.75
399.492	77.75
399.717	87.75
399.941	74.75
400.165	99.75
400.389	80.75
400.613	94.75
400.837	79.75
401.062	97.75
401.286	81.75
401.51	73.75
401.734	92.75
401.958	90.75
402.182	76.75
402.406	83.75
402.63	83.75
402.854	95.75
403.078	86.75
403.302	100.75
403.526	81.75
403.75	86.75
403.974	92.75
404.198	90.75
404.422	99.75
404.645	98.75
404.869	101.75
405.093	87.75
405.317	83.75
405.541	90.75
405.765	96.75
405.988	79.75
406.212	81.75
406.436	83.75
406.66	94.75
406.883	93.75
407.107	79.75
407.331	82.75
407.555	72.75
407.778	85.75
408.002	82.75
408.226	75.75
408.449	73.75
408.673	67.75
408.896	94.75
409.12	74.75
409.344	85.75
409.567	81.75
409.791	77.75
410.014	79.75
410.238	74.75
410.461	84.75
410.685	83.75
410.908	74.75
411.132	78.75
411.355	87.75
411.578	75.75
411.802	81.75
412.025	79.75
412.249	70.75
412.472	72.75
412.695	96.75
412.919	94.75
413.142	81.75
413.365	95.75
413.589	94.75
413.812	87.75
414.035	86.75
414.258	74.75
414.482	79.75
414.705	84.75
414.928	73.75
415.151	78.75
415.374	82.75
415.597	75.75
415.821	80.75
416.044	91.75
416.267	87.75
416.49	87.75
416.713	75.75
416.936	91.75
417.159	93.75
417.382	69.75
417.605	106.75
417.828	79.75
418.051	82.75
418.274	74.75
418.497	77.75
418.72	86.75
418.943	74.75
419.166	77.75
419.389	91.75
419.611	90.75
419.834	88.75
420.057	93.75
420.28	75.75
420.503	82.75
420.726	73.75
420.948	86.75
421.171	104.75
421.394	69.75
421.617	100.75
421.839	74.75
422.062	85.75
422.285	105.75
422.507	109.75
422.73	125.75
422.953	131.75
423.175	110.75
423.398	82.75
423.621	80.75
423.843	78.75
424.066	79.75
424.288	91.75
424.511	67.75
424.733	68.75
424.956	82.75
425.178	82.75
425.401	86.75
425.623	82.75
425.846	73.75
426.068	84.75
426.291	74.75
426.513	85.75
426.735	58.75
426.958	80.75
427.18	84.75
427.402	87.75
427.625	82.75
427.847	68.75
428.069	83.75
428.292	83.75
428.514	87.75
428.736	86.75
428.958	98.75
429.181	86.75
429.403	79.75
429.625	84.75
429.847	83.75
430.069	92.75
430.292	105.75
430.514	94.75
430.736	87.75
430.958	85.75
431.18	74.75
431.402	93.75
431.624	83.75
431.846	90.75
432.068	88.75
432.29	83.75
432.512	84.75
432.734	89.75
432.956	75.75
433.178	81.75
433.4	81.75
433.622	89.75
433.844	86.75
434.066	83.75
434.287	74.75
434.509	71.75
434.731	79.75
434.953	81.75
435.175	73.75
435.397	86.75
435.618	84.75
435.84	73.75
436.062	87.75
436.284	83.75
436.505	80.75
436.727	90.75
436.949	85.75
437.17	94.75
437.392	86.75
437.614	76.75
437.835	84.75
438.057	87.75
438.278	85.75
438.5	93.75
438.721	85.75
438.943	87.75
439.165	86.75
439.386	85.75
439.608	87.75
439.829	87.75
440.05	97.75
440.272	89.75
440.493	80.75
440.715	76.75
440.936	85.75
441.158	99.75
441.379	72.75
441.6	89.75
441.822	88.75
442.043	91.75
442.264	85.75
442.486	100.75
442.707	106.75
442.928	92.75
443.149	103.75
443.371	107.75
443.592	108.75
443.813	103.75
444.034	81.75
444.255	68.75
444.476	88.75
444.698	79.75
444.919	80.75
445.14	156.75
445.361	129.75
445.582	125.75
445.803	115.75
446.024	89.75
446.245	84.75
446.466	80.75
446.687	80.75
446.908	79.75
447.129	84.75
447.35	89.75
447.571	81.75
447.792	77.75
448.013	72.75
448.234	91.75
448.455	79.75
448.675	86.75
448.896	77.75
449.117	71.75
449.338	78.75
449.559	96.75
449.779	75.75
450	81.75
450.221	82.75
450.442	83.75
450.662	70.75
450.883	71.75
451.104	76.75
451.324	85.75
451.545	90.75
451.766	76.75
451.986	92.75
452.207	84.75
452.428	85.75
452.648	79.75
452.869	82.75
453.089	95.75
453.31	70.75
453.53	82.75
453.751	99.75
453.971	95.75
454.192	86.75
454.412	67.75
454.633	89.75
454.853	87.75
455.073	76.75
455.294	83.75
455.514	83.75
455.734	91.75
455.955	81.75
456.175	85.75
456.395	89.75
456.616	77.75
456.836	75.75
457.056	80.75
457.276	92.75
457.497	78.75
457.717	88.75
457.937	82.75
458.157	77.75
458.377	88.75
458.598	88.75
458.818	102.75
459.038	88.75
459.258	83.75
459.478	95.75
459.698	85.75
459.918	76.75
460.138	62.75
460.358	86.75
460.578	92.75
460.798	92.75
461.018	86.75
461.238	95.75
461.458	91.75
461.678	77.75
461.898	80.75
462.118	91.75
462.338	84.75
462.558	100.75
462.777	92.75
462.997	91.75
463.217	76.75
463.437	69.75
463.657	86.75
463.876	87.75
464.096	85.75
464.316	72.75
464.536	82.75
464.755	82.75
464.975	76.75
465.195	89.75
465.414	77.75
465.634	82.75
465.854	82.75
466.073	72.75
466.293	96.75
466.512	102.75
466.732	79.75
466.951	85.75
467.171	77.75
467.391	91.75
467.61	85.75
467.829	84.75
468.049	75.75
468.268	85.75
468.488	90.75
468.707	74.75
468.927	81.75
469.146	90.75
469.365	88.75
469.585	82.75
469.804	89.75
470.023	72.75
470.243	95.75
470.462	86.75
470.681	93.75
470.901	84.75
471.12	82.75
471.339	84.75
471.558	86.75
471.777	79.75
471.997	72.75
472.216	88.75
472.435	77.75
472.654	78.75
472.873	95.75
473.092	88.75
473.311	76.75
473.53	79.75
473.749	74.75
473.968	85.75
474.187	68.75
474.406	81.75
474.625	87.75
474.844	83.75
475.063	72.75
475.282	83.75
475.501	76.75
475.72	94.75
475.939	90.75
476.158	92.75
476.377	87.75
476.596	81.75
476.814	79.75
477.033	75.75
477.252	76.75
477.471	71.75
477.69	80.75
477.908	72.75
478.127	91.75
478.346	85.75
478.564	91.75
478.783	78.75
479.002	88.75
479.22	70.75
479.439	87.75
479.658	66.75
479.876	68.75
480.095	89.75
480.313	87.75
480.532	89.75
480.751	87.75
480.969	99.75
481.188	78.75
481.406	91.75
481.624	91.75
481.843	96.75
482.061	75.75
482.28	78.75
482.498	85.75
482.717	82.75
482.935	69.75
483.153	83.75
483.372	73.75
483.59	78.75
483.808	72.75
484.027	89.75
484.245	90.75
484.463	76.75
484.681	89.75
484.9	88.75
485.118	96.75
485.336	95.75
485.554	87.75
485.772	90.75
485.99	89.75
486.209	85.75
486.427	85.75
486.645	84.75
486.863	81.75
487.081	79.75
487.299	89.75
487.517	96.75
487.735	91.75
487.953	88.75
488.171	101.75
488.389	82.75
488.607	78.75
488.825	82.75
489.043	96.75
489.261	95.75
489.479	77.75
489.696	70.75
489.914	75.75
490.132	91.75
490.35	78.75
490.568	89.75
490.786	82.75
491.003	70.75
491.221	86.75
491.439	95.75
491.657	73.75
491.874	85.75
492.092	92.75
492.31	90.75
492.527	82.75
492.745	91.75
492.963	87.75
493.18	84.75
493.398	89.75
493.615	71.75
493.833	94.75
494.05	69.75
494.268	92.75
494.485	92.75
494.703	76.75
494.92	90.75
495.138	79.75
495.355	85.75
495.573	79.75
495.79	85.75
496.008	95.75
496.225	84.75
496.442	86.75
496.66	87.75
496.877	78.75
497.094	86.75
497.312	75.75
497.529	83.75
497.746	73.75
497.963	77.75
498.181	78.75
498.398	76.75
498.615	90.75
498.832	101.75
499.049	94.75
499.267	91.75
499.484	85.75
499.701	71.75
499.918	87.75
500.135	96.75
500.352	85.75
500.569	87.75
500.786	100.75
501.003	98.75
501.22	91.75
501.437	77.75
501.654	92.75
501.871	75.75
502.088	80.75
502.305	89.75
502.522	90.75
502.739	86.75
502.956	85.75
503.172	80.75
503.389	96.75
503.606	92.75
503.823	95.75
504.04	80.75
504.256	92.75
504.473	90.75
504.69	86.75
504.907	79.75
505.123	77.75
505.34	76.75
505.557	85.75
505.773	87.75
505.99	93.75
506.207	86.75
506.423	80.75
506.64	78.75
506.856	96.75
507.073	84.75
507.289	92.75
507.506	80.75
507.722	86.75
507.939	95.75
508.155	97.75
508.372	88.75
508.588	92.75
508.805	79.75
509.021	84.75
509.238	77.75
509.454	82.75
509.67	91.75
509.887	79.75
510.103	92.75
510.319	80.75
510.536	88.75
510.752	88.75
510.968	91.75
511.184	79.75
511.401	77.75
511.617	88.75
511.833	85.75
512.049	77.75
512.265	85.75
512.481	74.75
512.698	66.75
512.914	76.75
513.13	90.75
513.346	98.75
513.562	93.75
513.778	85.75
513.994	86.75
514.21	83.75
514.426	95.75
514.642	76.75
514.858	80.75
515.074	100.75
515.29	87.75
515.506	74.75
515.721	83.75
515.937	88.75
516.153	90.75
516.369	78.75
516.585	91.75
516.801	74.75
517.016	75.75
517.232	94.75
517.448	99.75
517.664	82.75
517.879	84.75
518.095	98.75
518.311	72.75
518.527	94.75
518.742	76.75
518.958	86.75
519.173	93.75
519.389	90.75
519.605	83.75
519.82	87.75
520.036	81.75
520.251	88.75
520.467	76.75
520.682	86.75
520.898	92.75
521.113	85.75
521.329	92.75
521.544	93.75
521.76	96.75
521.975	90.75
522.19	92.75
522.406	81.75
522.621	84.75
522.836	82.75
523.052	85.75
523.267	91.75
523.482	106.75
523.698	79.75
523.913	77.75
524.128	94.75
524.343	87.75
524.559	82.75
524.774	79.75
524.989	85.75
525.204	95.75
525.419	80.75
525.634	87.75
525.849	91.75
526.064	103.75
526.28	108.75
526.495	117.75
526.71	112.75
526.925	108.75
527.14	115.75
527.355	114.75
527.57	104.75
527.785	71.75
527.999	102.75
528.214	77.75
528.429	85.75
528.644	85.75
528.859	82.75
529.074	91.75
529.289	82.75
529.503	77.75
529.718	83.75
529.933	79.75
530.148	90.75
530.363	95.75
530.577	78.75
530.792	82.75
531.007	93.75
531.221	90.75
531.436	92.75
531.651	97.75
531.865	77.75
532.08	66.75
532.295	84.75
532.509	86.75
532.724	78.75
532.938	78.75
533.153	94.75
533.367	84.75
533.582	98.75
533.796	94.75
534.011	93.75
534.225	95.75
534.44	85.75
534.654	77.75
534.868	87.75
535.083	93.75
535.297	86.75
535.511	92.75
535.726	101.75
535.94	90.75
536.154	99.75
536.369	69.75
536.583	102.75
536.797	88.75
537.011	79.75
537.225	94.75
537.44	91.75
537.654	79.75
537.868	90.75
538.082	83.75
538.296	88.75
538.51	98.75
538.724	84.75
538.938	88.75
539.153	83.75
539.367	78.75
539.581	89.75
539.795	87.75
540.009	82.75
540.222	77.75
540.436	99.75
540.65	92.75
540.864	83.75
541.078	84.75
541.292	91.75
541.506	83.75
541.72	99.75
541.934	98.75
542.147	78.75
542.361	84.75
542.575	74.75
542.789	92.75
543.002	90.75
543.216	76.75
543.43	86.75
543.644	83.75
543.857	93.75
544.071	87.75
544.285	109.75
544.498	84.75
544.712	83.75
544.925	79.75
545.139	91.75
545.352	78.75
545.566	87.75
545.779	87.75
545.993	88.75
546.206	93.75
546.42	86.75
546.633	96.75
546.847	90.75
547.06	83.75
547.274	101.75
547.487	92.75
547.7	93.75
547.914	102.75
548.127	100.75
548.34	88.75
548.554	102.75
548.767	110.75
548.98	95.75
549.193	82.75
549.407	84.75
549.62	95.75
549.833	94.75
550.046	110.75
550.259	87.75
550.473	104.75
550.686	107.75
550.899	92.75
551.112	100.75
551.325	93.75
551.538	110.75
551.751	110.75
551.964	114.75
552.177	120.75
552.39	95.75
552.603	100.75
552.816	113.75
553.029	108.75
553.242	112.75
553.455	103.75
553.667	105.75
553.88	105.75
554.093	111.75
554.306	116.75
554.519	109.75
554.732	128.75
554.944	116.75
555.157	108.75
555.37	114.75
555.583	98.75
555.795	100.75
556.008	102.75
556.221	100.75
556.433	98.75
556.646	111.75
556.859	99.75
557.071	87.75
557.284	83.75
557.496	71.75
557.709	93.75
557.921	108.75
558.134	89.75
558.346	100.75
558.559	106.75
558.771	115.75
558.984	125.75
559.196	144.75
559.409	116.75
559.621	119.75
559.833	126.75
560.046	136.75
560.258	127.75
560.47	104.75
560.683	92.75
560.895	92.75
561.107	88.75
561.32	87.75
561.532	76.75
561.744	69.75
561.956	77.75
562.168	82.75
562.381	84.75
562.593	93.75
562.805	80.75
563.017	95.75
563.229	87.75
563.441	101.75
563.653	83.75
563.865	81.75
564.077	91.75
564.289	91.75
564.501	78.75
564.713	85.75
564.925	88.75
565.137	91.75
565.349	74.75
565.561	86.75
565.773	87.75
565.985	83.75
566.197	72.75
566.408	82.75
566.62	108.75
566.832	92.75
567.044	80.75
567.255	87.75
567.467	80.75
567.679	93.75
567.891	93.75
568.102	94.75
568.314	90.75
568.526	89.75
568.737	93.75
568.949	87.75
569.161	94.75
569.372	79.75
569.584	78.75
569.795	86.75
570.007	80.75
570.218	94.75
570.43	83.75
570.641	91.75
570.853	83.75
571.064	88.75
571.276	88.75
571.487	85.75
571.698	93.75
571.91	83.75
572.121	89.75
572.333	79.75
572.544	80.75
572.755	96.75
572.966	88.75
573.178	88.75
573.389	98.75
573.6	66.75
573.811	87.75
574.023	84.75
574.234	79.75
574.445	87.75
574.656	74.75
574.867	78.75
575.078	91.75
575.289	93.75
575.501	78.75
575.712	94.75
575.923	92.75
576.134	99.75
576.345	95.75
576.556	98.75
576.767	94.75
576.978	85.75
577.188	98.75
577.399	80.75
577.61	98.75
577.821	88.75
578.032	82.75
578.243	98.75
578.454	101.75
578.665	108.75
578.875	87.75
579.086	78.75
579.297	90.75
579.508	84.75
579.718	81.75
579.929	85.75
580.14	99.75
580.35	96.75
580.561	100.75
580.772	108.75
580.982	97.75
581.193	95.75
581.403	98.75
581.614	90.75
581.825	87.75
582.035	90.75
582.246	81.75
582.456	104.75
582.667	78.75
582.877	86.75
583.087	87.75
583.298	93.75
583.508	88.75
583.719	101.75
583.929	79.75
584.139	96.75
584.35	91.75
584.56	101.75
584.77	79.75
584.981	104.75
585.191	90.75
585.401	88.75
585.611	93.75
585.821	112.75
586.032	102.75
586.242	82.75
586.452	74.75
586.662	90.75
586.872	93.75
587.082	77.75
587.292	102.75
587.502	84.75
587.713	91.75
587.923	82.75
588.133	91.75
588.343	77.75
588.553	85.75
588.762	94.75
588.972	103.75
589.182	147.75
589.392	124.75
589.602	97.75
589.812	115.75
590.022	91.75
590.232	100.75
590.441	86.75
590.651	95.75
590.861	92.75
591.071	102.75
591.281	94.75
591.49	77.75
591.7	96.75
591.91	102.75
592.119	83.75
592.329	83.75
592.539	88.75
592.748	83.75
592.958	91.75
593.167	98.75
593.377	104.75
593.587	91.75
593.796	93.75
594.006	103.75
594.215	92.75
594.424	100.75
594.634	100.75
594.843	92.75
595.053	90.75
595.262	87.75
595.472	74.75
595.681	86.75
595.89	87.75
596.1	96.75
596.309	88.75
596.518	97.75
596.727	86.75
596.937	92.75
597.146	87.75
597.355	87.75
597.564	99.75
597.774	97.75
597.983	99.75
598.192	101.75
598.401	94.75
598.61	98.75
598.819	104.75
599.028	95.75
599.237	84.75
599.446	94.75
599.655	114.75
599.864	98.75
600.073	95.75
600.282	108.75
600.491	111.75
600.7	96.75
600.909	104.75
601.118	101.75
601.327	94.75
601.536	110.75
601.745	91.75
601.953	96.75
602.162	88.75
602.371	102.75
602.58	98.75
602.789	103.75
602.997	82.75
603.206	102.75
603.415	107.75
603.623	100.75
603.832	103.75
604.041	108.75
604.249	80.75
604.458	96.75
604.666	99.75
604.875	103.75
605.084	101.75
605.292	99.75
605.501	101.75
605.709	100.75
605.918	101.75
606.126	110.75
606.334	102.75
606.543	96.75
606.751	109.75
606.96	108.75
607.168	116.75
607.376	102.75
607.585	99.75
607.793	88.75
608.001	89.75
608.21	104.75
608.418	88.75
608.626	98.75
608.834	115.75
609.043	110.75
609.251	114.75
609.459	98.75
609.667	118.75
609.875	112.75
610.083	117.75
610.291	110.75
610.499	128.75
610.707	114.75
610.916	115.75
611.124	108.75
611.332	108.75
611.54	75.75
611.748	112.75
611.955	96.75
612.163	122.75
612.371	140.75
612.579	117.75
612.787	114.75
612.995	115.75
613.203	104.75
613.411	97.75
613.618	105.75
613.826	103.75
614.034	114.75
614.242	128.75
614.449	111.75
614.657	110.75
614.865	109.75
615.072	114.75
615.28	106.75
615.488	105.75
615.695	107.75
615.903	128.75
616.111	121.75
616.318	155.75
616.526	153.75
616.733	136.75
616.941	129.75
617.148	147.75
617.356	110.75
617.563	109.75
617.771	104.75
617.978	99.75
618.185	101.75
618.393	113.75
618.6	102.75
618.807	101.75
619.015	106.75
619.222	107.75
619.429	110.75
619.637	103.75
619.844	121.75
620.051	111.75
620.258	100.75
620.466	115.75
620.673	107.75
620.88	131.75
621.087	111.75
621.294	106.75
621.501	97.75
621.708	103.75
621.915	108.75
622.122	111.75
622.329	115.75
622.536	113.75
622.743	109.75
622.95	113.75
623.157	107.75
623.364	135.75
623.571	108.75
623.778	111.75
623.985	120.75
624.192	122.75
624.399	115.75
624.606	134.75
624.812	127.75
625.019	124.75
625.226	138.75
625.433	138.75
625.639	114.75
625.846	103.75
626.053	103.75
626.259	122.75
626.466	109.75
626.673	115.75
626.879	109.75
627.086	122.75
627.293	117.75
627.499	118.75
627.706	105.75
627.912	114.75
628.119	99.75
628.325	112.75
628.532	91.75
628.738	84.75
628.945	94.75
629.151	92.75
629.357	88.75
629.564	88.75
629.77	90.75
629.976	88.75
630.183	89.75
630.389	83.75
630.595	86.75
630.802	87.75
631.008	92.75
631.214	88.75
631.42	102.75
631.627	103.75
631.833	87.75
632.039	78.75
632.245	88.75
632.451	91.75
632.657	107.75
632.863	82.75
633.069	95.75
633.275	76.75
633.481	92.75
633.688	95.75
633.893	99.75
634.099	90.75
634.305	91.75
634.511	92.75
634.717	94.75
634.923	102.75
635.129	84.75
635.335	88.75
635.541	85.75
635.747	95.75
635.952	102.75
636.158	90.75
636.364	78.75
636.57	99.75
636.775	95.75
636.981	92.75
637.187	101.75
637.392	109.75
637.598	90.75
637.804	93.75
638.009	87.75
638.215	91.75
638.421	92.75
638.626	91.75
638.832	78.75
639.037	90.75
639.243	95.75
639.448	84.75
639.654	95.75
639.859	83.75
640.065	80.75
640.27	90.75
640.475	71.75
640.681	83.75
640.886	79.75
641.091	101.75
641.297	92.75
641.502	87.75
641.707	73.75
641.913	85.75
642.118	101.75
642.323	80.75
642.528	103.75
642.733	87.75
642.939	92.75
643.144	93.75
643.349	91.75
643.554	94.75
643.759	101.75
643.964	96.75
644.169	90.75
644.374	82.75
644.579	87.75
644.784	87.75
644.989	78.75
645.194	89.75
645.399	91.75
645.604	91.75
645.809	95.75
646.014	83.75
646.219	89.75
646.423	93.75
646.628	88.75
646.833	74.75
647.038	84.75
647.243	77.75
647.447	80.75
647.652	87.75
647.857	87.75
648.062	91.75
648.266	86.75
648.471	72.75
648.676	98.75
648.88	83.75
649.085	90.75
649.289	77.75
649.494	93.75
649.698	99.75
649.903	90.75
650.107	95.75
650.312	84.75
650.516	80.75
650.721	71.75
650.925	83.75
651.13	85.75
651.334	82.75
651.539	80.75
651.743	83.75
651.947	82.75
652.152	92.75
652.356	97.75
652.56	74.75
652.764	71.75
652.969	80.75
653.173	80.75
653.377	79.75
653.581	77.75
653.785	84.75
653.99	82.75
654.194	77.75
654.398	93.75
654.602	90.75
654.806	82.75
655.01	85.75
655.214	86.75
655.418	85.75
655.622	82.75
655.826	88.75
656.03	88.75
656.234	84.75
656.438	84.75
656.642	79.75
656.846	86.75
657.049	84.75
657.253	81.75
657.457	79.75
657.661	86.75
657.865	94.75
658.068	75.75
658.272	71.75
658.476	59.75
658.68	67.75
658.883	72.75
659.087	94.75
659.291	85.75
659.494	88.75
659.698	76.75
659.901	81.75
660.105	82.75
660.309	79.75
660.512	82.75
660.716	84.75
660.919	89.75
661.123	73.75
661.326	85.75
661.53	91.75
661.733	90.75
661.936	79.75
662.14	76.75
662.343	85.75
662.546	88.75
662.75	86.75
662.953	92.75
663.156	85.75
663.36	64.75
663.563	75.75
663.766	73.75
663.969	93.75
664.173	75.75
664.376	77.75
664.579	76.75
664.782	81.75
664.985	82.75
665.188	79.75
665.391	88.75
665.594	79.75
665.797	78.75
666	90.75
666.203	83.75
666.406	86.75
666.609	81.75
666.812	82.75
667.015	89.75
667.218	94.75
667.421	94.75
667.624	76.75
667.827	92.75
668.03	75.75
668.232	76.75
668.435	87.75
668.638	86.75
668.841	85.75
669.043	85.75
669.246	87.75
669.449	79.75
669.651	83.75
669.854	95.75
670.057	72.75
670.259	78.75
670.462	75.75
670.665	80.75
670.867	98.75
671.07	64.75
671.272	90.75
671.475	82.75
671.677	77.75
671.88	85.75
672.082	82.75
672.284	87.75
672.487	90.75
672.689	80.75
672.892	72.75
