Data from Uncirc_1996_H10_HRD10591_00040.txt Node
Date: Wed Jan 03 11:32:10 EST 2024
User: Yrep
Spectrometer: HR+D1059
Trigger mode: 1
Integration Time (sec): 1.000000E-1
Scans to average: 1
Electric dark correction enabled: true
Nonlinearity correction enabled: false
Boxcar width: 0
XAxis mode: Wavelengths
Number of Pixels in Spectrum: 2048
>>>>>Begin Spectral Data<<<<<
223.165	-18.62
223.4	-18.62
223.635	-18.62
223.869	-14.62
224.104	-21.62
224.338	-25.62
224.573	-23.62
224.808	-11.62
225.042	-4.62
225.277	1.38
225.511	-7.62
225.746	8.38
225.98	-3.62
226.215	-0.62
226.449	31.38
226.683	24.38
226.918	35.38
227.152	31.38
227.387	31.38
227.621	45.38
227.856	46.38
228.09	40.38
228.324	46.38
228.559	45.38
228.793	53.38
229.027	73.38
229.262	68.38
229.496	69.38
229.73	90.38
229.964	90.38
230.199	68.38
230.433	82.38
230.667	83.38
230.901	76.38
231.136	84.38
231.37	81.38
231.604	74.38
231.838	88.38
232.072	86.38
232.306	80.38
232.541	69.38
232.775	73.38
233.009	82.38
233.243	80.38
233.477	85.38
233.711	75.38
233.945	80.38
234.179	85.38
234.413	96.38
234.647	82.38
234.881	78.38
235.115	69.38
235.349	78.38
235.583	77.38
235.817	81.38
236.051	74.38
236.285	85.38
236.519	84.38
236.753	72.38
236.987	71.38
237.221	85.38
237.455	96.38
237.689	73.38
237.922	84.38
238.156	60.38
238.39	88.38
238.624	76.38
238.858	68.38
239.091	73.38
239.325	73.38
239.559	71.38
239.793	70.38
240.027	69.38
240.26	71.38
240.494	80.38
240.728	81.38
240.961	72.38
241.195	83.38
241.429	78.38
241.662	80.38
241.896	69.38
242.13	65.38
242.363	70.38
242.597	86.38
242.83	93.38
243.064	82.38
243.298	86.38
243.531	76.38
243.765	68.38
243.998	80.38
244.232	73.38
244.465	80.38
244.699	68.38
244.932	64.38
245.166	75.38
245.399	82.38
245.633	89.38
245.866	66.38
246.099	71.38
246.333	80.38
246.566	84.38
246.8	70.38
247.033	59.38
247.266	88.38
247.5	84.38
247.733	74.38
247.966	85.38
248.2	91.38
248.433	90.38
248.666	81.38
248.899	92.38
249.133	89.38
249.366	103.38
249.599	91.38
249.832	72.38
250.066	87.38
250.299	71.38
250.532	78.38
250.765	78.38
250.998	84.38
251.231	80.38
251.465	80.38
251.698	78.38
251.931	77.38
252.164	72.38
252.397	74.38
252.63	82.38
252.863	78.38
253.096	72.38
253.329	86.38
253.562	69.38
253.795	78.38
254.028	89.38
254.261	82.38
254.494	77.38
254.727	80.38
254.96	90.38
255.193	80.38
255.426	73.38
255.659	80.38
255.892	86.38
256.124	76.38
256.357	81.38
256.59	91.38
256.823	70.38
257.056	93.38
257.289	86.38
257.521	81.38
257.754	70.38
257.987	72.38
258.22	95.38
258.452	86.38
258.685	74.38
258.918	86.38
259.151	76.38
259.383	88.38
259.616	85.38
259.849	80.38
260.081	83.38
260.314	74.38
260.547	92.38
260.779	81.38
261.012	70.38
261.244	88.38
261.477	83.38
261.71	74.38
261.942	101.38
262.175	109.38
262.407	89.38
262.64	102.38
262.872	86.38
263.105	85.38
263.337	68.38
263.57	79.38
263.802	79.38
264.035	78.38
264.267	84.38
264.499	63.38
264.732	72.38
264.964	76.38
265.197	85.38
265.429	87.38
265.661	70.38
265.894	87.38
266.126	95.38
266.358	89.38
266.591	79.38
266.823	74.38
267.055	76.38
267.287	69.38
267.52	85.38
267.752	77.38
267.984	73.38
268.216	89.38
268.448	89.38
268.681	84.38
268.913	74.38
269.145	79.38
269.377	88.38
269.609	105.38
269.841	85.38
270.073	92.38
270.306	82.38
270.538	85.38
270.77	83.38
271.002	78.38
271.234	82.38
271.466	87.38
271.698	66.38
271.93	90.38
272.162	94.38
272.394	99.38
272.626	82.38
272.858	77.38
273.09	88.38
273.322	85.38
273.553	86.38
273.785	98.38
274.017	93.38
274.249	85.38
274.481	69.38
274.713	90.38
274.945	85.38
275.176	93.38
275.408	72.38
275.64	81.38
275.872	79.38
276.104	89.38
276.335	95.38
276.567	97.38
276.799	112.38
277.031	97.38
277.262	86.38
277.494	89.38
277.726	87.38
277.957	97.38
278.189	74.38
278.421	92.38
278.652	74.38
278.884	83.38
279.115	86.38
279.347	92.38
279.579	84.38
279.81	81.38
280.042	78.38
280.273	99.38
280.505	92.38
280.736	78.38
280.968	86.38
281.199	93.38
281.431	93.38
281.662	88.38
281.894	85.38
282.125	77.38
282.356	109.38
282.588	122.38
282.819	107.38
283.051	89.38
283.282	97.38
283.513	81.38
283.745	87.38
283.976	89.38
284.207	90.38
284.439	93.38
284.67	86.38
284.901	85.38
285.132	72.38
285.364	83.38
285.595	84.38
285.826	92.38
286.057	85.38
286.288	81.38
286.52	85.38
286.751	86.38
286.982	79.38
287.213	77.38
287.444	102.38
287.675	77.38
287.906	84.38
288.138	103.38
288.369	99.38
288.6	80.38
288.831	83.38
289.062	93.38
289.293	80.38
289.524	77.38
289.755	86.38
289.986	72.38
290.217	82.38
290.448	87.38
290.679	74.38
290.91	94.38
291.141	74.38
291.371	92.38
291.602	92.38
291.833	76.38
292.064	81.38
292.295	88.38
292.526	90.38
292.757	85.38
292.987	75.38
293.218	95.38
293.449	82.38
293.68	81.38
293.91	92.38
294.141	81.38
294.372	86.38
294.603	96.38
294.833	93.38
295.064	75.38
295.295	70.38
295.525	87.38
295.756	96.38
295.987	102.38
296.217	136.38
296.448	106.38
296.679	103.38
296.909	96.38
297.14	89.38
297.37	84.38
297.601	78.38
297.831	97.38
298.062	89.38
298.292	92.38
298.523	74.38
298.753	82.38
298.984	83.38
299.214	80.38
299.445	85.38
299.675	82.38
299.905	91.38
300.136	93.38
300.366	85.38
300.597	81.38
300.827	86.38
301.057	100.38
301.288	98.38
301.518	95.38
301.748	73.38
301.979	81.38
302.209	85.38
302.439	102.38
302.669	98.38
302.9	97.38
303.13	89.38
303.36	97.38
303.59	98.38
303.82	106.38
304.051	97.38
304.281	96.38
304.511	95.38
304.741	94.38
304.971	69.38
305.201	85.38
305.431	87.38
305.661	85.38
305.891	74.38
306.121	93.38
306.352	105.38
306.582	92.38
306.812	88.38
307.042	84.38
307.272	91.38
307.502	95.38
307.731	89.38
307.961	84.38
308.191	92.38
308.421	92.38
308.651	102.38
308.881	98.38
309.111	98.38
309.341	94.38
309.571	79.38
309.8	84.38
310.03	106.38
310.26	84.38
310.49	88.38
310.72	102.38
310.949	98.38
311.179	105.38
311.409	92.38
311.639	106.38
311.868	91.38
312.098	113.38
312.328	96.38
312.557	88.38
312.787	108.38
313.017	86.38
313.246	90.38
313.476	101.38
313.706	96.38
313.935	102.38
314.165	100.38
314.394	94.38
314.624	79.38
314.853	88.38
315.083	86.38
315.312	91.38
315.542	98.38
315.771	87.38
316.001	80.38
316.23	93.38
316.46	89.38
316.689	104.38
316.919	100.38
317.148	85.38
317.377	96.38
317.607	89.38
317.836	94.38
318.065	99.38
318.295	100.38
318.524	84.38
318.753	92.38
318.983	89.38
319.212	105.38
319.441	101.38
319.67	108.38
319.9	101.38
320.129	95.38
320.358	99.38
320.587	94.38
320.816	72.38
321.046	98.38
321.275	102.38
321.504	98.38
321.733	96.38
321.962	98.38
322.191	104.38
322.42	111.38
322.649	92.38
322.878	105.38
323.108	106.38
323.337	121.38
323.566	122.38
323.795	148.38
324.024	196.38
324.253	406.38
324.482	806.38
324.71	1673.38
324.939	2166.38
325.168	796.38
325.397	235.38
325.626	139.38
325.855	119.38
326.084	123.38
326.313	116.38
326.542	140.38
326.77	219.38
326.999	442.38
327.228	913.38
327.457	1701.38
327.686	1288.38
327.914	374.38
328.143	208.38
328.372	168.38
328.6	121.38
328.829	111.38
329.058	126.38
329.287	121.38
329.515	112.38
329.744	103.38
329.972	95.38
330.201	104.38
330.43	93.38
330.658	109.38
330.887	142.38
331.115	117.38
331.344	118.38
331.572	110.38
331.801	93.38
332.03	91.38
332.258	89.38
332.486	89.38
332.715	86.38
332.943	94.38
333.172	103.38
333.4	87.38
333.629	102.38
333.857	110.38
334.085	112.38
334.314	106.38
334.542	102.38
334.771	93.38
334.999	96.38
335.227	95.38
335.455	86.38
335.684	89.38
335.912	102.38
336.14	96.38
336.369	88.38
336.597	103.38
336.825	101.38
337.053	89.38
337.281	100.38
337.51	92.38
337.738	92.38
337.966	96.38
338.194	107.38
338.422	94.38
338.65	114.38
338.878	80.38
339.106	83.38
339.334	88.38
339.562	92.38
339.79	83.38
340.018	82.38
340.246	85.38
340.474	81.38
340.702	97.38
340.93	70.38
341.158	84.38
341.386	90.38
341.614	91.38
341.842	95.38
342.07	83.38
342.298	101.38
342.526	73.38
342.754	75.38
342.981	92.38
343.209	97.38
343.437	97.38
343.665	91.38
343.893	103.38
344.12	92.38
344.348	81.38
344.576	84.38
344.804	97.38
345.031	106.38
345.259	91.38
345.487	86.38
345.714	86.38
345.942	94.38
346.17	82.38
346.397	103.38
346.625	95.38
346.853	101.38
347.08	81.38
347.308	88.38
347.535	108.38
347.763	93.38
347.99	89.38
348.218	106.38
348.445	89.38
348.673	97.38
348.9	90.38
349.128	87.38
349.355	101.38
349.583	92.38
349.81	93.38
350.037	82.38
350.265	100.38
350.492	89.38
350.72	92.38
350.947	87.38
351.174	107.38
351.402	114.38
351.629	99.38
351.856	96.38
352.083	107.38
352.311	88.38
352.538	104.38
352.765	90.38
352.992	102.38
353.22	103.38
353.447	111.38
353.674	91.38
353.901	90.38
354.128	102.38
354.355	97.38
354.583	109.38
354.81	97.38
355.037	95.38
355.264	89.38
355.491	97.38
355.718	93.38
355.945	97.38
356.172	88.38
356.399	86.38
356.626	94.38
356.853	83.38
357.08	97.38
357.307	86.38
357.534	86.38
357.761	78.38
357.988	101.38
358.215	88.38
358.441	98.38
358.668	105.38
358.895	89.38
359.122	82.38
359.349	88.38
359.576	92.38
359.802	86.38
360.029	107.38
360.256	88.38
360.483	97.38
360.709	79.38
360.936	84.38
361.163	100.38
361.39	93.38
361.616	91.38
361.843	72.38
362.07	89.38
362.296	95.38
362.523	84.38
362.749	93.38
362.976	74.38
363.203	90.38
363.429	88.38
363.656	85.38
363.882	74.38
364.109	92.38
364.335	91.38
364.562	89.38
364.788	92.38
365.015	95.38
365.241	81.38
365.468	96.38
365.694	96.38
365.92	96.38
366.147	91.38
366.373	90.38
366.599	83.38
366.826	99.38
367.052	78.38
367.278	94.38
367.505	96.38
367.731	79.38
367.957	85.38
368.184	90.38
368.41	93.38
368.636	112.38
368.862	92.38
369.089	93.38
369.315	103.38
369.541	96.38
369.767	86.38
369.993	90.38
370.219	84.38
370.445	97.38
370.672	82.38
370.898	76.38
371.124	91.38
371.35	71.38
371.576	87.38
371.802	85.38
372.028	86.38
372.254	89.38
372.48	91.38
372.706	82.38
372.932	83.38
373.158	83.38
373.384	87.38
373.61	94.38
373.835	88.38
374.061	95.38
374.287	94.38
374.513	86.38
374.739	96.38
374.965	90.38
375.191	86.38
375.416	85.38
375.642	107.38
375.868	85.38
376.094	96.38
376.319	89.38
376.545	82.38
376.771	88.38
376.997	80.38
377.222	80.38
377.448	98.38
377.674	74.38
377.899	86.38
378.125	77.38
378.35	86.38
378.576	96.38
378.802	87.38
379.027	79.38
379.253	105.38
379.478	106.38
379.704	88.38
379.929	104.38
380.155	95.38
380.38	98.38
380.606	96.38
380.831	98.38
381.057	94.38
381.282	93.38
381.507	85.38
381.733	93.38
381.958	100.38
382.184	93.38
382.409	98.38
382.634	96.38
382.86	92.38
383.085	92.38
383.31	92.38
383.535	106.38
383.761	97.38
383.986	95.38
384.211	107.38
384.436	94.38
384.662	96.38
384.887	98.38
385.112	94.38
385.337	105.38
385.562	102.38
385.787	88.38
386.013	111.38
386.238	104.38
386.463	99.38
386.688	103.38
386.913	111.38
387.138	109.38
387.363	105.38
387.588	104.38
387.813	102.38
388.038	105.38
388.263	104.38
388.488	107.38
388.713	92.38
388.938	89.38
389.163	100.38
389.387	98.38
389.612	97.38
389.837	88.38
390.062	90.38
390.287	82.38
390.512	77.38
390.736	88.38
390.961	84.38
391.186	96.38
391.411	99.38
391.636	77.38
391.86	79.38
392.085	76.38
392.31	95.38
392.534	86.38
392.759	85.38
392.984	95.38
393.208	95.38
393.433	92.38
393.658	79.38
393.882	78.38
394.107	82.38
394.331	74.38
394.556	70.38
394.78	98.38
395.005	90.38
395.229	89.38
395.454	86.38
395.678	93.38
395.903	80.38
396.127	76.38
396.352	87.38
396.576	97.38
396.801	97.38
397.025	106.38
397.249	95.38
397.474	84.38
397.698	82.38
397.922	78.38
398.147	77.38
398.371	78.38
398.595	94.38
398.82	89.38
399.044	82.38
399.268	96.38
399.492	97.38
399.717	89.38
399.941	77.38
400.165	96.38
400.389	94.38
400.613	97.38
400.837	89.38
401.062	81.38
401.286	78.38
401.51	96.38
401.734	94.38
401.958	109.38
402.182	118.38
402.406	140.38
402.63	120.38
402.854	85.38
403.078	93.38
403.302	74.38
403.526	79.38
403.75	90.38
403.974	86.38
404.198	95.38
404.422	95.38
404.645	90.38
404.869	94.38
405.093	96.38
405.317	103.38
405.541	87.38
405.765	86.38
405.988	90.38
406.212	153.38
406.436	202.38
406.66	129.38
406.883	82.38
407.107	87.38
407.331	97.38
407.555	90.38
407.778	91.38
408.002	94.38
408.226	83.38
408.449	84.38
408.673	95.38
408.896	87.38
409.12	92.38
409.344	84.38
409.567	84.38
409.791	82.38
410.014	97.38
410.238	100.38
410.461	76.38
410.685	95.38
410.908	117.38
411.132	111.38
411.355	89.38
411.578	80.38
411.802	95.38
412.025	104.38
412.249	82.38
412.472	92.38
412.695	103.38
412.919	96.38
413.142	78.38
413.365	87.38
413.589	78.38
413.812	87.38
414.035	93.38
414.258	85.38
414.482	95.38
414.705	89.38
414.928	89.38
415.151	73.38
415.374	88.38
415.597	80.38
415.821	89.38
416.044	80.38
416.267	90.38
416.49	81.38
416.713	78.38
416.936	87.38
417.159	99.38
417.382	97.38
417.605	83.38
417.828	90.38
418.051	88.38
418.274	79.38
418.497	75.38
418.72	88.38
418.943	89.38
419.166	90.38
419.389	78.38
419.611	89.38
419.834	90.38
420.057	87.38
420.28	89.38
420.503	87.38
420.726	96.38
420.948	100.38
421.171	84.38
421.394	87.38
421.617	92.38
421.839	92.38
422.062	80.38
422.285	103.38
422.507	93.38
422.73	93.38
422.953	86.38
423.175	90.38
423.398	77.38
423.621	86.38
423.843	89.38
424.066	91.38
424.288	96.38
424.511	94.38
424.733	87.38
424.956	101.38
425.178	109.38
425.401	97.38
425.623	110.38
425.846	81.38
426.068	86.38
426.291	100.38
426.513	87.38
426.735	90.38
426.958	93.38
427.18	99.38
427.402	137.38
427.625	160.38
427.847	119.38
428.069	93.38
428.292	101.38
428.514	80.38
428.736	88.38
428.958	81.38
429.181	73.38
429.403	75.38
429.625	84.38
429.847	79.38
430.069	94.38
430.292	86.38
430.514	72.38
430.736	80.38
430.958	97.38
431.18	90.38
431.402	66.38
431.624	66.38
431.846	71.38
432.068	81.38
432.29	90.38
432.512	73.38
432.734	85.38
432.956	102.38
433.178	94.38
433.4	94.38
433.622	81.38
433.844	92.38
434.066	78.38
434.287	81.38
434.509	97.38
434.731	78.38
434.953	80.38
435.175	80.38
435.397	92.38
435.618	90.38
435.84	94.38
436.062	110.38
436.284	116.38
436.505	104.38
436.727	86.38
436.949	86.38
437.17	94.38
437.392	110.38
437.614	96.38
437.835	107.38
438.057	109.38
438.278	96.38
438.5	113.38
438.721	120.38
438.943	95.38
439.165	95.38
439.386	78.38
439.608	91.38
439.829	92.38
440.05	125.38
440.272	127.38
440.493	103.38
440.715	105.38
440.936	89.38
441.158	90.38
441.379	90.38
441.6	81.38
441.822	92.38
442.043	81.38
442.264	93.38
442.486	103.38
442.707	79.38
442.928	88.38
443.149	112.38
443.371	114.38
443.592	106.38
443.813	108.38
444.034	114.38
444.255	81.38
444.476	78.38
444.698	92.38
444.919	76.38
445.14	124.38
445.361	111.38
445.582	102.38
445.803	141.38
446.024	144.38
446.245	137.38
446.466	109.38
446.687	90.38
446.908	95.38
447.129	73.38
447.35	88.38
447.571	85.38
447.792	97.38
448.013	114.38
448.234	95.38
448.455	101.38
448.675	102.38
448.896	120.38
449.117	90.38
449.338	88.38
449.559	118.38
449.779	142.38
450	109.38
450.221	92.38
450.442	97.38
450.662	98.38
450.883	99.38
451.104	104.38
451.324	95.38
451.545	92.38
451.766	70.38
451.986	85.38
452.207	83.38
452.428	101.38
452.648	101.38
452.869	95.38
453.089	103.38
453.31	118.38
453.53	89.38
453.751	84.38
453.971	102.38
454.192	110.38
454.412	102.38
454.633	80.38
454.853	82.38
455.073	85.38
455.294	86.38
455.514	101.38
455.734	94.38
455.955	83.38
456.175	82.38
456.395	71.38
456.616	87.38
456.836	90.38
457.056	89.38
457.276	86.38
457.497	89.38
457.717	81.38
457.937	92.38
458.157	85.38
458.377	97.38
458.598	101.38
458.818	144.38
459.038	160.38
459.258	112.38
459.478	97.38
459.698	84.38
459.918	82.38
460.138	91.38
460.358	77.38
460.578	82.38
460.798	79.38
461.018	97.38
461.238	82.38
461.458	83.38
461.678	86.38
461.898	74.38
462.118	93.38
462.338	88.38
462.558	81.38
462.777	107.38
462.997	89.38
463.217	92.38
463.437	80.38
463.657	83.38
463.876	81.38
464.096	95.38
464.316	85.38
464.536	102.38
464.755	97.38
464.975	94.38
465.195	156.38
465.414	142.38
465.634	80.38
465.854	77.38
466.073	89.38
466.293	72.38
466.512	88.38
466.732	86.38
466.951	81.38
467.171	72.38
467.391	96.38
467.61	115.38
467.829	92.38
468.049	81.38
468.268	84.38
468.488	93.38
468.707	82.38
468.927	71.38
469.146	86.38
469.365	88.38
469.585	94.38
469.804	78.38
470.023	81.38
470.243	85.38
470.462	101.38
470.681	98.38
470.901	92.38
471.12	75.38
471.339	96.38
471.558	104.38
471.777	82.38
471.997	88.38
472.216	87.38
472.435	82.38
472.654	87.38
472.873	98.38
473.092	86.38
473.311	87.38
473.53	86.38
473.749	86.38
473.968	90.38
474.187	98.38
474.406	97.38
474.625	74.38
474.844	86.38
475.063	77.38
475.282	84.38
475.501	73.38
475.72	65.38
475.939	85.38
476.158	81.38
476.377	79.38
476.596	92.38
476.814	80.38
477.033	82.38
477.252	91.38
477.471	84.38
477.69	89.38
477.908	98.38
478.127	93.38
478.346	90.38
478.564	93.38
478.783	92.38
479.002	93.38
479.22	90.38
479.439	90.38
479.658	92.38
479.876	110.38
480.095	87.38
480.313	93.38
480.532	83.38
480.751	87.38
480.969	91.38
481.188	96.38
481.406	92.38
481.624	82.38
481.843	88.38
482.061	92.38
482.28	92.38
482.498	84.38
482.717	85.38
482.935	94.38
483.153	94.38
483.372	86.38
483.59	93.38
483.808	75.38
484.027	90.38
484.245	96.38
484.463	77.38
484.681	95.38
484.9	93.38
485.118	88.38
485.336	96.38
485.554	100.38
485.772	95.38
485.99	117.38
486.209	97.38
486.427	96.38
486.645	95.38
486.863	105.38
487.081	98.38
487.299	107.38
487.517	76.38
487.735	88.38
487.953	90.38
488.171	91.38
488.389	93.38
488.607	100.38
488.825	77.38
489.043	89.38
489.261	84.38
489.479	86.38
489.696	74.38
489.914	93.38
490.132	89.38
490.35	82.38
490.568	71.38
490.786	85.38
491.003	82.38
491.221	95.38
491.439	76.38
491.657	103.38
491.874	86.38
492.092	93.38
492.31	96.38
492.527	106.38
492.745	97.38
492.963	93.38
493.18	94.38
493.398	81.38
493.615	92.38
493.833	105.38
494.05	84.38
494.268	97.38
494.485	86.38
494.703	87.38
494.92	86.38
495.138	90.38
495.355	90.38
495.573	89.38
495.79	79.38
496.008	98.38
496.225	85.38
496.442	97.38
496.66	105.38
496.877	95.38
497.094	88.38
497.312	93.38
497.529	101.38
497.746	81.38
497.963	97.38
498.181	90.38
498.398	104.38
498.615	108.38
498.832	87.38
499.049	68.38
499.267	94.38
499.484	86.38
499.701	97.38
499.918	95.38
500.135	87.38
500.352	89.38
500.569	80.38
500.786	85.38
501.003	80.38
501.22	80.38
501.437	93.38
501.654	97.38
501.871	102.38
502.088	99.38
502.305	81.38
502.522	85.38
502.739	87.38
502.956	82.38
503.172	93.38
503.389	79.38
503.606	105.38
503.823	90.38
504.04	87.38
504.256	90.38
504.473	73.38
504.69	87.38
504.907	89.38
505.123	91.38
505.34	91.38
505.557	89.38
505.773	98.38
505.99	92.38
506.207	98.38
506.423	83.38
506.64	84.38
506.856	92.38
507.073	95.38
507.289	88.38
507.506	109.38
507.722	101.38
507.939	110.38
508.155	97.38
508.372	86.38
508.588	89.38
508.805	91.38
509.021	85.38
509.238	74.38
509.454	81.38
509.67	88.38
509.887	91.38
510.103	124.38
510.319	183.38
510.536	683.38
510.752	2125.38
510.968	582.38
511.184	148.38
511.401	119.38
511.617	108.38
511.833	81.38
512.049	74.38
512.265	96.38
512.481	105.38
512.698	88.38
512.914	76.38
513.13	90.38
513.346	92.38
513.562	88.38
513.778	96.38
513.994	90.38
514.21	99.38
514.426	116.38
514.642	127.38
514.858	115.38
515.074	164.38
515.29	425.38
515.506	1336.38
515.721	504.38
515.937	148.38
516.153	102.38
516.369	92.38
516.585	98.38
516.801	96.38
517.016	86.38
517.232	78.38
517.448	79.38
517.664	84.38
517.879	99.38
518.095	89.38
518.311	92.38
518.527	106.38
518.742	85.38
518.958	97.38
519.173	93.38
519.389	84.38
519.605	98.38
519.82	101.38
520.036	105.38
520.251	104.38
520.467	110.38
520.682	105.38
520.898	103.38
521.113	101.38
521.329	132.38
521.544	186.38
521.76	519.38
521.975	2254.38
522.19	1328.38
522.406	292.38
522.621	118.38
522.836	86.38
523.052	102.38
523.267	93.38
523.482	81.38
523.698	107.38
523.913	108.38
524.128	96.38
524.343	83.38
524.559	96.38
524.774	94.38
524.989	106.38
525.204	116.38
525.419	82.38
525.634	81.38
525.849	87.38
526.064	82.38
526.28	92.38
526.495	80.38
526.71	85.38
526.925	87.38
527.14	92.38
527.355	97.38
527.57	95.38
527.785	91.38
527.999	92.38
528.214	95.38
528.429	86.38
528.644	92.38
528.859	97.38
529.074	99.38
529.289	108.38
529.503	172.38
529.718	99.38
529.933	95.38
530.148	90.38
530.363	81.38
530.577	79.38
530.792	103.38
531.007	96.38
531.221	88.38
531.436	84.38
531.651	89.38
531.865	96.38
532.08	94.38
532.295	86.38
532.509	80.38
532.724	81.38
532.938	95.38
533.153	89.38
533.367	87.38
533.582	75.38
533.796	85.38
534.011	101.38
534.225	86.38
534.44	84.38
534.654	77.38
534.868	79.38
535.083	99.38
535.297	84.38
535.511	90.38
535.726	107.38
535.94	98.38
536.154	98.38
536.369	83.38
536.583	104.38
536.797	79.38
537.011	80.38
537.225	88.38
537.44	85.38
537.654	89.38
537.868	106.38
538.082	88.38
538.296	79.38
538.51	88.38
538.724	88.38
538.938	89.38
539.153	85.38
539.367	110.38
539.581	83.38
539.795	92.38
540.009	93.38
540.222	103.38
540.436	91.38
540.65	81.38
540.864	83.38
541.078	82.38
541.292	86.38
541.506	65.38
541.72	73.38
541.934	95.38
542.147	101.38
542.361	97.38
542.575	92.38
542.789	96.38
543.002	98.38
543.216	89.38
543.43	91.38
543.644	88.38
543.857	96.38
544.071	84.38
544.285	74.38
544.498	80.38
544.712	95.38
544.925	74.38
545.139	89.38
545.352	93.38
545.566	98.38
545.779	89.38
545.993	78.38
546.206	72.38
546.42	90.38
546.633	81.38
546.847	99.38
547.06	84.38
547.274	87.38
547.487	81.38
547.7	91.38
547.914	95.38
548.127	95.38
548.34	95.38
548.554	79.38
548.767	83.38
548.98	80.38
549.193	82.38
549.407	95.38
549.62	85.38
549.833	88.38
550.046	84.38
550.259	88.38
550.473	85.38
550.686	91.38
550.899	83.38
551.112	83.38
551.325	76.38
551.538	72.38
551.751	87.38
551.964	68.38
552.177	79.38
552.39	88.38
552.603	80.38
552.816	91.38
553.029	90.38
553.242	100.38
553.455	88.38
553.667	111.38
553.88	95.38
554.093	78.38
554.306	108.38
554.519	79.38
554.732	84.38
554.944	73.38
555.157	108.38
555.37	83.38
555.583	86.38
555.795	85.38
556.008	80.38
556.221	89.38
556.433	72.38
556.646	71.38
556.859	81.38
557.071	92.38
557.284	94.38
557.496	91.38
557.709	84.38
557.921	84.38
558.134	76.38
558.346	94.38
558.559	88.38
558.771	81.38
558.984	74.38
559.196	74.38
559.409	93.38
559.621	85.38
559.833	74.38
560.046	83.38
560.258	83.38
560.47	95.38
560.683	96.38
560.895	78.38
561.107	83.38
561.32	90.38
561.532	80.38
561.744	84.38
561.956	93.38
562.168	101.38
562.381	87.38
562.593	100.38
562.805	80.38
563.017	92.38
563.229	73.38
563.441	98.38
563.653	89.38
563.865	97.38
564.077	89.38
564.289	88.38
564.501	82.38
564.713	93.38
564.925	86.38
565.137	92.38
565.349	93.38
565.561	78.38
565.773	81.38
565.985	69.38
566.197	70.38
566.408	71.38
566.62	79.38
566.832	82.38
567.044	88.38
567.255	87.38
567.467	85.38
567.679	72.38
567.891	92.38
568.102	79.38
568.314	92.38
568.526	90.38
568.737	88.38
568.949	91.38
569.161	88.38
569.372	86.38
569.584	90.38
569.795	92.38
570.007	118.38
570.218	230.38
570.43	121.38
570.641	100.38
570.853	82.38
571.064	93.38
571.276	90.38
571.487	88.38
571.698	96.38
571.91	97.38
572.121	88.38
572.333	87.38
572.544	95.38
572.755	84.38
572.966	90.38
573.178	89.38
573.389	92.38
573.6	98.38
573.811	87.38
574.023	91.38
574.234	90.38
574.445	71.38
574.656	78.38
574.867	80.38
575.078	93.38
575.289	86.38
575.501	94.38
575.712	86.38
575.923	92.38
576.134	96.38
576.345	86.38
576.556	89.38
576.767	84.38
576.978	85.38
577.188	86.38
577.399	85.38
577.61	89.38
577.821	95.38
578.032	110.38
578.243	269.38
578.454	703.38
578.665	203.38
578.875	96.38
579.086	94.38
579.297	80.38
579.508	94.38
579.718	87.38
579.929	97.38
580.14	81.38
580.35	98.38
580.561	101.38
580.772	76.38
580.982	86.38
581.193	87.38
581.403	86.38
581.614	77.38
581.825	92.38
582.035	96.38
582.246	92.38
582.456	89.38
582.667	88.38
582.877	83.38
583.087	82.38
583.298	84.38
583.508	82.38
583.719	79.38
583.929	88.38
584.139	94.38
584.35	81.38
584.56	87.38
584.77	76.38
584.981	72.38
585.191	83.38
585.401	77.38
585.611	84.38
585.821	85.38
586.032	93.38
586.242	53.38
586.452	78.38
586.662	87.38
586.872	101.38
587.082	90.38
587.292	94.38
587.502	92.38
587.713	93.38
587.923	83.38
588.133	85.38
588.343	80.38
588.553	86.38
588.762	89.38
588.972	81.38
589.182	100.38
589.392	87.38
589.602	88.38
589.812	87.38
590.022	87.38
590.232	89.38
590.441	86.38
590.651	94.38
590.861	94.38
591.071	83.38
591.281	95.38
591.49	78.38
591.7	79.38
591.91	81.38
592.119	87.38
592.329	83.38
592.539	88.38
592.748	98.38
592.958	88.38
593.167	90.38
593.377	80.38
593.587	95.38
593.796	79.38
594.006	88.38
594.215	79.38
594.424	88.38
594.634	82.38
594.843	77.38
595.053	84.38
595.262	78.38
595.472	93.38
595.681	90.38
595.89	82.38
596.1	80.38
596.309	87.38
596.518	93.38
596.727	90.38
596.937	84.38
597.146	99.38
597.355	73.38
597.564	80.38
597.774	95.38
597.983	83.38
598.192	86.38
598.401	89.38
598.61	86.38
598.819	97.38
599.028	87.38
599.237	76.38
599.446	77.38
599.655	98.38
599.864	86.38
600.073	87.38
600.282	79.38
600.491	72.38
600.7	79.38
600.909	84.38
601.118	85.38
601.327	96.38
601.536	73.38
601.745	84.38
601.953	92.38
602.162	94.38
602.371	101.38
602.58	98.38
602.789	78.38
602.997	85.38
603.206	85.38
603.415	80.38
603.623	81.38
603.832	79.38
604.041	77.38
604.249	91.38
604.458	81.38
604.666	88.38
604.875	88.38
605.084	81.38
605.292	79.38
605.501	81.38
605.709	78.38
605.918	81.38
606.126	98.38
606.334	82.38
606.543	84.38
606.751	93.38
606.96	76.38
607.168	80.38
607.376	80.38
607.585	77.38
607.793	86.38
608.001	80.38
608.21	78.38
608.418	74.38
608.626	96.38
608.834	83.38
609.043	86.38
609.251	87.38
609.459	85.38
609.667	84.38
609.875	95.38
610.083	92.38
610.291	79.38
610.499	81.38
610.707	81.38
610.916	90.38
611.124	79.38
611.332	79.38
611.54	92.38
611.748	90.38
611.955	91.38
612.163	84.38
612.371	69.38
612.579	86.38
612.787	84.38
612.995	96.38
613.203	91.38
613.411	82.38
613.618	70.38
613.826	68.38
614.034	84.38
614.242	82.38
614.449	72.38
614.657	87.38
614.865	96.38
615.072	91.38
615.28	86.38
615.488	66.38
615.695	78.38
615.903	85.38
616.111	99.38
616.318	108.38
616.526	89.38
616.733	84.38
616.941	100.38
617.148	101.38
617.356	86.38
617.563	73.38
617.771	102.38
617.978	91.38
618.185	87.38
618.393	97.38
618.6	83.38
618.807	83.38
619.015	77.38
619.222	75.38
619.429	97.38
619.637	91.38
619.844	80.38
620.051	92.38
620.258	86.38
620.466	91.38
620.673	97.38
620.88	88.38
621.087	94.38
621.294	80.38
621.501	75.38
621.708	92.38
621.915	76.38
622.122	84.38
622.329	77.38
622.536	82.38
622.743	89.38
622.95	91.38
623.157	76.38
623.364	73.38
623.571	83.38
623.778	87.38
623.985	75.38
624.192	84.38
624.399	96.38
624.606	101.38
624.812	88.38
625.019	70.38
625.226	65.38
625.433	95.38
625.639	76.38
625.846	86.38
626.053	89.38
626.259	87.38
626.466	90.38
626.673	102.38
626.879	82.38
627.086	80.38
627.293	78.38
627.499	79.38
627.706	90.38
627.912	82.38
628.119	76.38
628.325	82.38
628.532	79.38
628.738	96.38
628.945	87.38
629.151	81.38
629.357	82.38
629.564	92.38
629.77	81.38
629.976	80.38
630.183	85.38
630.389	78.38
630.595	84.38
630.802	81.38
631.008	82.38
631.214	93.38
631.42	81.38
631.627	76.38
631.833	68.38
632.039	80.38
632.245	70.38
632.451	95.38
632.657	85.38
632.863	80.38
633.069	77.38
633.275	91.38
633.481	73.38
633.688	65.38
633.893	90.38
634.099	64.38
634.305	96.38
634.511	74.38
634.717	70.38
634.923	82.38
635.129	90.38
635.335	90.38
635.541	73.38
635.747	72.38
635.952	86.38
636.158	78.38
636.364	79.38
636.57	86.38
636.775	80.38
636.981	80.38
637.187	93.38
637.392	77.38
637.598	92.38
637.804	89.38
638.009	79.38
638.215	86.38
638.421	85.38
638.626	89.38
638.832	84.38
639.037	77.38
639.243	87.38
639.448	86.38
639.654	108.38
639.859	87.38
640.065	84.38
640.27	90.38
640.475	72.38
640.681	77.38
640.886	70.38
641.091	80.38
641.297	79.38
641.502	83.38
641.707	88.38
641.913	85.38
642.118	74.38
642.323	78.38
642.528	83.38
642.733	86.38
642.939	83.38
643.144	82.38
643.349	94.38
643.554	72.38
643.759	90.38
643.964	90.38
644.169	87.38
644.374	70.38
644.579	90.38
644.784	77.38
644.989	72.38
645.194	76.38
645.399	82.38
645.604	81.38
645.809	87.38
646.014	88.38
646.219	74.38
646.423	66.38
646.628	88.38
646.833	81.38
647.038	91.38
647.243	71.38
647.447	74.38
647.652	86.38
647.857	84.38
648.062	87.38
648.266	86.38
648.471	101.38
648.676	89.38
648.88	91.38
649.085	85.38
649.289	95.38
649.494	103.38
649.698	130.38
649.903	100.38
650.107	79.38
650.312	81.38
650.516	80.38
650.721	87.38
650.925	82.38
651.13	79.38
651.334	64.38
651.539	77.38
651.743	84.38
651.947	61.38
652.152	86.38
652.356	86.38
652.56	95.38
652.764	86.38
652.969	73.38
653.173	62.38
653.377	58.38
653.581	67.38
653.785	94.38
653.99	90.38
654.194	84.38
654.398	64.38
654.602	89.38
654.806	90.38
655.01	110.38
655.214	82.38
655.418	67.38
655.622	76.38
655.826	108.38
656.03	70.38
656.234	96.38
656.438	104.38
656.642	94.38
656.846	68.38
657.049	78.38
657.253	72.38
657.457	82.38
657.661	77.38
657.865	74.38
658.068	82.38
658.272	88.38
658.476	77.38
658.68	88.38
658.883	73.38
659.087	73.38
659.291	80.38
659.494	85.38
659.698	81.38
659.901	84.38
660.105	72.38
660.309	89.38
660.512	80.38
660.716	75.38
660.919	83.38
661.123	73.38
661.326	80.38
661.53	79.38
661.733	91.38
661.936	76.38
662.14	74.38
662.343	81.38
662.546	90.38
662.75	77.38
662.953	83.38
663.156	76.38
663.36	64.38
663.563	98.38
663.766	86.38
663.969	84.38
664.173	72.38
664.376	72.38
664.579	77.38
664.782	84.38
664.985	75.38
665.188	79.38
665.391	82.38
665.594	80.38
665.797	76.38
666	76.38
666.203	86.38
666.406	76.38
666.609	68.38
666.812	82.38
667.015	77.38
667.218	84.38
667.421	76.38
667.624	83.38
667.827	80.38
668.03	70.38
668.232	81.38
668.435	84.38
668.638	82.38
668.841	79.38
669.043	87.38
669.246	74.38
669.449	81.38
669.651	91.38
669.854	74.38
670.057	76.38
670.259	78.38
670.462	80.38
670.665	77.38
670.867	67.38
671.07	88.38
671.272	85.38
671.475	82.38
671.677	86.38
671.88	83.38
672.082	88.38
672.284	88.38
672.487	83.38
672.689	80.38
672.892	68.38
