Data from Circ_2011_H10_HRD10591_00079.txt Node
Date: Wed Jan 03 10:08:14 EST 2024
User: Yrep
Spectrometer: HR+D1059
Trigger mode: 1
Integration Time (sec): 1.000000E-1
Scans to average: 1
Electric dark correction enabled: true
Nonlinearity correction enabled: false
Boxcar width: 0
XAxis mode: Wavelengths
Number of Pixels in Spectrum: 2048
>>>>>Begin Spectral Data<<<<<
223.165	-19.44
223.4	-19.44
223.635	-19.44
223.869	-20.44
224.104	-30.44
224.338	-25.44
224.573	-23.44
224.808	-0.44
225.042	-1.44
225.277	-1.44
225.511	7.56
225.746	-7.44
225.98	6.56
226.215	22.56
226.449	13.56
226.683	22.56
226.918	35.56
227.152	21.56
227.387	41.56
227.621	35.56
227.856	52.56
228.09	55.56
228.324	45.56
228.559	47.56
228.793	66.56
229.027	59.56
229.262	72.56
229.496	74.56
229.73	95.56
229.964	82.56
230.199	69.56
230.433	70.56
230.667	68.56
230.901	77.56
231.136	78.56
231.37	85.56
231.604	78.56
231.838	76.56
232.072	85.56
232.306	83.56
232.541	84.56
232.775	73.56
233.009	94.56
233.243	88.56
233.477	79.56
233.711	67.56
233.945	76.56
234.179	79.56
234.413	91.56
234.647	75.56
234.881	69.56
235.115	58.56
235.349	78.56
235.583	70.56
235.817	96.56
236.051	93.56
236.285	77.56
236.519	76.56
236.753	81.56
236.987	75.56
237.221	96.56
237.455	102.56
237.689	96.56
237.922	71.56
238.156	69.56
238.39	86.56
238.624	85.56
238.858	75.56
239.091	74.56
239.325	83.56
239.559	83.56
239.793	84.56
240.027	84.56
240.26	79.56
240.494	83.56
240.728	79.56
240.961	81.56
241.195	81.56
241.429	83.56
241.662	80.56
241.896	76.56
242.13	96.56
242.363	100.56
242.597	87.56
242.83	85.56
243.064	77.56
243.298	83.56
243.531	78.56
243.765	88.56
243.998	72.56
244.232	87.56
244.465	76.56
244.699	91.56
244.932	94.56
245.166	70.56
245.399	80.56
245.633	79.56
245.866	85.56
246.099	74.56
246.333	89.56
246.566	65.56
246.8	73.56
247.033	86.56
247.266	76.56
247.5	86.56
247.733	94.56
247.966	62.56
248.2	89.56
248.433	87.56
248.666	80.56
248.899	88.56
249.133	90.56
249.366	106.56
249.599	92.56
249.832	87.56
250.066	83.56
250.299	71.56
250.532	86.56
250.765	86.56
250.998	94.56
251.231	77.56
251.465	72.56
251.698	75.56
251.931	88.56
252.164	79.56
252.397	81.56
252.63	77.56
252.863	84.56
253.096	77.56
253.329	88.56
253.562	83.56
253.795	83.56
254.028	77.56
254.261	83.56
254.494	71.56
254.727	85.56
254.96	82.56
255.193	61.56
255.426	89.56
255.659	76.56
255.892	87.56
256.124	72.56
256.357	75.56
256.59	69.56
256.823	70.56
257.056	88.56
257.289	72.56
257.521	67.56
257.754	73.56
257.987	88.56
258.22	89.56
258.452	78.56
258.685	93.56
258.918	73.56
259.151	87.56
259.383	98.56
259.616	86.56
259.849	79.56
260.081	91.56
260.314	81.56
260.547	65.56
260.779	86.56
261.012	74.56
261.244	84.56
261.477	87.56
261.71	92.56
261.942	113.56
262.175	111.56
262.407	101.56
262.64	79.56
262.872	78.56
263.105	91.56
263.337	99.56
263.57	79.56
263.802	77.56
264.035	71.56
264.267	81.56
264.499	91.56
264.732	77.56
264.964	72.56
265.197	75.56
265.429	92.56
265.661	86.56
265.894	74.56
266.126	71.56
266.358	85.56
266.591	80.56
266.823	87.56
267.055	84.56
267.287	81.56
267.52	84.56
267.752	78.56
267.984	86.56
268.216	73.56
268.448	84.56
268.681	83.56
268.913	76.56
269.145	87.56
269.377	91.56
269.609	87.56
269.841	95.56
270.073	72.56
270.306	96.56
270.538	98.56
270.77	73.56
271.002	86.56
271.234	96.56
271.466	94.56
271.698	92.56
271.93	95.56
272.162	88.56
272.394	98.56
272.626	93.56
272.858	91.56
273.09	74.56
273.322	84.56
273.553	71.56
273.785	74.56
274.017	97.56
274.249	83.56
274.481	87.56
274.713	87.56
274.945	90.56
275.176	79.56
275.408	101.56
275.64	92.56
275.872	88.56
276.104	92.56
276.335	88.56
276.567	103.56
276.799	108.56
277.031	102.56
277.262	101.56
277.494	95.56
277.726	90.56
277.957	97.56
278.189	88.56
278.421	86.56
278.652	89.56
278.884	96.56
279.115	88.56
279.347	84.56
279.579	93.56
279.81	95.56
280.042	88.56
280.273	108.56
280.505	108.56
280.736	98.56
280.968	87.56
281.199	102.56
281.431	91.56
281.662	75.56
281.894	93.56
282.125	107.56
282.356	120.56
282.588	148.56
282.819	109.56
283.051	81.56
283.282	75.56
283.513	71.56
283.745	88.56
283.976	78.56
284.207	90.56
284.439	102.56
284.67	103.56
284.901	87.56
285.132	76.56
285.364	95.56
285.595	97.56
285.826	84.56
286.057	91.56
286.288	103.56
286.52	99.56
286.751	84.56
286.982	89.56
287.213	96.56
287.444	97.56
287.675	94.56
287.906	92.56
288.138	97.56
288.369	87.56
288.6	84.56
288.831	81.56
289.062	105.56
289.293	78.56
289.524	88.56
289.755	85.56
289.986	81.56
290.217	80.56
290.448	86.56
290.679	83.56
290.91	100.56
291.141	84.56
291.371	79.56
291.602	83.56
291.833	78.56
292.064	81.56
292.295	92.56
292.526	96.56
292.757	90.56
292.987	96.56
293.218	77.56
293.449	99.56
293.68	77.56
293.91	91.56
294.141	101.56
294.372	83.56
294.603	80.56
294.833	80.56
295.064	103.56
295.295	88.56
295.525	96.56
295.756	116.56
295.987	114.56
296.217	135.56
296.448	123.56
296.679	84.56
296.909	99.56
297.14	84.56
297.37	79.56
297.601	84.56
297.831	95.56
298.062	95.56
298.292	85.56
298.523	84.56
298.753	93.56
298.984	94.56
299.214	86.56
299.445	96.56
299.675	100.56
299.905	94.56
300.136	82.56
300.366	85.56
300.597	83.56
300.827	89.56
301.057	91.56
301.288	94.56
301.518	89.56
301.748	110.56
301.979	92.56
302.209	93.56
302.439	80.56
302.669	96.56
302.9	90.56
303.13	95.56
303.36	89.56
303.59	91.56
303.82	103.56
304.051	95.56
304.281	87.56
304.511	96.56
304.741	86.56
304.971	88.56
305.201	84.56
305.431	85.56
305.661	89.56
305.891	84.56
306.121	93.56
306.352	91.56
306.582	96.56
306.812	107.56
307.042	87.56
307.272	104.56
307.502	108.56
307.731	109.56
307.961	103.56
308.191	93.56
308.421	80.56
308.651	83.56
308.881	96.56
309.111	100.56
309.341	80.56
309.571	99.56
309.8	83.56
310.03	103.56
310.26	102.56
310.49	110.56
310.72	88.56
310.949	95.56
311.179	94.56
311.409	79.56
311.639	86.56
311.868	86.56
312.098	99.56
312.328	91.56
312.557	118.56
312.787	105.56
313.017	96.56
313.246	90.56
313.476	82.56
313.706	81.56
313.935	87.56
314.165	104.56
314.394	89.56
314.624	100.56
314.853	100.56
315.083	100.56
315.312	84.56
315.542	87.56
315.771	95.56
316.001	84.56
316.23	89.56
316.46	78.56
316.689	100.56
316.919	88.56
317.148	99.56
317.377	76.56
317.607	86.56
317.836	100.56
318.065	102.56
318.295	105.56
318.524	98.56
318.753	107.56
318.983	89.56
319.212	90.56
319.441	118.56
319.67	103.56
319.9	83.56
320.129	94.56
320.358	89.56
320.587	108.56
320.816	112.56
321.046	104.56
321.275	92.56
321.504	94.56
321.733	95.56
321.962	93.56
322.191	110.56
322.42	101.56
322.649	116.56
322.878	115.56
323.108	120.56
323.337	128.56
323.566	148.56
323.795	179.56
324.024	201.56
324.253	419.56
324.482	933.56
324.71	1876.56
324.939	2465.56
325.168	877.56
325.397	256.56
325.626	145.56
325.855	121.56
326.084	115.56
326.313	139.56
326.542	163.56
326.77	233.56
326.999	501.56
327.228	1035.56
327.457	1943.56
327.686	1521.56
327.914	414.56
328.143	228.56
328.372	231.56
328.6	151.56
328.829	132.56
329.058	137.56
329.287	139.56
329.515	129.56
329.744	123.56
329.972	161.56
330.201	249.56
330.43	312.56
330.658	217.56
330.887	177.56
331.115	128.56
331.344	103.56
331.572	99.56
331.801	110.56
332.03	105.56
332.258	110.56
332.486	103.56
332.715	96.56
332.943	96.56
333.172	91.56
333.4	107.56
333.629	99.56
333.857	127.56
334.085	167.56
334.314	245.56
334.542	393.56
334.771	394.56
334.999	167.56
335.227	109.56
335.455	89.56
335.684	87.56
335.912	107.56
336.14	89.56
336.369	88.56
336.597	91.56
336.825	96.56
337.053	96.56
337.281	96.56
337.51	105.56
337.738	116.56
337.966	99.56
338.194	104.56
338.422	90.56
338.65	102.56
338.878	69.56
339.106	88.56
339.334	104.56
339.562	91.56
339.79	93.56
340.018	89.56
340.246	79.56
340.474	96.56
340.702	98.56
340.93	98.56
341.158	91.56
341.386	85.56
341.614	95.56
341.842	102.56
342.07	87.56
342.298	96.56
342.526	83.56
342.754	80.56
342.981	83.56
343.209	101.56
343.437	87.56
343.665	92.56
343.893	95.56
344.12	105.56
344.348	86.56
344.576	92.56
344.804	102.56
345.031	91.56
345.259	98.56
345.487	87.56
345.714	96.56
345.942	101.56
346.17	99.56
346.397	90.56
346.625	95.56
346.853	79.56
347.08	92.56
347.308	104.56
347.535	95.56
347.763	88.56
347.99	92.56
348.218	101.56
348.445	103.56
348.673	96.56
348.9	86.56
349.128	99.56
349.355	102.56
349.583	94.56
349.81	94.56
350.037	88.56
350.265	89.56
350.492	99.56
350.72	95.56
350.947	102.56
351.174	110.56
351.402	101.56
351.629	89.56
351.856	91.56
352.083	112.56
352.311	124.56
352.538	109.56
352.765	91.56
352.992	103.56
353.22	102.56
353.447	92.56
353.674	102.56
353.901	89.56
354.128	89.56
354.355	95.56
354.583	110.56
354.81	108.56
355.037	100.56
355.264	83.56
355.491	98.56
355.718	79.56
355.945	86.56
356.172	104.56
356.399	97.56
356.626	103.56
356.853	91.56
357.08	92.56
357.307	96.56
357.534	78.56
357.761	99.56
357.988	96.56
358.215	83.56
358.441	89.56
358.668	91.56
358.895	102.56
359.122	84.56
359.349	99.56
359.576	89.56
359.802	104.56
360.029	119.56
360.256	111.56
360.483	107.56
360.709	84.56
360.936	96.56
361.163	107.56
361.39	101.56
361.616	96.56
361.843	85.56
362.07	103.56
362.296	85.56
362.523	71.56
362.749	83.56
362.976	91.56
363.203	99.56
363.429	84.56
363.656	95.56
363.882	74.56
364.109	88.56
364.335	91.56
364.562	94.56
364.788	91.56
365.015	102.56
365.241	95.56
365.468	76.56
365.694	99.56
365.92	93.56
366.147	91.56
366.373	86.56
366.599	73.56
366.826	99.56
367.052	96.56
367.278	96.56
367.505	81.56
367.731	99.56
367.957	88.56
368.184	73.56
368.41	101.56
368.636	110.56
368.862	107.56
369.089	97.56
369.315	85.56
369.541	77.56
369.767	88.56
369.993	89.56
370.219	88.56
370.445	74.56
370.672	85.56
370.898	94.56
371.124	85.56
371.35	95.56
371.576	90.56
371.802	95.56
372.028	97.56
372.254	89.56
372.48	87.56
372.706	86.56
372.932	87.56
373.158	103.56
373.384	93.56
373.61	101.56
373.835	91.56
374.061	91.56
374.287	81.56
374.513	95.56
374.739	77.56
374.965	97.56
375.191	85.56
375.416	98.56
375.642	94.56
375.868	88.56
376.094	91.56
376.319	91.56
376.545	74.56
376.771	85.56
376.997	98.56
377.222	86.56
377.448	84.56
377.674	80.56
377.899	89.56
378.125	74.56
378.35	87.56
378.576	95.56
378.802	73.56
379.027	87.56
379.253	95.56
379.478	99.56
379.704	91.56
379.929	84.56
380.155	87.56
380.38	98.56
380.606	94.56
380.831	102.56
381.057	94.56
381.282	100.56
381.507	96.56
381.733	103.56
381.958	83.56
382.184	100.56
382.409	88.56
382.634	93.56
382.86	92.56
383.085	103.56
383.31	91.56
383.535	106.56
383.761	87.56
383.986	87.56
384.211	81.56
384.436	82.56
384.662	100.56
384.887	104.56
385.112	100.56
385.337	90.56
385.562	98.56
385.787	100.56
386.013	106.56
386.238	101.56
386.463	99.56
386.688	103.56
386.913	98.56
387.138	105.56
387.363	90.56
387.588	99.56
387.813	98.56
388.038	91.56
388.263	109.56
388.488	100.56
388.713	93.56
388.938	99.56
389.163	93.56
389.387	87.56
389.612	84.56
389.837	84.56
390.062	82.56
390.287	92.56
390.512	105.56
390.736	96.56
390.961	88.56
391.186	83.56
391.411	92.56
391.636	69.56
391.86	74.56
392.085	76.56
392.31	89.56
392.534	90.56
392.759	90.56
392.984	85.56
393.208	100.56
393.433	94.56
393.658	93.56
393.882	74.56
394.107	89.56
394.331	71.56
394.556	79.56
394.78	87.56
395.005	88.56
395.229	97.56
395.454	80.56
395.678	89.56
395.903	81.56
396.127	88.56
396.352	89.56
396.576	90.56
396.801	91.56
397.025	88.56
397.249	85.56
397.474	82.56
397.698	94.56
397.922	91.56
398.147	88.56
398.371	77.56
398.595	90.56
398.82	78.56
399.044	98.56
399.268	86.56
399.492	87.56
399.717	95.56
399.941	88.56
400.165	106.56
400.389	105.56
400.613	91.56
400.837	81.56
401.062	88.56
401.286	77.56
401.51	81.56
401.734	88.56
401.958	108.56
402.182	136.56
402.406	158.56
402.63	100.56
402.854	97.56
403.078	104.56
403.302	87.56
403.526	99.56
403.75	102.56
403.974	90.56
404.198	80.56
404.422	94.56
404.645	100.56
404.869	93.56
405.093	112.56
405.317	102.56
405.541	117.56
405.765	94.56
405.988	96.56
406.212	163.56
406.436	219.56
406.66	154.56
406.883	111.56
407.107	90.56
407.331	103.56
407.555	109.56
407.778	113.56
408.002	97.56
408.226	89.56
408.449	69.56
408.673	87.56
408.896	90.56
409.12	98.56
409.344	116.56
409.567	94.56
409.791	90.56
410.014	96.56
410.238	108.56
410.461	84.56
410.685	87.56
410.908	83.56
411.132	108.56
411.355	88.56
411.578	95.56
411.802	94.56
412.025	86.56
412.249	85.56
412.472	100.56
412.695	96.56
412.919	83.56
413.142	103.56
413.365	98.56
413.589	101.56
413.812	91.56
414.035	92.56
414.258	90.56
414.482	97.56
414.705	77.56
414.928	81.56
415.151	107.56
415.374	94.56
415.597	81.56
415.821	88.56
416.044	97.56
416.267	84.56
416.49	80.56
416.713	91.56
416.936	72.56
417.159	92.56
417.382	93.56
417.605	75.56
417.828	81.56
418.051	97.56
418.274	84.56
418.497	84.56
418.72	89.56
418.943	89.56
419.166	93.56
419.389	89.56
419.611	93.56
419.834	77.56
420.057	94.56
420.28	81.56
420.503	87.56
420.726	90.56
420.948	83.56
421.171	85.56
421.394	96.56
421.617	85.56
421.839	86.56
422.062	79.56
422.285	91.56
422.507	97.56
422.73	98.56
422.953	92.56
423.175	86.56
423.398	90.56
423.621	88.56
423.843	91.56
424.066	91.56
424.288	101.56
424.511	88.56
424.733	91.56
424.956	122.56
425.178	104.56
425.401	109.56
425.623	105.56
425.846	94.56
426.068	96.56
426.291	91.56
426.513	82.56
426.735	101.56
426.958	93.56
427.18	121.56
427.402	151.56
427.625	184.56
427.847	137.56
428.069	144.56
428.292	91.56
428.514	106.56
428.736	80.56
428.958	93.56
429.181	95.56
429.403	91.56
429.625	85.56
429.847	93.56
430.069	105.56
430.292	94.56
430.514	91.56
430.736	99.56
430.958	81.56
431.18	91.56
431.402	96.56
431.624	89.56
431.846	88.56
432.068	91.56
432.29	80.56
432.512	92.56
432.734	73.56
432.956	101.56
433.178	117.56
433.4	115.56
433.622	98.56
433.844	97.56
434.066	92.56
434.287	81.56
434.509	103.56
434.731	79.56
434.953	79.56
435.175	83.56
435.397	78.56
435.618	72.56
435.84	102.56
436.062	145.56
436.284	133.56
436.505	122.56
436.727	112.56
436.949	89.56
437.17	100.56
437.392	102.56
437.614	92.56
437.835	115.56
438.057	121.56
438.278	119.56
438.5	123.56
438.721	126.56
438.943	105.56
439.165	79.56
439.386	85.56
439.608	84.56
439.829	97.56
440.05	117.56
440.272	155.56
440.493	97.56
440.715	103.56
440.936	72.56
441.158	102.56
441.379	95.56
441.6	83.56
441.822	92.56
442.043	88.56
442.264	120.56
442.486	104.56
442.707	99.56
442.928	127.56
443.149	148.56
443.371	131.56
443.592	112.56
443.813	120.56
444.034	117.56
444.255	92.56
444.476	81.56
444.698	104.56
444.919	90.56
445.14	134.56
445.361	136.56
445.582	112.56
445.803	158.56
446.024	153.56
446.245	149.56
446.466	133.56
446.687	89.56
446.908	91.56
447.129	84.56
447.35	91.56
447.571	115.56
447.792	92.56
448.013	105.56
448.234	104.56
448.455	108.56
448.675	129.56
448.896	133.56
449.117	82.56
449.338	103.56
449.559	149.56
449.779	153.56
450	93.56
450.221	106.56
450.442	86.56
450.662	91.56
450.883	104.56
451.104	111.56
451.324	105.56
451.545	96.56
451.766	86.56
451.986	88.56
452.207	94.56
452.428	80.56
452.648	99.56
452.869	117.56
453.089	114.56
453.31	127.56
453.53	96.56
453.751	100.56
453.971	96.56
454.192	116.56
454.412	97.56
454.633	73.56
454.853	77.56
455.073	84.56
455.294	97.56
455.514	109.56
455.734	101.56
455.955	78.56
456.175	77.56
456.395	81.56
456.616	70.56
456.836	80.56
457.056	79.56
457.276	85.56
457.497	93.56
457.717	77.56
457.937	81.56
458.157	94.56
458.377	88.56
458.598	103.56
458.818	157.56
459.038	185.56
459.258	128.56
459.478	92.56
459.698	86.56
459.918	91.56
460.138	90.56
460.358	96.56
460.578	102.56
460.798	92.56
461.018	97.56
461.238	95.56
461.458	86.56
461.678	94.56
461.898	85.56
462.118	99.56
462.338	92.56
462.558	88.56
462.777	84.56
462.997	85.56
463.217	88.56
463.437	79.56
463.657	94.56
463.876	93.56
464.096	86.56
464.316	113.56
464.536	103.56
464.755	97.56
464.975	109.56
465.195	173.56
465.414	166.56
465.634	102.56
465.854	93.56
466.073	79.56
466.293	81.56
466.512	93.56
466.732	91.56
466.951	89.56
467.171	104.56
467.391	99.56
467.61	101.56
467.829	108.56
468.049	163.56
468.268	211.56
468.488	104.56
468.707	96.56
468.927	88.56
469.146	80.56
469.365	85.56
469.585	93.56
469.804	102.56
470.023	101.56
470.243	78.56
470.462	94.56
470.681	106.56
470.901	89.56
471.12	96.56
471.339	96.56
471.558	91.56
471.777	111.56
471.997	119.56
472.216	277.56
472.435	489.56
472.654	184.56
472.873	104.56
473.092	97.56
473.311	91.56
473.53	77.56
473.749	82.56
473.968	94.56
474.187	122.56
474.406	116.56
474.625	91.56
474.844	87.56
475.063	90.56
475.282	97.56
475.501	103.56
475.72	88.56
475.939	92.56
476.158	83.56
476.377	92.56
476.596	91.56
476.814	100.56
477.033	95.56
477.252	93.56
477.471	82.56
477.69	92.56
477.908	97.56
478.127	85.56
478.346	97.56
478.564	106.56
478.783	86.56
479.002	99.56
479.22	88.56
479.439	93.56
479.658	112.56
479.876	96.56
480.095	104.56
480.313	91.56
480.532	101.56
480.751	120.56
480.969	270.56
481.188	798.56
481.406	516.56
481.624	143.56
481.843	110.56
482.061	95.56
482.28	90.56
482.498	93.56
482.717	95.56
482.935	89.56
483.153	107.56
483.372	92.56
483.59	81.56
483.808	85.56
484.027	91.56
484.245	83.56
484.463	99.56
484.681	96.56
484.9	97.56
485.118	87.56
485.336	112.56
485.554	98.56
485.772	93.56
485.99	112.56
486.209	94.56
486.427	88.56
486.645	104.56
486.863	115.56
487.081	101.56
487.299	102.56
487.517	89.56
487.735	98.56
487.953	96.56
488.171	91.56
488.389	94.56
488.607	94.56
488.825	86.56
489.043	80.56
489.261	97.56
489.479	86.56
489.696	78.56
489.914	91.56
490.132	84.56
490.35	79.56
490.568	89.56
490.786	85.56
491.003	88.56
491.221	103.56
491.439	101.56
491.657	93.56
491.874	96.56
492.092	102.56
492.31	92.56
492.527	88.56
492.745	108.56
492.963	88.56
493.18	94.56
493.398	91.56
493.615	95.56
493.833	104.56
494.05	101.56
494.268	86.56
494.485	97.56
494.703	88.56
494.92	77.56
495.138	85.56
495.355	90.56
495.573	91.56
495.79	96.56
496.008	99.56
496.225	91.56
496.442	93.56
496.66	100.56
496.877	105.56
497.094	96.56
497.312	100.56
497.529	91.56
497.746	92.56
497.963	92.56
498.181	94.56
498.398	90.56
498.615	110.56
498.832	110.56
499.049	98.56
499.267	89.56
499.484	88.56
499.701	90.56
499.918	82.56
500.135	71.56
500.352	85.56
500.569	105.56
500.786	85.56
501.003	103.56
501.22	112.56
501.437	92.56
501.654	97.56
501.871	104.56
502.088	83.56
502.305	87.56
502.522	90.56
502.739	91.56
502.956	86.56
503.172	93.56
503.389	108.56
503.606	99.56
503.823	102.56
504.04	89.56
504.256	93.56
504.473	87.56
504.69	89.56
504.907	100.56
505.123	92.56
505.34	108.56
505.557	94.56
505.773	81.56
505.99	81.56
506.207	86.56
506.423	90.56
506.64	113.56
506.856	106.56
507.073	78.56
507.289	92.56
507.506	109.56
507.722	103.56
507.939	104.56
508.155	77.56
508.372	95.56
508.588	86.56
508.805	109.56
509.021	93.56
509.238	95.56
509.454	100.56
509.67	100.56
509.887	121.56
510.103	130.56
510.319	197.56
510.536	712.56
510.752	2177.56
510.968	617.56
511.184	157.56
511.401	120.56
511.617	94.56
511.833	104.56
512.049	96.56
512.265	100.56
512.481	101.56
512.698	88.56
512.914	97.56
513.13	82.56
513.346	96.56
513.562	88.56
513.778	92.56
513.994	97.56
514.21	100.56
514.426	123.56
514.642	135.56
514.858	135.56
515.074	178.56
515.29	443.56
515.506	1454.56
515.721	569.56
515.937	163.56
516.153	115.56
516.369	99.56
516.585	105.56
516.801	96.56
517.016	79.56
517.232	92.56
517.448	105.56
517.664	90.56
517.879	93.56
518.095	95.56
518.311	104.56
518.527	94.56
518.742	94.56
518.958	90.56
519.173	104.56
519.389	108.56
519.605	106.56
519.82	97.56
520.036	110.56
520.251	118.56
520.467	104.56
520.682	111.56
520.898	107.56
521.113	110.56
521.329	133.56
521.544	211.56
521.76	573.56
521.975	2390.56
522.19	1513.56
522.406	337.56
522.621	135.56
522.836	92.56
523.052	87.56
523.267	102.56
523.482	98.56
523.698	106.56
523.913	135.56
524.128	102.56
524.343	102.56
524.559	94.56
524.774	102.56
524.989	96.56
525.204	112.56
525.419	95.56
525.634	91.56
525.849	79.56
526.064	88.56
526.28	100.56
526.495	85.56
526.71	97.56
526.925	88.56
527.14	97.56
527.355	90.56
527.57	92.56
527.785	95.56
527.999	101.56
528.214	90.56
528.429	103.56
528.644	96.56
528.859	104.56
529.074	101.56
529.289	132.56
529.503	180.56
529.718	111.56
529.933	89.56
530.148	74.56
530.363	104.56
530.577	99.56
530.792	89.56
531.007	96.56
531.221	99.56
531.436	105.56
531.651	94.56
531.865	101.56
532.08	101.56
532.295	93.56
532.509	91.56
532.724	88.56
532.938	102.56
533.153	101.56
533.367	101.56
533.582	99.56
533.796	98.56
534.011	97.56
534.225	112.56
534.44	97.56
534.654	91.56
534.868	90.56
535.083	94.56
535.297	91.56
535.511	101.56
535.726	110.56
535.94	101.56
536.154	85.56
536.369	95.56
536.583	90.56
536.797	90.56
537.011	88.56
537.225	84.56
537.44	85.56
537.654	103.56
537.868	89.56
538.082	111.56
538.296	93.56
538.51	86.56
538.724	76.56
538.938	92.56
539.153	88.56
539.367	115.56
539.581	85.56
539.795	93.56
540.009	85.56
540.222	90.56
540.436	87.56
540.65	71.56
540.864	89.56
541.078	87.56
541.292	84.56
541.506	95.56
541.72	99.56
541.934	88.56
542.147	97.56
542.361	97.56
542.575	105.56
542.789	90.56
543.002	93.56
543.216	100.56
543.43	100.56
543.644	95.56
543.857	89.56
544.071	92.56
544.285	106.56
544.498	90.56
544.712	96.56
544.925	92.56
545.139	93.56
545.352	92.56
545.566	95.56
545.779	89.56
545.993	87.56
546.206	102.56
546.42	96.56
546.633	88.56
546.847	115.56
547.06	99.56
547.274	83.56
547.487	94.56
547.7	99.56
547.914	90.56
548.127	87.56
548.34	97.56
548.554	92.56
548.767	90.56
548.98	104.56
549.193	89.56
549.407	86.56
549.62	84.56
549.833	98.56
550.046	68.56
550.259	103.56
550.473	96.56
550.686	92.56
550.899	101.56
551.112	98.56
551.325	85.56
551.538	99.56
551.751	88.56
551.964	85.56
552.177	96.56
552.39	81.56
552.603	102.56
552.816	90.56
553.029	85.56
553.242	90.56
553.455	100.56
553.667	99.56
553.88	111.56
554.093	93.56
554.306	94.56
554.519	104.56
554.732	95.56
554.944	92.56
555.157	95.56
555.37	87.56
555.583	85.56
555.795	99.56
556.008	99.56
556.221	73.56
556.433	94.56
556.646	91.56
556.859	94.56
557.071	84.56
557.284	86.56
557.496	88.56
557.709	93.56
557.921	92.56
558.134	88.56
558.346	100.56
558.559	101.56
558.771	82.56
558.984	80.56
559.196	81.56
559.409	91.56
559.621	92.56
559.833	89.56
560.046	73.56
560.258	103.56
560.47	94.56
560.683	85.56
560.895	101.56
561.107	78.56
561.32	86.56
561.532	74.56
561.744	83.56
561.956	84.56
562.168	99.56
562.381	91.56
562.593	100.56
562.805	84.56
563.017	90.56
563.229	78.56
563.441	87.56
563.653	93.56
563.865	78.56
564.077	87.56
564.289	88.56
564.501	91.56
564.713	91.56
564.925	80.56
565.137	108.56
565.349	96.56
565.561	88.56
565.773	96.56
565.985	95.56
566.197	70.56
566.408	80.56
566.62	72.56
566.832	93.56
567.044	88.56
567.255	88.56
567.467	89.56
567.679	88.56
567.891	91.56
568.102	82.56
568.314	85.56
568.526	77.56
568.737	85.56
568.949	85.56
569.161	80.56
569.372	83.56
569.584	85.56
569.795	101.56
570.007	106.56
570.218	235.56
570.43	131.56
570.641	110.56
570.853	78.56
571.064	84.56
571.276	77.56
571.487	83.56
571.698	92.56
571.91	87.56
572.121	73.56
572.333	80.56
572.544	75.56
572.755	80.56
572.966	81.56
573.178	88.56
573.389	100.56
573.6	87.56
573.811	90.56
574.023	86.56
574.234	82.56
574.445	81.56
574.656	89.56
574.867	96.56
575.078	92.56
575.289	80.56
575.501	99.56
575.712	87.56
575.923	79.56
576.134	90.56
576.345	96.56
576.556	88.56
576.767	99.56
576.978	97.56
577.188	100.56
577.399	91.56
577.61	98.56
577.821	86.56
578.032	110.56
578.243	243.56
578.454	643.56
578.665	185.56
578.875	89.56
579.086	88.56
579.297	96.56
579.508	96.56
579.718	105.56
579.929	102.56
580.14	98.56
580.35	81.56
580.561	98.56
580.772	85.56
580.982	91.56
581.193	101.56
581.403	79.56
581.614	81.56
581.825	83.56
582.035	87.56
582.246	86.56
582.456	78.56
582.667	76.56
582.877	96.56
583.087	81.56
583.298	92.56
583.508	94.56
583.719	94.56
583.929	84.56
584.139	100.56
584.35	67.56
584.56	92.56
584.77	95.56
584.981	88.56
585.191	80.56
585.401	84.56
585.611	85.56
585.821	101.56
586.032	99.56
586.242	80.56
586.452	89.56
586.662	78.56
586.872	79.56
587.082	92.56
587.292	82.56
587.502	86.56
587.713	92.56
587.923	94.56
588.133	80.56
588.343	93.56
588.553	82.56
588.762	95.56
588.972	94.56
589.182	85.56
589.392	91.56
589.602	85.56
589.812	74.56
590.022	88.56
590.232	85.56
590.441	87.56
590.651	93.56
590.861	92.56
591.071	93.56
591.281	108.56
591.49	88.56
591.7	90.56
591.91	97.56
592.119	98.56
592.329	96.56
592.539	102.56
592.748	83.56
592.958	88.56
593.167	83.56
593.377	72.56
593.587	93.56
593.796	87.56
594.006	80.56
594.215	74.56
594.424	89.56
594.634	82.56
594.843	91.56
595.053	89.56
595.262	84.56
595.472	93.56
595.681	89.56
595.89	82.56
596.1	81.56
596.309	92.56
596.518	77.56
596.727	81.56
596.937	85.56
597.146	92.56
597.355	95.56
597.564	79.56
597.774	96.56
597.983	80.56
598.192	86.56
598.401	90.56
598.61	89.56
598.819	95.56
599.028	95.56
599.237	82.56
599.446	80.56
599.655	83.56
599.864	86.56
600.073	85.56
600.282	91.56
600.491	95.56
600.7	86.56
600.909	87.56
601.118	88.56
601.327	86.56
601.536	83.56
601.745	96.56
601.953	103.56
602.162	100.56
602.371	79.56
602.58	87.56
602.789	80.56
602.997	106.56
603.206	102.56
603.415	73.56
603.623	85.56
603.832	88.56
604.041	89.56
604.249	87.56
604.458	71.56
604.666	87.56
604.875	92.56
605.084	90.56
605.292	96.56
605.501	88.56
605.709	76.56
605.918	93.56
606.126	80.56
606.334	85.56
606.543	87.56
606.751	84.56
606.96	99.56
607.168	87.56
607.376	93.56
607.585	92.56
607.793	86.56
608.001	79.56
608.21	86.56
608.418	61.56
608.626	84.56
608.834	77.56
609.043	85.56
609.251	83.56
609.459	92.56
609.667	86.56
609.875	95.56
610.083	81.56
610.291	87.56
610.499	80.56
610.707	81.56
610.916	96.56
611.124	92.56
611.332	90.56
611.54	85.56
611.748	92.56
611.955	95.56
612.163	76.56
612.371	75.56
612.579	92.56
612.787	75.56
612.995	84.56
613.203	79.56
613.411	80.56
613.618	77.56
613.826	76.56
614.034	92.56
614.242	93.56
614.449	93.56
614.657	84.56
614.865	87.56
615.072	95.56
615.28	82.56
615.488	100.56
615.695	90.56
615.903	76.56
616.111	108.56
616.318	88.56
616.526	87.56
616.733	101.56
616.941	82.56
617.148	98.56
617.356	97.56
617.563	75.56
617.771	82.56
617.978	103.56
618.185	89.56
618.393	77.56
618.6	81.56
618.807	78.56
619.015	77.56
619.222	93.56
619.429	94.56
619.637	103.56
619.844	93.56
620.051	80.56
620.258	91.56
620.466	92.56
620.673	78.56
620.88	76.56
621.087	91.56
621.294	108.56
621.501	89.56
621.708	85.56
621.915	92.56
622.122	90.56
622.329	77.56
622.536	83.56
622.743	65.56
622.95	88.56
623.157	89.56
623.364	88.56
623.571	91.56
623.778	95.56
623.985	88.56
624.192	88.56
624.399	90.56
624.606	94.56
624.812	91.56
625.019	78.56
625.226	85.56
625.433	87.56
625.639	74.56
625.846	82.56
626.053	88.56
626.259	87.56
626.466	90.56
626.673	83.56
626.879	84.56
627.086	80.56
627.293	87.56
627.499	81.56
627.706	81.56
627.912	99.56
628.119	82.56
628.325	81.56
628.532	90.56
628.738	93.56
628.945	82.56
629.151	57.56
629.357	93.56
629.564	82.56
629.77	94.56
629.976	87.56
630.183	95.56
630.389	85.56
630.595	86.56
630.802	82.56
631.008	83.56
631.214	94.56
631.42	83.56
631.627	83.56
631.833	78.56
632.039	78.56
632.245	77.56
632.451	81.56
632.657	83.56
632.863	91.56
633.069	86.56
633.275	76.56
633.481	75.56
633.688	84.56
633.893	92.56
634.099	93.56
634.305	77.56
634.511	100.56
634.717	79.56
634.923	81.56
635.129	84.56
635.335	84.56
635.541	91.56
635.747	84.56
635.952	87.56
636.158	101.56
636.364	127.56
636.57	115.56
636.775	104.56
636.981	92.56
637.187	78.56
637.392	92.56
637.598	82.56
637.804	75.56
638.009	62.56
638.215	70.56
638.421	92.56
638.626	89.56
638.832	84.56
639.037	95.56
639.243	88.56
639.448	83.56
639.654	92.56
639.859	80.56
640.065	91.56
640.27	84.56
640.475	71.56
640.681	81.56
640.886	88.56
641.091	88.56
641.297	82.56
641.502	84.56
641.707	79.56
641.913	85.56
642.118	88.56
642.323	88.56
642.528	95.56
642.733	74.56
642.939	78.56
643.144	78.56
643.349	76.56
643.554	89.56
643.759	91.56
643.964	86.56
644.169	86.56
644.374	77.56
644.579	102.56
644.784	78.56
644.989	80.56
645.194	90.56
645.399	76.56
645.604	91.56
645.809	91.56
646.014	76.56
646.219	94.56
646.423	92.56
646.628	81.56
646.833	76.56
647.038	85.56
647.243	85.56
647.447	81.56
647.652	89.56
647.857	94.56
648.062	96.56
648.266	71.56
648.471	96.56
648.676	94.56
648.88	101.56
649.085	99.56
649.289	88.56
649.494	103.56
649.698	146.56
649.903	90.56
650.107	76.56
650.312	93.56
650.516	94.56
650.721	84.56
650.925	81.56
651.13	85.56
651.334	68.56
651.539	81.56
651.743	81.56
651.947	79.56
652.152	74.56
652.356	72.56
652.56	77.56
652.764	60.56
652.969	72.56
653.173	87.56
653.377	79.56
653.581	79.56
653.785	92.56
653.99	75.56
654.194	87.56
654.398	75.56
654.602	75.56
654.806	84.56
655.01	93.56
655.214	101.56
655.418	84.56
655.622	76.56
655.826	85.56
656.03	85.56
656.234	81.56
656.438	98.56
656.642	94.56
656.846	88.56
657.049	73.56
657.253	102.56
657.457	97.56
657.661	81.56
657.865	89.56
658.068	88.56
658.272	78.56
658.476	85.56
658.68	81.56
658.883	81.56
659.087	85.56
659.291	73.56
659.494	82.56
659.698	92.56
659.901	84.56
660.105	80.56
660.309	87.56
660.512	69.56
660.716	87.56
660.919	81.56
661.123	83.56
661.326	75.56
661.53	84.56
661.733	90.56
661.936	92.56
662.14	88.56
662.343	81.56
662.546	80.56
662.75	94.56
662.953	87.56
663.156	86.56
663.36	84.56
663.563	86.56
663.766	84.56
663.969	80.56
664.173	77.56
664.376	84.56
664.579	76.56
664.782	87.56
664.985	79.56
665.188	77.56
665.391	71.56
665.594	78.56
665.797	96.56
666	76.56
666.203	79.56
666.406	85.56
666.609	93.56
666.812	85.56
667.015	85.56
667.218	81.56
667.421	76.56
667.624	96.56
667.827	89.56
668.03	72.56
668.232	81.56
668.435	83.56
668.638	81.56
668.841	86.56
669.043	72.56
669.246	87.56
669.449	83.56
669.651	79.56
669.854	74.56
670.057	79.56
670.259	78.56
670.462	87.56
670.665	85.56
670.867	83.56
671.07	75.56
671.272	75.56
671.475	79.56
671.677	79.56
671.88	69.56
672.082	78.56
672.284	79.56
672.487	73.56
672.689	81.56
672.892	78.56
