Data from Uncirc_2006_H10_HRD10591_00041.txt Node
Date: Wed Jan 03 10:25:03 EST 2024
User: Yrep
Spectrometer: HR+D1059
Trigger mode: 1
Integration Time (sec): 1.000000E-1
Scans to average: 1
Electric dark correction enabled: true
Nonlinearity correction enabled: false
Boxcar width: 0
XAxis mode: Wavelengths
Number of Pixels in Spectrum: 2048
>>>>>Begin Spectral Data<<<<<
223.165	-9.44
223.4	-9.44
223.635	-9.44
223.869	-6.44
224.104	-12.44
224.338	-14.44
224.573	-15.44
224.808	-18.44
225.042	-14.44
225.277	-4.44
225.511	-7.44
225.746	8.56
225.98	7.56
226.215	19.56
226.449	15.56
226.683	9.56
226.918	14.56
227.152	27.56
227.387	43.56
227.621	40.56
227.856	51.56
228.09	49.56
228.324	48.56
228.559	48.56
228.793	70.56
229.027	64.56
229.262	61.56
229.496	74.56
229.73	75.56
229.964	84.56
230.199	82.56
230.433	84.56
230.667	77.56
230.901	87.56
231.136	82.56
231.37	87.56
231.604	81.56
231.838	77.56
232.072	70.56
232.306	78.56
232.541	86.56
232.775	76.56
233.009	87.56
233.243	87.56
233.477	72.56
233.711	102.56
233.945	73.56
234.179	75.56
234.413	67.56
234.647	84.56
234.881	75.56
235.115	82.56
235.349	74.56
235.583	76.56
235.817	65.56
236.051	65.56
236.285	79.56
236.519	69.56
236.753	79.56
236.987	86.56
237.221	79.56
237.455	88.56
237.689	73.56
237.922	84.56
238.156	65.56
238.39	66.56
238.624	70.56
238.858	76.56
239.091	83.56
239.325	84.56
239.559	88.56
239.793	84.56
240.027	90.56
240.26	71.56
240.494	76.56
240.728	69.56
240.961	75.56
241.195	57.56
241.429	62.56
241.662	74.56
241.896	79.56
242.13	85.56
242.363	86.56
242.597	90.56
242.83	92.56
243.064	89.56
243.298	71.56
243.531	81.56
243.765	80.56
243.998	86.56
244.232	100.56
244.465	79.56
244.699	78.56
244.932	95.56
245.166	88.56
245.399	79.56
245.633	80.56
245.866	84.56
246.099	90.56
246.333	76.56
246.566	88.56
246.8	81.56
247.033	73.56
247.266	71.56
247.5	83.56
247.733	65.56
247.966	87.56
248.2	66.56
248.433	77.56
248.666	64.56
248.899	78.56
249.133	89.56
249.366	86.56
249.599	84.56
249.832	86.56
250.066	76.56
250.299	78.56
250.532	82.56
250.765	80.56
250.998	75.56
251.231	81.56
251.465	83.56
251.698	69.56
251.931	73.56
252.164	78.56
252.397	63.56
252.63	79.56
252.863	92.56
253.096	77.56
253.329	86.56
253.562	74.56
253.795	76.56
254.028	79.56
254.261	79.56
254.494	86.56
254.727	95.56
254.96	77.56
255.193	81.56
255.426	69.56
255.659	74.56
255.892	79.56
256.124	73.56
256.357	65.56
256.59	73.56
256.823	83.56
257.056	85.56
257.289	79.56
257.521	76.56
257.754	82.56
257.987	76.56
258.22	80.56
258.452	99.56
258.685	86.56
258.918	77.56
259.151	83.56
259.383	63.56
259.616	82.56
259.849	82.56
260.081	76.56
260.314	81.56
260.547	94.56
260.779	83.56
261.012	99.56
261.244	87.56
261.477	94.56
261.71	99.56
261.942	94.56
262.175	95.56
262.407	83.56
262.64	66.56
262.872	90.56
263.105	95.56
263.337	82.56
263.57	75.56
263.802	85.56
264.035	82.56
264.267	84.56
264.499	94.56
264.732	79.56
264.964	82.56
265.197	74.56
265.429	81.56
265.661	70.56
265.894	85.56
266.126	89.56
266.358	88.56
266.591	71.56
266.823	81.56
267.055	82.56
267.287	75.56
267.52	86.56
267.752	50.56
267.984	75.56
268.216	86.56
268.448	81.56
268.681	84.56
268.913	79.56
269.145	90.56
269.377	88.56
269.609	91.56
269.841	96.56
270.073	79.56
270.306	86.56
270.538	93.56
270.77	82.56
271.002	77.56
271.234	86.56
271.466	82.56
271.698	88.56
271.93	78.56
272.162	71.56
272.394	73.56
272.626	91.56
272.858	87.56
273.09	90.56
273.322	81.56
273.553	82.56
273.785	96.56
274.017	77.56
274.249	99.56
274.481	75.56
274.713	93.56
274.945	86.56
275.176	83.56
275.408	76.56
275.64	94.56
275.872	87.56
276.104	90.56
276.335	76.56
276.567	101.56
276.799	107.56
277.031	103.56
277.262	91.56
277.494	84.56
277.726	66.56
277.957	80.56
278.189	87.56
278.421	82.56
278.652	93.56
278.884	83.56
279.115	84.56
279.347	90.56
279.579	97.56
279.81	77.56
280.042	90.56
280.273	100.56
280.505	89.56
280.736	83.56
280.968	77.56
281.199	75.56
281.431	72.56
281.662	84.56
281.894	80.56
282.125	92.56
282.356	110.56
282.588	117.56
282.819	111.56
283.051	86.56
283.282	98.56
283.513	86.56
283.745	89.56
283.976	85.56
284.207	87.56
284.439	90.56
284.67	70.56
284.901	85.56
285.132	87.56
285.364	93.56
285.595	86.56
285.826	91.56
286.057	84.56
286.288	88.56
286.52	104.56
286.751	87.56
286.982	105.56
287.213	84.56
287.444	81.56
287.675	74.56
287.906	90.56
288.138	81.56
288.369	82.56
288.6	90.56
288.831	80.56
289.062	81.56
289.293	88.56
289.524	92.56
289.755	80.56
289.986	81.56
290.217	94.56
290.448	77.56
290.679	84.56
290.91	96.56
291.141	88.56
291.371	86.56
291.602	94.56
291.833	64.56
292.064	75.56
292.295	75.56
292.526	79.56
292.757	90.56
292.987	93.56
293.218	99.56
293.449	85.56
293.68	78.56
293.91	88.56
294.141	87.56
294.372	90.56
294.603	85.56
294.833	85.56
295.064	85.56
295.295	81.56
295.525	87.56
295.756	103.56
295.987	102.56
296.217	124.56
296.448	97.56
296.679	86.56
296.909	84.56
297.14	73.56
297.37	79.56
297.601	83.56
297.831	86.56
298.062	92.56
298.292	92.56
298.523	87.56
298.753	99.56
298.984	91.56
299.214	92.56
299.445	78.56
299.675	99.56
299.905	93.56
300.136	90.56
300.366	77.56
300.597	95.56
300.827	67.56
301.057	98.56
301.288	93.56
301.518	94.56
301.748	75.56
301.979	93.56
302.209	81.56
302.439	81.56
302.669	89.56
302.9	87.56
303.13	76.56
303.36	81.56
303.59	91.56
303.82	98.56
304.051	85.56
304.281	82.56
304.511	91.56
304.741	87.56
304.971	99.56
305.201	92.56
305.431	84.56
305.661	94.56
305.891	96.56
306.121	87.56
306.352	100.56
306.582	97.56
306.812	85.56
307.042	86.56
307.272	84.56
307.502	77.56
307.731	74.56
307.961	75.56
308.191	83.56
308.421	99.56
308.651	85.56
308.881	92.56
309.111	107.56
309.341	93.56
309.571	106.56
309.8	83.56
310.03	93.56
310.26	99.56
310.49	106.56
310.72	111.56
310.949	94.56
311.179	94.56
311.409	88.56
311.639	77.56
311.868	84.56
312.098	94.56
312.328	90.56
312.557	91.56
312.787	105.56
313.017	92.56
313.246	96.56
313.476	92.56
313.706	96.56
313.935	96.56
314.165	83.56
314.394	95.56
314.624	92.56
314.853	96.56
315.083	103.56
315.312	96.56
315.542	91.56
315.771	92.56
316.001	90.56
316.23	81.56
316.46	94.56
316.689	93.56
316.919	99.56
317.148	80.56
317.377	81.56
317.607	90.56
317.836	83.56
318.065	98.56
318.295	98.56
318.524	86.56
318.753	85.56
318.983	98.56
319.212	95.56
319.441	93.56
319.67	99.56
319.9	80.56
320.129	73.56
320.358	98.56
320.587	86.56
320.816	96.56
321.046	97.56
321.275	95.56
321.504	94.56
321.733	101.56
321.962	96.56
322.191	87.56
322.42	91.56
322.649	122.56
322.878	108.56
323.108	105.56
323.337	114.56
323.566	115.56
323.795	141.56
324.024	211.56
324.253	375.56
324.482	764.56
324.71	1541.56
324.939	2006.56
325.168	741.56
325.397	228.56
325.626	143.56
325.855	131.56
326.084	119.56
326.313	121.56
326.542	149.56
326.77	217.56
326.999	433.56
327.228	874.56
327.457	1558.56
327.686	1227.56
327.914	352.56
328.143	177.56
328.372	129.56
328.6	102.56
328.829	110.56
329.058	114.56
329.287	108.56
329.515	98.56
329.744	100.56
329.972	91.56
330.201	104.56
330.43	111.56
330.658	107.56
330.887	108.56
331.115	105.56
331.344	83.56
331.572	88.56
331.801	102.56
332.03	107.56
332.258	99.56
332.486	94.56
332.715	86.56
332.943	94.56
333.172	97.56
333.4	82.56
333.629	95.56
333.857	102.56
334.085	100.56
334.314	87.56
334.542	89.56
334.771	82.56
334.999	99.56
335.227	90.56
335.455	110.56
335.684	89.56
335.912	90.56
336.14	89.56
336.369	90.56
336.597	93.56
336.825	92.56
337.053	89.56
337.281	99.56
337.51	79.56
337.738	94.56
337.966	78.56
338.194	87.56
338.422	93.56
338.65	101.56
338.878	105.56
339.106	79.56
339.334	72.56
339.562	97.56
339.79	76.56
340.018	82.56
340.246	79.56
340.474	92.56
340.702	99.56
340.93	101.56
341.158	91.56
341.386	92.56
341.614	76.56
341.842	95.56
342.07	98.56
342.298	84.56
342.526	81.56
342.754	81.56
342.981	74.56
343.209	88.56
343.437	93.56
343.665	110.56
343.893	98.56
344.12	86.56
344.348	97.56
344.576	96.56
344.804	95.56
345.031	101.56
345.259	93.56
345.487	85.56
345.714	97.56
345.942	87.56
346.17	108.56
346.397	97.56
346.625	87.56
346.853	83.56
347.08	83.56
347.308	101.56
347.535	107.56
347.763	117.56
347.99	95.56
348.218	115.56
348.445	99.56
348.673	100.56
348.9	95.56
349.128	97.56
349.355	91.56
349.583	99.56
349.81	100.56
350.037	97.56
350.265	99.56
350.492	87.56
350.72	94.56
350.947	98.56
351.174	98.56
351.402	93.56
351.629	106.56
351.856	103.56
352.083	101.56
352.311	98.56
352.538	105.56
352.765	98.56
352.992	114.56
353.22	114.56
353.447	124.56
353.674	112.56
353.901	94.56
354.128	96.56
354.355	111.56
354.583	99.56
354.81	97.56
355.037	80.56
355.264	112.56
355.491	82.56
355.718	90.56
355.945	82.56
356.172	94.56
356.399	81.56
356.626	105.56
356.853	92.56
357.08	100.56
357.307	92.56
357.534	103.56
357.761	114.56
357.988	102.56
358.215	92.56
358.441	91.56
358.668	97.56
358.895	92.56
359.122	97.56
359.349	95.56
359.576	98.56
359.802	96.56
360.029	96.56
360.256	106.56
360.483	105.56
360.709	101.56
360.936	86.56
361.163	78.56
361.39	96.56
361.616	94.56
361.843	88.56
362.07	82.56
362.296	103.56
362.523	85.56
362.749	82.56
362.976	89.56
363.203	89.56
363.429	92.56
363.656	92.56
363.882	91.56
364.109	95.56
364.335	102.56
364.562	90.56
364.788	83.56
365.015	91.56
365.241	93.56
365.468	124.56
365.694	102.56
365.92	101.56
366.147	79.56
366.373	78.56
366.599	90.56
366.826	91.56
367.052	98.56
367.278	99.56
367.505	103.56
367.731	91.56
367.957	81.56
368.184	104.56
368.41	105.56
368.636	101.56
368.862	101.56
369.089	95.56
369.315	92.56
369.541	86.56
369.767	62.56
369.993	90.56
370.219	99.56
370.445	78.56
370.672	79.56
370.898	75.56
371.124	97.56
371.35	81.56
371.576	93.56
371.802	82.56
372.028	101.56
372.254	86.56
372.48	85.56
372.706	81.56
372.932	83.56
373.158	99.56
373.384	84.56
373.61	90.56
373.835	85.56
374.061	93.56
374.287	92.56
374.513	83.56
374.739	67.56
374.965	90.56
375.191	90.56
375.416	98.56
375.642	95.56
375.868	111.56
376.094	95.56
376.319	94.56
376.545	91.56
376.771	91.56
376.997	84.56
377.222	106.56
377.448	83.56
377.674	93.56
377.899	86.56
378.125	98.56
378.35	82.56
378.576	82.56
378.802	94.56
379.027	79.56
379.253	93.56
379.478	93.56
379.704	101.56
379.929	96.56
380.155	84.56
380.38	93.56
380.606	99.56
380.831	82.56
381.057	105.56
381.282	94.56
381.507	97.56
381.733	89.56
381.958	89.56
382.184	87.56
382.409	89.56
382.634	90.56
382.86	106.56
383.085	93.56
383.31	96.56
383.535	93.56
383.761	88.56
383.986	112.56
384.211	98.56
384.436	97.56
384.662	88.56
384.887	99.56
385.112	114.56
385.337	118.56
385.562	111.56
385.787	111.56
386.013	106.56
386.238	108.56
386.463	106.56
386.688	109.56
386.913	99.56
387.138	107.56
387.363	101.56
387.588	106.56
387.813	95.56
388.038	101.56
388.263	105.56
388.488	105.56
388.713	99.56
388.938	100.56
389.163	102.56
389.387	88.56
389.612	91.56
389.837	99.56
390.062	98.56
390.287	118.56
390.512	93.56
390.736	86.56
390.961	93.56
391.186	118.56
391.411	100.56
391.636	89.56
391.86	82.56
392.085	84.56
392.31	78.56
392.534	74.56
392.759	84.56
392.984	86.56
393.208	85.56
393.433	77.56
393.658	88.56
393.882	89.56
394.107	77.56
394.331	85.56
394.556	86.56
394.78	85.56
395.005	75.56
395.229	83.56
395.454	101.56
395.678	79.56
395.903	99.56
396.127	91.56
396.352	72.56
396.576	78.56
396.801	94.56
397.025	71.56
397.249	93.56
397.474	99.56
397.698	83.56
397.922	90.56
398.147	74.56
398.371	79.56
398.595	84.56
398.82	77.56
399.044	85.56
399.268	77.56
399.492	89.56
399.717	89.56
399.941	103.56
400.165	84.56
400.389	94.56
400.613	95.56
400.837	95.56
401.062	82.56
401.286	80.56
401.51	81.56
401.734	95.56
401.958	94.56
402.182	115.56
402.406	143.56
402.63	102.56
402.854	90.56
403.078	102.56
403.302	95.56
403.526	81.56
403.75	85.56
403.974	82.56
404.198	83.56
404.422	88.56
404.645	79.56
404.869	82.56
405.093	91.56
405.317	84.56
405.541	94.56
405.765	93.56
405.988	112.56
406.212	155.56
406.436	191.56
406.66	133.56
406.883	102.56
407.107	86.56
407.331	98.56
407.555	105.56
407.778	97.56
408.002	78.56
408.226	78.56
408.449	85.56
408.673	74.56
408.896	79.56
409.12	101.56
409.344	95.56
409.567	91.56
409.791	79.56
410.014	106.56
410.238	90.56
410.461	111.56
410.685	99.56
410.908	104.56
411.132	103.56
411.355	97.56
411.578	90.56
411.802	88.56
412.025	87.56
412.249	79.56
412.472	90.56
412.695	86.56
412.919	82.56
413.142	78.56
413.365	88.56
413.589	93.56
413.812	100.56
414.035	104.56
414.258	86.56
414.482	89.56
414.705	97.56
414.928	98.56
415.151	110.56
415.374	93.56
415.597	84.56
415.821	90.56
416.044	103.56
416.267	77.56
416.49	100.56
416.713	108.56
416.936	97.56
417.159	98.56
417.382	75.56
417.605	87.56
417.828	103.56
418.051	83.56
418.274	109.56
418.497	83.56
418.72	99.56
418.943	95.56
419.166	87.56
419.389	101.56
419.611	95.56
419.834	95.56
420.057	79.56
420.28	83.56
420.503	86.56
420.726	98.56
420.948	94.56
421.171	81.56
421.394	86.56
421.617	85.56
421.839	81.56
422.062	109.56
422.285	102.56
422.507	90.56
422.73	99.56
422.953	79.56
423.175	98.56
423.398	90.56
423.621	104.56
423.843	90.56
424.066	79.56
424.288	93.56
424.511	76.56
424.733	81.56
424.956	96.56
425.178	92.56
425.401	91.56
425.623	94.56
425.846	89.56
426.068	91.56
426.291	99.56
426.513	93.56
426.735	86.56
426.958	91.56
427.18	84.56
427.402	118.56
427.625	136.56
427.847	122.56
428.069	102.56
428.292	91.56
428.514	78.56
428.736	75.56
428.958	88.56
429.181	69.56
429.403	84.56
429.625	84.56
429.847	79.56
430.069	100.56
430.292	91.56
430.514	75.56
430.736	74.56
430.958	98.56
431.18	88.56
431.402	81.56
431.624	89.56
431.846	73.56
432.068	78.56
432.29	83.56
432.512	97.56
432.734	79.56
432.956	86.56
433.178	97.56
433.4	68.56
433.622	85.56
433.844	89.56
434.066	80.56
434.287	80.56
434.509	101.56
434.731	90.56
434.953	83.56
435.175	89.56
435.397	94.56
435.618	97.56
435.84	96.56
436.062	106.56
436.284	109.56
436.505	68.56
436.727	102.56
436.949	85.56
437.17	98.56
437.392	88.56
437.614	92.56
437.835	107.56
438.057	95.56
438.278	93.56
438.5	88.56
438.721	121.56
438.943	100.56
439.165	81.56
439.386	97.56
439.608	95.56
439.829	105.56
440.05	106.56
440.272	144.56
440.493	94.56
440.715	86.56
440.936	103.56
441.158	93.56
441.379	71.56
441.6	102.56
441.822	77.56
442.043	88.56
442.264	90.56
442.486	87.56
442.707	90.56
442.928	102.56
443.149	122.56
443.371	126.56
443.592	99.56
443.813	109.56
444.034	99.56
444.255	89.56
444.476	81.56
444.698	81.56
444.919	103.56
445.14	121.56
445.361	120.56
445.582	107.56
445.803	113.56
446.024	115.56
446.245	122.56
446.466	97.56
446.687	92.56
446.908	83.56
447.129	99.56
447.35	81.56
447.571	92.56
447.792	81.56
448.013	93.56
448.234	92.56
448.455	93.56
448.675	105.56
448.896	109.56
449.117	101.56
449.338	96.56
449.559	111.56
449.779	105.56
450	97.56
450.221	83.56
450.442	94.56
450.662	89.56
450.883	99.56
451.104	88.56
451.324	99.56
451.545	93.56
451.766	88.56
451.986	95.56
452.207	96.56
452.428	100.56
452.648	96.56
452.869	95.56
453.089	99.56
453.31	102.56
453.53	96.56
453.751	98.56
453.971	95.56
454.192	90.56
454.412	95.56
454.633	86.56
454.853	90.56
455.073	86.56
455.294	75.56
455.514	99.56
455.734	101.56
455.955	88.56
456.175	84.56
456.395	87.56
456.616	86.56
456.836	90.56
457.056	85.56
457.276	85.56
457.497	83.56
457.717	87.56
457.937	74.56
458.157	101.56
458.377	92.56
458.598	113.56
458.818	137.56
459.038	131.56
459.258	102.56
459.478	88.56
459.698	86.56
459.918	96.56
460.138	89.56
460.358	86.56
460.578	93.56
460.798	77.56
461.018	83.56
461.238	85.56
461.458	79.56
461.678	81.56
461.898	90.56
462.118	90.56
462.338	97.56
462.558	90.56
462.777	85.56
462.997	86.56
463.217	70.56
463.437	82.56
463.657	84.56
463.876	84.56
464.096	77.56
464.316	87.56
464.536	96.56
464.755	97.56
464.975	106.56
465.195	136.56
465.414	133.56
465.634	92.56
465.854	83.56
466.073	83.56
466.293	89.56
466.512	89.56
466.732	91.56
466.951	95.56
467.171	92.56
467.391	103.56
467.61	94.56
467.829	89.56
468.049	94.56
468.268	98.56
468.488	78.56
468.707	73.56
468.927	86.56
469.146	81.56
469.365	81.56
469.585	81.56
469.804	92.56
470.023	102.56
470.243	87.56
470.462	99.56
470.681	105.56
470.901	82.56
471.12	89.56
471.339	87.56
471.558	86.56
471.777	76.56
471.997	91.56
472.216	79.56
472.435	81.56
472.654	88.56
472.873	87.56
473.092	94.56
473.311	75.56
473.53	79.56
473.749	91.56
473.968	98.56
474.187	91.56
474.406	87.56
474.625	78.56
474.844	89.56
475.063	92.56
475.282	91.56
475.501	75.56
475.72	85.56
475.939	96.56
476.158	83.56
476.377	87.56
476.596	89.56
476.814	86.56
477.033	89.56
477.252	79.56
477.471	91.56
477.69	103.56
477.908	82.56
478.127	77.56
478.346	88.56
478.564	87.56
478.783	109.56
479.002	89.56
479.22	87.56
479.439	95.56
479.658	103.56
479.876	73.56
480.095	79.56
480.313	82.56
480.532	80.56
480.751	77.56
480.969	78.56
481.188	86.56
481.406	100.56
481.624	74.56
481.843	100.56
482.061	99.56
482.28	87.56
482.498	82.56
482.717	87.56
482.935	91.56
483.153	99.56
483.372	85.56
483.59	94.56
483.808	90.56
484.027	91.56
484.245	89.56
484.463	95.56
484.681	91.56
484.9	90.56
485.118	88.56
485.336	100.56
485.554	83.56
485.772	89.56
485.99	101.56
486.209	102.56
486.427	110.56
486.645	106.56
486.863	94.56
487.081	105.56
487.299	92.56
487.517	98.56
487.735	101.56
487.953	87.56
488.171	85.56
488.389	75.56
488.607	96.56
488.825	92.56
489.043	99.56
489.261	72.56
489.479	99.56
489.696	82.56
489.914	92.56
490.132	96.56
490.35	96.56
490.568	98.56
490.786	93.56
491.003	95.56
491.221	81.56
491.439	87.56
491.657	95.56
491.874	81.56
492.092	87.56
492.31	101.56
492.527	99.56
492.745	92.56
492.963	77.56
493.18	92.56
493.398	94.56
493.615	90.56
493.833	88.56
494.05	95.56
494.268	86.56
494.485	95.56
494.703	93.56
494.92	87.56
495.138	84.56
495.355	90.56
495.573	107.56
495.79	87.56
496.008	102.56
496.225	92.56
496.442	84.56
496.66	101.56
496.877	93.56
497.094	88.56
497.312	77.56
497.529	103.56
497.746	84.56
497.963	87.56
498.181	77.56
498.398	83.56
498.615	105.56
498.832	114.56
499.049	97.56
499.267	109.56
499.484	104.56
499.701	93.56
499.918	100.56
500.135	108.56
500.352	83.56
500.569	76.56
500.786	81.56
501.003	97.56
501.22	99.56
501.437	93.56
501.654	102.56
501.871	98.56
502.088	90.56
502.305	92.56
502.522	91.56
502.739	85.56
502.956	93.56
503.172	89.56
503.389	109.56
503.606	106.56
503.823	90.56
504.04	92.56
504.256	86.56
504.473	91.56
504.69	81.56
504.907	92.56
505.123	83.56
505.34	87.56
505.557	83.56
505.773	87.56
505.99	69.56
506.207	81.56
506.423	88.56
506.64	81.56
506.856	76.56
507.073	100.56
507.289	98.56
507.506	91.56
507.722	108.56
507.939	91.56
508.155	93.56
508.372	86.56
508.588	88.56
508.805	90.56
509.021	102.56
509.238	104.56
509.454	95.56
509.67	100.56
509.887	98.56
510.103	125.56
510.319	199.56
510.536	680.56
510.752	2116.56
510.968	608.56
511.184	157.56
511.401	109.56
511.617	99.56
511.833	93.56
512.049	88.56
512.265	97.56
512.481	92.56
512.698	109.56
512.914	75.56
513.13	99.56
513.346	84.56
513.562	95.56
513.778	109.56
513.994	92.56
514.21	95.56
514.426	99.56
514.642	128.56
514.858	118.56
515.074	141.56
515.29	386.56
515.506	1237.56
515.721	471.56
515.937	144.56
516.153	112.56
516.369	93.56
516.585	77.56
516.801	92.56
517.016	105.56
517.232	91.56
517.448	77.56
517.664	112.56
517.879	91.56
518.095	87.56
518.311	80.56
518.527	94.56
518.742	97.56
518.958	103.56
519.173	97.56
519.389	83.56
519.605	87.56
519.82	97.56
520.036	99.56
520.251	111.56
520.467	107.56
520.682	103.56
520.898	99.56
521.113	98.56
521.329	123.56
521.544	181.56
521.76	489.56
521.975	2057.56
522.19	1249.56
522.406	271.56
522.621	145.56
522.836	101.56
523.052	110.56
523.267	98.56
523.482	94.56
523.698	93.56
523.913	114.56
524.128	100.56
524.343	105.56
524.559	89.56
524.774	87.56
524.989	99.56
525.204	89.56
525.419	109.56
525.634	86.56
525.849	79.56
526.064	90.56
526.28	83.56
526.495	87.56
526.71	79.56
526.925	97.56
527.14	87.56
527.355	94.56
527.57	105.56
527.785	96.56
527.999	98.56
528.214	99.56
528.429	99.56
528.644	82.56
528.859	108.56
529.074	91.56
529.289	111.56
529.503	155.56
529.718	108.56
529.933	87.56
530.148	85.56
530.363	92.56
530.577	94.56
530.792	94.56
531.007	93.56
531.221	105.56
531.436	80.56
531.651	111.56
531.865	103.56
532.08	87.56
532.295	113.56
532.509	87.56
532.724	82.56
532.938	98.56
533.153	100.56
533.367	97.56
533.582	109.56
533.796	95.56
534.011	97.56
534.225	103.56
534.44	93.56
534.654	87.56
534.868	105.56
535.083	98.56
535.297	98.56
535.511	109.56
535.726	97.56
535.94	95.56
536.154	103.56
536.369	82.56
536.583	87.56
536.797	94.56
537.011	86.56
537.225	97.56
537.44	99.56
537.654	112.56
537.868	96.56
538.082	95.56
538.296	69.56
538.51	89.56
538.724	99.56
538.938	85.56
539.153	93.56
539.367	110.56
539.581	94.56
539.795	78.56
540.009	98.56
540.222	95.56
540.436	100.56
540.65	93.56
540.864	87.56
541.078	103.56
541.292	103.56
541.506	93.56
541.72	68.56
541.934	86.56
542.147	85.56
542.361	94.56
542.575	75.56
542.789	75.56
543.002	77.56
543.216	87.56
543.43	95.56
543.644	89.56
543.857	98.56
544.071	89.56
544.285	90.56
544.498	106.56
544.712	82.56
544.925	106.56
545.139	93.56
545.352	96.56
545.566	80.56
545.779	85.56
545.993	83.56
546.206	80.56
546.42	92.56
546.633	87.56
546.847	95.56
547.06	97.56
547.274	103.56
547.487	85.56
547.7	85.56
547.914	82.56
548.127	77.56
548.34	84.56
548.554	88.56
548.767	95.56
548.98	79.56
549.193	101.56
549.407	82.56
549.62	93.56
549.833	99.56
550.046	81.56
550.259	89.56
550.473	94.56
550.686	83.56
550.899	91.56
551.112	95.56
551.325	83.56
551.538	110.56
551.751	101.56
551.964	95.56
552.177	78.56
552.39	91.56
552.603	108.56
552.816	83.56
553.029	81.56
553.242	92.56
553.455	79.56
553.667	99.56
553.88	101.56
554.093	87.56
554.306	82.56
554.519	95.56
554.732	93.56
554.944	82.56
555.157	97.56
555.37	95.56
555.583	102.56
555.795	84.56
556.008	98.56
556.221	91.56
556.433	92.56
556.646	86.56
556.859	112.56
557.071	92.56
557.284	105.56
557.496	88.56
557.709	96.56
557.921	89.56
558.134	94.56
558.346	87.56
558.559	74.56
558.771	80.56
558.984	105.56
559.196	83.56
559.409	95.56
559.621	90.56
559.833	96.56
560.046	77.56
560.258	94.56
560.47	85.56
560.683	98.56
560.895	94.56
561.107	79.56
561.32	80.56
561.532	74.56
561.744	82.56
561.956	87.56
562.168	80.56
562.381	97.56
562.593	91.56
562.805	91.56
563.017	89.56
563.229	91.56
563.441	73.56
563.653	90.56
563.865	85.56
564.077	93.56
564.289	96.56
564.501	93.56
564.713	86.56
564.925	91.56
565.137	87.56
565.349	87.56
565.561	87.56
565.773	82.56
565.985	86.56
566.197	74.56
566.408	79.56
566.62	101.56
566.832	97.56
567.044	98.56
567.255	87.56
567.467	96.56
567.679	89.56
567.891	78.56
568.102	97.56
568.314	91.56
568.526	97.56
568.737	94.56
568.949	90.56
569.161	95.56
569.372	86.56
569.584	82.56
569.795	104.56
570.007	115.56
570.218	226.56
570.43	131.56
570.641	99.56
570.853	83.56
571.064	91.56
571.276	97.56
571.487	81.56
571.698	93.56
571.91	94.56
572.121	94.56
572.333	87.56
572.544	79.56
572.755	83.56
572.966	83.56
573.178	88.56
573.389	90.56
573.6	93.56
573.811	100.56
574.023	99.56
574.234	92.56
574.445	98.56
574.656	92.56
574.867	81.56
575.078	87.56
575.289	92.56
575.501	89.56
575.712	92.56
575.923	85.56
576.134	68.56
576.345	86.56
576.556	84.56
576.767	88.56
576.978	92.56
577.188	92.56
577.399	107.56
577.61	105.56
577.821	111.56
578.032	101.56
578.243	261.56
578.454	697.56
578.665	206.56
578.875	109.56
579.086	85.56
579.297	87.56
579.508	85.56
579.718	78.56
579.929	81.56
580.14	97.56
580.35	84.56
580.561	87.56
580.772	87.56
580.982	82.56
581.193	91.56
581.403	90.56
581.614	90.56
581.825	82.56
582.035	78.56
582.246	83.56
582.456	85.56
582.667	79.56
582.877	86.56
583.087	95.56
583.298	87.56
583.508	77.56
583.719	89.56
583.929	86.56
584.139	86.56
584.35	82.56
584.56	98.56
584.77	89.56
584.981	86.56
585.191	82.56
585.401	75.56
585.611	88.56
585.821	78.56
586.032	94.56
586.242	91.56
586.452	87.56
586.662	81.56
586.872	89.56
587.082	79.56
587.292	77.56
587.502	91.56
587.713	89.56
587.923	91.56
588.133	93.56
588.343	85.56
588.553	78.56
588.762	81.56
588.972	92.56
589.182	89.56
589.392	78.56
589.602	77.56
589.812	95.56
590.022	94.56
590.232	75.56
590.441	77.56
590.651	83.56
590.861	81.56
591.071	69.56
591.281	90.56
591.49	87.56
591.7	83.56
591.91	85.56
592.119	99.56
592.329	94.56
592.539	111.56
592.748	68.56
592.958	96.56
593.167	81.56
593.377	85.56
593.587	97.56
593.796	92.56
594.006	91.56
594.215	93.56
594.424	81.56
594.634	90.56
594.843	81.56
595.053	77.56
595.262	81.56
595.472	83.56
595.681	84.56
595.89	78.56
596.1	99.56
596.309	78.56
596.518	86.56
596.727	82.56
596.937	85.56
597.146	98.56
597.355	89.56
597.564	69.56
597.774	86.56
597.983	82.56
598.192	82.56
598.401	76.56
598.61	81.56
598.819	90.56
599.028	84.56
599.237	85.56
599.446	87.56
599.655	96.56
599.864	93.56
600.073	86.56
600.282	83.56
600.491	87.56
600.7	85.56
600.909	94.56
601.118	96.56
601.327	84.56
601.536	95.56
601.745	80.56
601.953	85.56
602.162	93.56
602.371	78.56
602.58	76.56
602.789	75.56
602.997	92.56
603.206	89.56
603.415	82.56
603.623	86.56
603.832	77.56
604.041	75.56
604.249	74.56
604.458	87.56
604.666	86.56
604.875	91.56
605.084	75.56
605.292	96.56
605.501	91.56
605.709	84.56
605.918	86.56
606.126	97.56
606.334	83.56
606.543	90.56
606.751	87.56
606.96	86.56
607.168	91.56
607.376	81.56
607.585	90.56
607.793	95.56
608.001	75.56
608.21	86.56
608.418	86.56
608.626	88.56
608.834	77.56
609.043	85.56
609.251	98.56
609.459	75.56
609.667	84.56
609.875	71.56
610.083	79.56
610.291	93.56
610.499	88.56
610.707	101.56
610.916	75.56
611.124	90.56
611.332	76.56
611.54	78.56
611.748	94.56
611.955	85.56
612.163	84.56
612.371	76.56
612.579	83.56
612.787	97.56
612.995	78.56
613.203	100.56
613.411	84.56
613.618	83.56
613.826	79.56
614.034	81.56
614.242	89.56
614.449	86.56
614.657	92.56
614.865	86.56
615.072	85.56
615.28	97.56
615.488	90.56
615.695	94.56
615.903	99.56
616.111	99.56
616.318	106.56
616.526	85.56
616.733	90.56
616.941	90.56
617.148	94.56
617.356	98.56
617.563	96.56
617.771	83.56
617.978	76.56
618.185	101.56
618.393	81.56
618.6	72.56
618.807	87.56
619.015	92.56
619.222	81.56
619.429	82.56
619.637	91.56
619.844	76.56
620.051	83.56
620.258	91.56
620.466	91.56
620.673	84.56
620.88	79.56
621.087	89.56
621.294	85.56
621.501	83.56
621.708	75.56
621.915	75.56
622.122	80.56
622.329	97.56
622.536	94.56
622.743	67.56
622.95	72.56
623.157	101.56
623.364	92.56
623.571	75.56
623.778	77.56
623.985	77.56
624.192	86.56
624.399	71.56
624.606	93.56
624.812	80.56
625.019	89.56
625.226	85.56
625.433	84.56
625.639	94.56
625.846	87.56
626.053	80.56
626.259	87.56
626.466	74.56
626.673	89.56
626.879	89.56
627.086	92.56
627.293	91.56
627.499	85.56
627.706	92.56
627.912	87.56
628.119	93.56
628.325	81.56
628.532	93.56
628.738	81.56
628.945	93.56
629.151	83.56
629.357	85.56
629.564	97.56
629.77	97.56
629.976	86.56
630.183	95.56
630.389	93.56
630.595	82.56
630.802	82.56
631.008	96.56
631.214	85.56
631.42	83.56
631.627	78.56
631.833	83.56
632.039	88.56
632.245	71.56
632.451	67.56
632.657	71.56
632.863	89.56
633.069	84.56
633.275	86.56
633.481	96.56
633.688	96.56
633.893	83.56
634.099	85.56
634.305	68.56
634.511	79.56
634.717	78.56
634.923	91.56
635.129	83.56
635.335	97.56
635.541	69.56
635.747	78.56
635.952	77.56
636.158	82.56
636.364	98.56
636.57	91.56
636.775	89.56
636.981	95.56
637.187	92.56
637.392	87.56
637.598	91.56
637.804	84.56
638.009	78.56
638.215	93.56
638.421	75.56
638.626	86.56
638.832	83.56
639.037	73.56
639.243	80.56
639.448	81.56
639.654	98.56
639.859	84.56
640.065	84.56
640.27	74.56
640.475	81.56
640.681	90.56
640.886	77.56
641.091	91.56
641.297	83.56
641.502	78.56
641.707	76.56
641.913	88.56
642.118	81.56
642.323	68.56
642.528	85.56
642.733	96.56
642.939	95.56
643.144	70.56
643.349	86.56
643.554	85.56
643.759	75.56
643.964	90.56
644.169	80.56
644.374	85.56
644.579	86.56
644.784	81.56
644.989	86.56
645.194	76.56
645.399	83.56
645.604	90.56
645.809	91.56
646.014	83.56
646.219	89.56
646.423	77.56
646.628	78.56
646.833	100.56
647.038	86.56
647.243	82.56
647.447	84.56
647.652	85.56
647.857	61.56
648.062	99.56
648.266	75.56
648.471	84.56
648.676	93.56
648.88	94.56
649.085	113.56
649.289	97.56
649.494	90.56
649.698	118.56
649.903	107.56
650.107	87.56
650.312	78.56
650.516	73.56
650.721	73.56
650.925	95.56
651.13	82.56
651.334	84.56
651.539	89.56
651.743	75.56
651.947	54.56
652.152	81.56
652.356	82.56
652.56	89.56
652.764	73.56
652.969	80.56
653.173	77.56
653.377	97.56
653.581	88.56
653.785	77.56
653.99	89.56
654.194	79.56
654.398	82.56
654.602	83.56
654.806	94.56
655.01	82.56
655.214	93.56
655.418	84.56
655.622	68.56
655.826	86.56
656.03	97.56
656.234	91.56
656.438	95.56
656.642	92.56
656.846	79.56
657.049	80.56
657.253	77.56
657.457	91.56
657.661	84.56
657.865	91.56
658.068	89.56
658.272	84.56
658.476	71.56
658.68	83.56
658.883	93.56
659.087	73.56
659.291	78.56
659.494	93.56
659.698	87.56
659.901	100.56
660.105	65.56
660.309	81.56
660.512	74.56
660.716	75.56
660.919	82.56
661.123	96.56
661.326	84.56
661.53	79.56
661.733	89.56
661.936	86.56
662.14	63.56
662.343	70.56
662.546	74.56
662.75	81.56
662.953	94.56
663.156	87.56
663.36	83.56
663.563	71.56
663.766	94.56
663.969	75.56
664.173	83.56
664.376	87.56
664.579	79.56
664.782	83.56
664.985	93.56
665.188	75.56
665.391	95.56
665.594	82.56
665.797	79.56
666	96.56
666.203	69.56
666.406	79.56
666.609	76.56
666.812	79.56
667.015	77.56
667.218	84.56
667.421	89.56
667.624	79.56
667.827	85.56
668.03	76.56
668.232	74.56
668.435	97.56
668.638	86.56
668.841	82.56
669.043	94.56
669.246	73.56
669.449	75.56
669.651	84.56
669.854	84.56
670.057	67.56
670.259	73.56
670.462	90.56
670.665	77.56
670.867	85.56
671.07	72.56
671.272	80.56
671.475	84.56
671.677	74.56
671.88	77.56
672.082	71.56
672.284	75.56
672.487	81.56
672.689	68.56
672.892	65.56
