Data from Circ_1990_H10_HRD10591_00068.txt Node
Date: Wed Jan 03 11:55:17 EST 2024
User: Yrep
Spectrometer: HR+D1059
Trigger mode: 1
Integration Time (sec): 1.000000E-1
Scans to average: 1
Electric dark correction enabled: true
Nonlinearity correction enabled: false
Boxcar width: 0
XAxis mode: Wavelengths
Number of Pixels in Spectrum: 2048
>>>>>Begin Spectral Data<<<<<
223.165	-18.5
223.4	-18.5
223.635	-18.5
223.869	-27.5
224.104	-19.5
224.338	-17.5
224.573	-15.5
224.808	-10.5
225.042	-11.5
225.277	-15.5
225.511	6.5
225.746	11.5
225.98	12.5
226.215	14.5
226.449	20.5
226.683	20.5
226.918	21.5
227.152	28.5
227.387	49.5
227.621	50.5
227.856	47.5
228.09	58.5
228.324	56.5
228.559	61.5
228.793	58.5
229.027	40.5
229.262	77.5
229.496	63.5
229.73	84.5
229.964	92.5
230.199	82.5
230.433	70.5
230.667	99.5
230.901	82.5
231.136	76.5
231.37	80.5
231.604	90.5
231.838	82.5
232.072	88.5
232.306	98.5
232.541	89.5
232.775	81.5
233.009	91.5
233.243	85.5
233.477	90.5
233.711	91.5
233.945	70.5
234.179	82.5
234.413	85.5
234.647	76.5
234.881	80.5
235.115	101.5
235.349	87.5
235.583	88.5
235.817	87.5
236.051	95.5
236.285	84.5
236.519	83.5
236.753	74.5
236.987	98.5
237.221	76.5
237.455	92.5
237.689	87.5
237.922	71.5
238.156	80.5
238.39	82.5
238.624	89.5
238.858	91.5
239.091	75.5
239.325	77.5
239.559	90.5
239.793	85.5
240.027	90.5
240.26	86.5
240.494	88.5
240.728	79.5
240.961	74.5
241.195	78.5
241.429	98.5
241.662	78.5
241.896	84.5
242.13	81.5
242.363	71.5
242.597	78.5
242.83	78.5
243.064	78.5
243.298	59.5
243.531	78.5
243.765	100.5
243.998	81.5
244.232	74.5
244.465	98.5
244.699	90.5
244.932	91.5
245.166	81.5
245.399	82.5
245.633	89.5
245.866	82.5
246.099	74.5
246.333	90.5
246.566	81.5
246.8	87.5
247.033	78.5
247.266	80.5
247.5	70.5
247.733	84.5
247.966	90.5
248.2	88.5
248.433	89.5
248.666	87.5
248.899	73.5
249.133	81.5
249.366	95.5
249.599	90.5
249.832	91.5
250.066	86.5
250.299	93.5
250.532	89.5
250.765	86.5
250.998	73.5
251.231	97.5
251.465	90.5
251.698	74.5
251.931	71.5
252.164	95.5
252.397	82.5
252.63	72.5
252.863	76.5
253.096	91.5
253.329	75.5
253.562	78.5
253.795	82.5
254.028	85.5
254.261	80.5
254.494	79.5
254.727	87.5
254.96	72.5
255.193	66.5
255.426	83.5
255.659	85.5
255.892	94.5
256.124	76.5
256.357	79.5
256.59	87.5
256.823	84.5
257.056	94.5
257.289	99.5
257.521	85.5
257.754	79.5
257.987	87.5
258.22	94.5
258.452	91.5
258.685	91.5
258.918	82.5
259.151	90.5
259.383	96.5
259.616	97.5
259.849	80.5
260.081	85.5
260.314	75.5
260.547	101.5
260.779	96.5
261.012	95.5
261.244	94.5
261.477	96.5
261.71	95.5
261.942	107.5
262.175	123.5
262.407	100.5
262.64	87.5
262.872	86.5
263.105	94.5
263.337	89.5
263.57	91.5
263.802	88.5
264.035	86.5
264.267	90.5
264.499	68.5
264.732	94.5
264.964	103.5
265.197	85.5
265.429	95.5
265.661	97.5
265.894	90.5
266.126	96.5
266.358	90.5
266.591	82.5
266.823	90.5
267.055	89.5
267.287	97.5
267.52	75.5
267.752	88.5
267.984	88.5
268.216	84.5
268.448	94.5
268.681	86.5
268.913	80.5
269.145	98.5
269.377	103.5
269.609	95.5
269.841	73.5
270.073	96.5
270.306	85.5
270.538	91.5
270.77	100.5
271.002	88.5
271.234	110.5
271.466	98.5
271.698	82.5
271.93	85.5
272.162	105.5
272.394	75.5
272.626	89.5
272.858	102.5
273.09	92.5
273.322	88.5
273.553	80.5
273.785	85.5
274.017	72.5
274.249	92.5
274.481	97.5
274.713	83.5
274.945	96.5
275.176	101.5
275.408	96.5
275.64	94.5
275.872	97.5
276.104	111.5
276.335	95.5
276.567	105.5
276.799	124.5
277.031	119.5
277.262	131.5
277.494	112.5
277.726	99.5
277.957	88.5
278.189	104.5
278.421	96.5
278.652	83.5
278.884	94.5
279.115	96.5
279.347	91.5
279.579	78.5
279.81	112.5
280.042	127.5
280.273	161.5
280.505	127.5
280.736	94.5
280.968	102.5
281.199	99.5
281.431	91.5
281.662	87.5
281.894	96.5
282.125	104.5
282.356	115.5
282.588	133.5
282.819	109.5
283.051	96.5
283.282	94.5
283.513	98.5
283.745	92.5
283.976	81.5
284.207	79.5
284.439	72.5
284.67	98.5
284.901	73.5
285.132	95.5
285.364	88.5
285.595	101.5
285.826	89.5
286.057	105.5
286.288	82.5
286.52	99.5
286.751	92.5
286.982	96.5
287.213	96.5
287.444	94.5
287.675	95.5
287.906	96.5
288.138	86.5
288.369	86.5
288.6	99.5
288.831	103.5
289.062	99.5
289.293	94.5
289.524	86.5
289.755	85.5
289.986	88.5
290.217	102.5
290.448	91.5
290.679	89.5
290.91	97.5
291.141	94.5
291.371	95.5
291.602	93.5
291.833	88.5
292.064	81.5
292.295	94.5
292.526	105.5
292.757	74.5
292.987	90.5
293.218	82.5
293.449	107.5
293.68	82.5
293.91	110.5
294.141	104.5
294.372	95.5
294.603	92.5
294.833	105.5
295.064	96.5
295.295	90.5
295.525	99.5
295.756	105.5
295.987	114.5
296.217	140.5
296.448	114.5
296.679	94.5
296.909	96.5
297.14	102.5
297.37	94.5
297.601	94.5
297.831	89.5
298.062	91.5
298.292	94.5
298.523	107.5
298.753	103.5
298.984	92.5
299.214	95.5
299.445	98.5
299.675	104.5
299.905	100.5
300.136	97.5
300.366	83.5
300.597	99.5
300.827	89.5
301.057	97.5
301.288	110.5
301.518	108.5
301.748	92.5
301.979	111.5
302.209	98.5
302.439	95.5
302.669	94.5
302.9	90.5
303.13	97.5
303.36	91.5
303.59	116.5
303.82	114.5
304.051	112.5
304.281	108.5
304.511	90.5
304.741	88.5
304.971	85.5
305.201	103.5
305.431	105.5
305.661	99.5
305.891	84.5
306.121	108.5
306.352	102.5
306.582	101.5
306.812	90.5
307.042	117.5
307.272	133.5
307.502	137.5
307.731	128.5
307.961	110.5
308.191	103.5
308.421	102.5
308.651	94.5
308.881	85.5
309.111	91.5
309.341	93.5
309.571	119.5
309.8	106.5
310.03	103.5
310.26	102.5
310.49	105.5
310.72	99.5
310.949	109.5
311.179	108.5
311.409	100.5
311.639	101.5
311.868	89.5
312.098	107.5
312.328	100.5
312.557	111.5
312.787	115.5
313.017	114.5
313.246	112.5
313.476	90.5
313.706	98.5
313.935	104.5
314.165	108.5
314.394	90.5
314.624	111.5
314.853	107.5
315.083	91.5
315.312	114.5
315.542	81.5
315.771	96.5
316.001	86.5
316.23	102.5
316.46	103.5
316.689	95.5
316.919	96.5
317.148	97.5
317.377	96.5
317.607	114.5
317.836	103.5
318.065	88.5
318.295	85.5
318.524	98.5
318.753	97.5
318.983	104.5
319.212	104.5
319.441	120.5
319.67	107.5
319.9	111.5
320.129	96.5
320.358	97.5
320.587	101.5
320.816	99.5
321.046	94.5
321.275	92.5
321.504	108.5
321.733	99.5
321.962	108.5
322.191	93.5
322.42	96.5
322.649	107.5
322.878	114.5
323.108	128.5
323.337	117.5
323.566	130.5
323.795	154.5
324.024	220.5
324.253	407.5
324.482	843.5
324.71	1742.5
324.939	2322.5
325.168	849.5
325.397	242.5
325.626	147.5
325.855	134.5
326.084	124.5
326.313	139.5
326.542	161.5
326.77	227.5
326.999	476.5
327.228	928.5
327.457	1789.5
327.686	1426.5
327.914	425.5
328.143	316.5
328.372	318.5
328.6	213.5
328.829	155.5
329.058	137.5
329.287	156.5
329.515	134.5
329.744	173.5
329.972	271.5
330.201	448.5
330.43	610.5
330.658	311.5
330.887	196.5
331.115	138.5
331.344	129.5
331.572	111.5
331.801	112.5
332.03	109.5
332.258	101.5
332.486	104.5
332.715	94.5
332.943	112.5
333.172	98.5
333.4	111.5
333.629	112.5
333.857	167.5
334.085	236.5
334.314	443.5
334.542	791.5
334.771	699.5
334.999	231.5
335.227	127.5
335.455	107.5
335.684	98.5
335.912	96.5
336.14	106.5
336.369	112.5
336.597	105.5
336.825	97.5
337.053	111.5
337.281	104.5
337.51	91.5
337.738	90.5
337.966	96.5
338.194	94.5
338.422	104.5
338.65	90.5
338.878	96.5
339.106	85.5
339.334	94.5
339.562	86.5
339.79	88.5
340.018	102.5
340.246	115.5
340.474	106.5
340.702	92.5
340.93	92.5
341.158	105.5
341.386	101.5
341.614	120.5
341.842	109.5
342.07	101.5
342.298	98.5
342.526	91.5
342.754	92.5
342.981	102.5
343.209	102.5
343.437	101.5
343.665	94.5
343.893	98.5
344.12	95.5
344.348	96.5
344.576	104.5
344.804	96.5
345.031	108.5
345.259	107.5
345.487	93.5
345.714	107.5
345.942	76.5
346.17	93.5
346.397	98.5
346.625	98.5
346.853	90.5
347.08	100.5
347.308	94.5
347.535	104.5
347.763	118.5
347.99	105.5
348.218	110.5
348.445	99.5
348.673	116.5
348.9	99.5
349.128	98.5
349.355	87.5
349.583	92.5
349.81	88.5
350.037	103.5
350.265	96.5
350.492	91.5
350.72	108.5
350.947	100.5
351.174	115.5
351.402	129.5
351.629	117.5
351.856	117.5
352.083	111.5
352.311	112.5
352.538	107.5
352.765	102.5
352.992	99.5
353.22	120.5
353.447	103.5
353.674	101.5
353.901	107.5
354.128	101.5
354.355	99.5
354.583	96.5
354.81	98.5
355.037	98.5
355.264	97.5
355.491	92.5
355.718	104.5
355.945	109.5
356.172	110.5
356.399	101.5
356.626	84.5
356.853	108.5
357.08	93.5
357.307	105.5
357.534	94.5
357.761	94.5
357.988	104.5
358.215	114.5
358.441	94.5
358.668	88.5
358.895	95.5
359.122	95.5
359.349	91.5
359.576	96.5
359.802	112.5
360.029	124.5
360.256	122.5
360.483	105.5
360.709	91.5
360.936	88.5
361.163	103.5
361.39	118.5
361.616	113.5
361.843	101.5
362.07	110.5
362.296	100.5
362.523	98.5
362.749	87.5
362.976	94.5
363.203	111.5
363.429	92.5
363.656	88.5
363.882	94.5
364.109	98.5
364.335	99.5
364.562	99.5
364.788	99.5
365.015	92.5
365.241	92.5
365.468	115.5
365.694	105.5
365.92	87.5
366.147	92.5
366.373	87.5
366.599	84.5
366.826	93.5
367.052	99.5
367.278	102.5
367.505	90.5
367.731	97.5
367.957	91.5
368.184	98.5
368.41	111.5
368.636	113.5
368.862	129.5
369.089	113.5
369.315	94.5
369.541	94.5
369.767	88.5
369.993	94.5
370.219	85.5
370.445	78.5
370.672	89.5
370.898	82.5
371.124	100.5
371.35	94.5
371.576	90.5
371.802	83.5
372.028	85.5
372.254	86.5
372.48	75.5
372.706	107.5
372.932	82.5
373.158	106.5
373.384	95.5
373.61	113.5
373.835	88.5
374.061	84.5
374.287	97.5
374.513	82.5
374.739	102.5
374.965	88.5
375.191	94.5
375.416	91.5
375.642	99.5
375.868	81.5
376.094	90.5
376.319	89.5
376.545	72.5
376.771	91.5
376.997	102.5
377.222	88.5
377.448	83.5
377.674	102.5
377.899	103.5
378.125	92.5
378.35	109.5
378.576	81.5
378.802	89.5
379.027	97.5
379.253	87.5
379.478	109.5
379.704	96.5
379.929	104.5
380.155	84.5
380.38	86.5
380.606	98.5
380.831	102.5
381.057	98.5
381.282	98.5
381.507	93.5
381.733	95.5
381.958	97.5
382.184	102.5
382.409	112.5
382.634	87.5
382.86	104.5
383.085	106.5
383.31	96.5
383.535	99.5
383.761	105.5
383.986	101.5
384.211	109.5
384.436	108.5
384.662	94.5
384.887	104.5
385.112	128.5
385.337	115.5
385.562	101.5
385.787	104.5
386.013	122.5
386.238	127.5
386.463	120.5
386.688	108.5
386.913	108.5
387.138	116.5
387.363	98.5
387.588	99.5
387.813	111.5
388.038	112.5
388.263	107.5
388.488	123.5
388.713	114.5
388.938	110.5
389.163	90.5
389.387	97.5
389.612	92.5
389.837	84.5
390.062	98.5
390.287	96.5
390.512	76.5
390.736	82.5
390.961	98.5
391.186	99.5
391.411	114.5
391.636	89.5
391.86	98.5
392.085	102.5
392.31	84.5
392.534	90.5
392.759	91.5
392.984	90.5
393.208	90.5
393.433	72.5
393.658	89.5
393.882	99.5
394.107	91.5
394.331	87.5
394.556	90.5
394.78	90.5
395.005	81.5
395.229	77.5
395.454	96.5
395.678	87.5
395.903	73.5
396.127	92.5
396.352	90.5
396.576	94.5
396.801	94.5
397.025	99.5
397.249	84.5
397.474	102.5
397.698	90.5
397.922	81.5
398.147	89.5
398.371	90.5
398.595	107.5
398.82	78.5
399.044	88.5
399.268	96.5
399.492	88.5
399.717	112.5
399.941	99.5
400.165	102.5
400.389	84.5
400.613	96.5
400.837	98.5
401.062	96.5
401.286	105.5
401.51	88.5
401.734	103.5
401.958	103.5
402.182	124.5
402.406	165.5
402.63	126.5
402.854	103.5
403.078	99.5
403.302	91.5
403.526	82.5
403.75	88.5
403.974	88.5
404.198	96.5
404.422	108.5
404.645	88.5
404.869	103.5
405.093	120.5
405.317	113.5
405.541	131.5
405.765	107.5
405.988	105.5
406.212	159.5
406.436	230.5
406.66	145.5
406.883	108.5
407.107	96.5
407.331	96.5
407.555	103.5
407.778	96.5
408.002	99.5
408.226	96.5
408.449	83.5
408.673	94.5
408.896	94.5
409.12	101.5
409.344	91.5
409.567	97.5
409.791	91.5
410.014	90.5
410.238	84.5
410.461	95.5
410.685	105.5
410.908	105.5
411.132	107.5
411.355	95.5
411.578	75.5
411.802	99.5
412.025	97.5
412.249	98.5
412.472	105.5
412.695	119.5
412.919	99.5
413.142	101.5
413.365	106.5
413.589	83.5
413.812	90.5
414.035	88.5
414.258	112.5
414.482	93.5
414.705	102.5
414.928	95.5
415.151	92.5
415.374	99.5
415.597	85.5
415.821	91.5
416.044	90.5
416.267	88.5
416.49	104.5
416.713	88.5
416.936	71.5
417.159	92.5
417.382	97.5
417.605	84.5
417.828	105.5
418.051	95.5
418.274	90.5
418.497	88.5
418.72	84.5
418.943	110.5
419.166	106.5
419.389	88.5
419.611	88.5
419.834	95.5
420.057	95.5
420.28	100.5
420.503	97.5
420.726	93.5
420.948	90.5
421.171	111.5
421.394	99.5
421.617	94.5
421.839	96.5
422.062	96.5
422.285	101.5
422.507	104.5
422.73	105.5
422.953	103.5
423.175	88.5
423.398	91.5
423.621	96.5
423.843	97.5
424.066	98.5
424.288	89.5
424.511	85.5
424.733	97.5
424.956	112.5
425.178	101.5
425.401	99.5
425.623	108.5
425.846	95.5
426.068	105.5
426.291	78.5
426.513	101.5
426.735	107.5
426.958	95.5
427.18	117.5
427.402	140.5
427.625	208.5
427.847	181.5
428.069	158.5
428.292	112.5
428.514	103.5
428.736	85.5
428.958	95.5
429.181	82.5
429.403	91.5
429.625	83.5
429.847	99.5
430.069	112.5
430.292	102.5
430.514	82.5
430.736	84.5
430.958	84.5
431.18	84.5
431.402	75.5
431.624	96.5
431.846	110.5
432.068	90.5
432.29	99.5
432.512	92.5
432.734	92.5
432.956	95.5
433.178	104.5
433.4	107.5
433.622	102.5
433.844	83.5
434.066	99.5
434.287	95.5
434.509	90.5
434.731	90.5
434.953	89.5
435.175	86.5
435.397	96.5
435.618	108.5
435.84	107.5
436.062	119.5
436.284	122.5
436.505	106.5
436.727	104.5
436.949	98.5
437.17	92.5
437.392	86.5
437.614	94.5
437.835	114.5
438.057	132.5
438.278	114.5
438.5	102.5
438.721	135.5
438.943	114.5
439.165	95.5
439.386	85.5
439.608	110.5
439.829	95.5
440.05	132.5
440.272	158.5
440.493	106.5
440.715	103.5
440.936	96.5
441.158	86.5
441.379	83.5
441.6	106.5
441.822	90.5
442.043	100.5
442.264	106.5
442.486	103.5
442.707	98.5
442.928	89.5
443.149	142.5
443.371	149.5
443.592	124.5
443.813	110.5
444.034	109.5
444.255	95.5
444.476	100.5
444.698	94.5
444.919	87.5
445.14	133.5
445.361	122.5
445.582	115.5
445.803	170.5
446.024	138.5
446.245	148.5
446.466	127.5
446.687	90.5
446.908	94.5
447.129	96.5
447.35	84.5
447.571	97.5
447.792	95.5
448.013	107.5
448.234	107.5
448.455	105.5
448.675	113.5
448.896	124.5
449.117	116.5
449.338	102.5
449.559	134.5
449.779	146.5
450	101.5
450.221	95.5
450.442	99.5
450.662	95.5
450.883	106.5
451.104	116.5
451.324	98.5
451.545	95.5
451.766	89.5
451.986	82.5
452.207	96.5
452.428	105.5
452.648	107.5
452.869	99.5
453.089	105.5
453.31	118.5
453.53	98.5
453.751	90.5
453.971	102.5
454.192	117.5
454.412	64.5
454.633	93.5
454.853	95.5
455.073	91.5
455.294	114.5
455.514	110.5
455.734	95.5
455.955	91.5
456.175	101.5
456.395	83.5
456.616	97.5
456.836	91.5
457.056	94.5
457.276	90.5
457.497	92.5
457.717	96.5
457.937	87.5
458.157	88.5
458.377	102.5
458.598	109.5
458.818	150.5
459.038	174.5
459.258	131.5
459.478	96.5
459.698	91.5
459.918	82.5
460.138	90.5
460.358	90.5
460.578	89.5
460.798	84.5
461.018	96.5
461.238	103.5
461.458	80.5
461.678	103.5
461.898	102.5
462.118	84.5
462.338	92.5
462.558	83.5
462.777	85.5
462.997	84.5
463.217	118.5
463.437	88.5
463.657	114.5
463.876	93.5
464.096	78.5
464.316	92.5
464.536	96.5
464.755	89.5
464.975	103.5
465.195	171.5
465.414	178.5
465.634	111.5
465.854	98.5
466.073	99.5
466.293	88.5
466.512	98.5
466.732	97.5
466.951	92.5
467.171	93.5
467.391	116.5
467.61	111.5
467.829	140.5
468.049	268.5
468.268	363.5
468.488	141.5
468.707	99.5
468.927	102.5
469.146	88.5
469.365	86.5
469.585	98.5
469.804	105.5
470.023	102.5
470.243	89.5
470.462	103.5
470.681	106.5
470.901	100.5
471.12	113.5
471.339	85.5
471.558	103.5
471.777	108.5
471.997	168.5
472.216	500.5
472.435	1017.5
472.654	286.5
472.873	121.5
473.092	99.5
473.311	87.5
473.53	99.5
473.749	100.5
473.968	98.5
474.187	119.5
474.406	106.5
474.625	103.5
474.844	101.5
475.063	98.5
475.282	105.5
475.501	79.5
475.72	98.5
475.939	81.5
476.158	84.5
476.377	102.5
476.596	82.5
476.814	94.5
477.033	94.5
477.252	88.5
477.471	97.5
477.69	89.5
477.908	87.5
478.127	103.5
478.346	95.5
478.564	95.5
478.783	84.5
479.002	90.5
479.22	106.5
479.439	119.5
479.658	113.5
479.876	106.5
480.095	107.5
480.313	123.5
480.532	121.5
480.751	187.5
480.969	514.5
481.188	1786.5
481.406	1026.5
481.624	189.5
481.843	108.5
482.061	89.5
482.28	89.5
482.498	102.5
482.717	94.5
482.935	90.5
483.153	78.5
483.372	81.5
483.59	95.5
483.808	102.5
484.027	88.5
484.245	96.5
484.463	96.5
484.681	91.5
484.9	96.5
485.118	95.5
485.336	114.5
485.554	110.5
485.772	102.5
485.99	94.5
486.209	100.5
486.427	117.5
486.645	116.5
486.863	128.5
487.081	96.5
487.299	118.5
487.517	91.5
487.735	94.5
487.953	96.5
488.171	109.5
488.389	96.5
488.607	102.5
488.825	100.5
489.043	87.5
489.261	99.5
489.479	99.5
489.696	99.5
489.914	85.5
490.132	86.5
490.35	107.5
490.568	104.5
490.786	87.5
491.003	93.5
491.221	91.5
491.439	102.5
491.657	103.5
491.874	94.5
492.092	112.5
492.31	101.5
492.527	99.5
492.745	84.5
492.963	94.5
493.18	64.5
493.398	91.5
493.615	84.5
493.833	99.5
494.05	83.5
494.268	96.5
494.485	86.5
494.703	88.5
494.92	88.5
495.138	87.5
495.355	100.5
495.573	101.5
495.79	91.5
496.008	107.5
496.225	99.5
496.442	94.5
496.66	88.5
496.877	91.5
497.094	82.5
497.312	90.5
497.529	96.5
497.746	103.5
497.963	107.5
498.181	99.5
498.398	98.5
498.615	113.5
498.832	103.5
499.049	99.5
499.267	82.5
499.484	84.5
499.701	95.5
499.918	108.5
500.135	97.5
500.352	89.5
500.569	96.5
500.786	90.5
501.003	95.5
501.22	96.5
501.437	88.5
501.654	106.5
501.871	100.5
502.088	108.5
502.305	89.5
502.522	107.5
502.739	88.5
502.956	96.5
503.172	111.5
503.389	99.5
503.606	104.5
503.823	101.5
504.04	95.5
504.256	100.5
504.473	102.5
504.69	105.5
504.907	89.5
505.123	90.5
505.34	96.5
505.557	95.5
505.773	88.5
505.99	112.5
506.207	102.5
506.423	110.5
506.64	97.5
506.856	74.5
507.073	95.5
507.289	95.5
507.506	94.5
507.722	116.5
507.939	115.5
508.155	88.5
508.372	84.5
508.588	109.5
508.805	98.5
509.021	100.5
509.238	103.5
509.454	98.5
509.67	106.5
509.887	113.5
510.103	123.5
510.319	199.5
510.536	730.5
510.752	2211.5
510.968	619.5
511.184	156.5
511.401	108.5
511.617	108.5
511.833	98.5
512.049	86.5
512.265	90.5
512.481	94.5
512.698	100.5
512.914	98.5
513.13	90.5
513.346	103.5
513.562	95.5
513.778	108.5
513.994	108.5
514.21	108.5
514.426	129.5
514.642	150.5
514.858	127.5
515.074	176.5
515.29	484.5
515.506	1536.5
515.721	557.5
515.937	182.5
516.153	122.5
516.369	106.5
516.585	105.5
516.801	97.5
517.016	99.5
517.232	93.5
517.448	111.5
517.664	99.5
517.879	103.5
518.095	83.5
518.311	100.5
518.527	91.5
518.742	105.5
518.958	92.5
519.173	98.5
519.389	102.5
519.605	96.5
519.82	102.5
520.036	105.5
520.251	133.5
520.467	124.5
520.682	96.5
520.898	117.5
521.113	118.5
521.329	150.5
521.544	218.5
521.76	607.5
521.975	2594.5
522.19	1497.5
522.406	350.5
522.621	129.5
522.836	108.5
523.052	97.5
523.267	100.5
523.482	101.5
523.698	100.5
523.913	132.5
524.128	110.5
524.343	92.5
524.559	92.5
524.774	70.5
524.989	99.5
525.204	112.5
525.419	94.5
525.634	94.5
525.849	93.5
526.064	90.5
526.28	94.5
526.495	99.5
526.71	83.5
526.925	94.5
527.14	110.5
527.355	65.5
527.57	93.5
527.785	85.5
527.999	109.5
528.214	94.5
528.429	107.5
528.644	94.5
528.859	96.5
529.074	99.5
529.289	130.5
529.503	198.5
529.718	116.5
529.933	104.5
530.148	90.5
530.363	82.5
530.577	90.5
530.792	97.5
531.007	95.5
531.221	100.5
531.436	88.5
531.651	101.5
531.865	97.5
532.08	84.5
532.295	103.5
532.509	105.5
532.724	86.5
532.938	86.5
533.153	109.5
533.367	99.5
533.582	94.5
533.796	100.5
534.011	105.5
534.225	96.5
534.44	92.5
534.654	91.5
534.868	100.5
535.083	101.5
535.297	101.5
535.511	84.5
535.726	101.5
535.94	94.5
536.154	109.5
536.369	88.5
536.583	98.5
536.797	105.5
537.011	87.5
537.225	92.5
537.44	92.5
537.654	106.5
537.868	87.5
538.082	96.5
538.296	108.5
538.51	97.5
538.724	85.5
538.938	105.5
539.153	96.5
539.367	114.5
539.581	102.5
539.795	99.5
540.009	87.5
540.222	93.5
540.436	96.5
540.65	85.5
540.864	94.5
541.078	103.5
541.292	106.5
541.506	94.5
541.72	98.5
541.934	89.5
542.147	96.5
542.361	95.5
542.575	90.5
542.789	91.5
543.002	93.5
543.216	83.5
543.43	103.5
543.644	91.5
543.857	97.5
544.071	98.5
544.285	87.5
544.498	90.5
544.712	99.5
544.925	103.5
545.139	114.5
545.352	91.5
545.566	104.5
545.779	83.5
545.993	93.5
546.206	90.5
546.42	91.5
546.633	97.5
546.847	95.5
547.06	110.5
547.274	88.5
547.487	100.5
547.7	84.5
547.914	84.5
548.127	88.5
548.34	107.5
548.554	104.5
548.767	94.5
548.98	88.5
549.193	86.5
549.407	89.5
549.62	87.5
549.833	74.5
550.046	92.5
550.259	80.5
550.473	101.5
550.686	88.5
550.899	96.5
551.112	102.5
551.325	86.5
551.538	97.5
551.751	100.5
551.964	79.5
552.177	99.5
552.39	95.5
552.603	97.5
552.816	94.5
553.029	82.5
553.242	90.5
553.455	92.5
553.667	132.5
553.88	120.5
554.093	105.5
554.306	110.5
554.519	98.5
554.732	91.5
554.944	92.5
555.157	100.5
555.37	92.5
555.583	103.5
555.795	86.5
556.008	100.5
556.221	107.5
556.433	101.5
556.646	103.5
556.859	99.5
557.071	91.5
557.284	85.5
557.496	112.5
557.709	96.5
557.921	90.5
558.134	99.5
558.346	91.5
558.559	89.5
558.771	70.5
558.984	91.5
559.196	85.5
559.409	82.5
559.621	87.5
559.833	85.5
560.046	107.5
560.258	99.5
560.47	111.5
560.683	108.5
560.895	87.5
561.107	83.5
561.32	89.5
561.532	90.5
561.744	104.5
561.956	91.5
562.168	94.5
562.381	101.5
562.593	97.5
562.805	106.5
563.017	82.5
563.229	82.5
563.441	100.5
563.653	106.5
563.865	106.5
564.077	92.5
564.289	93.5
564.501	98.5
564.713	96.5
564.925	100.5
565.137	100.5
565.349	94.5
565.561	103.5
565.773	95.5
565.985	95.5
566.197	72.5
566.408	84.5
566.62	86.5
566.832	91.5
567.044	87.5
567.255	94.5
567.467	100.5
567.679	98.5
567.891	96.5
568.102	82.5
568.314	94.5
568.526	95.5
568.737	97.5
568.949	102.5
569.161	91.5
569.372	95.5
569.584	96.5
569.795	94.5
570.007	121.5
570.218	226.5
570.43	144.5
570.641	99.5
570.853	82.5
571.064	87.5
571.276	96.5
571.487	103.5
571.698	88.5
571.91	86.5
572.121	102.5
572.333	84.5
572.544	90.5
572.755	99.5
572.966	74.5
573.178	108.5
573.389	96.5
573.6	92.5
573.811	90.5
574.023	100.5
574.234	72.5
574.445	99.5
574.656	101.5
574.867	85.5
575.078	97.5
575.289	83.5
575.501	89.5
575.712	78.5
575.923	92.5
576.134	95.5
576.345	100.5
576.556	110.5
576.767	99.5
576.978	99.5
577.188	98.5
577.399	89.5
577.61	96.5
577.821	94.5
578.032	107.5
578.243	258.5
578.454	685.5
578.665	198.5
578.875	104.5
579.086	93.5
579.297	89.5
579.508	101.5
579.718	82.5
579.929	93.5
580.14	92.5
580.35	80.5
580.561	91.5
580.772	88.5
580.982	106.5
581.193	82.5
581.403	88.5
581.614	91.5
581.825	91.5
582.035	84.5
582.246	89.5
582.456	88.5
582.667	91.5
582.877	91.5
583.087	88.5
583.298	106.5
583.508	84.5
583.719	94.5
583.929	99.5
584.139	83.5
584.35	91.5
584.56	85.5
584.77	88.5
584.981	86.5
585.191	98.5
585.401	83.5
585.611	95.5
585.821	98.5
586.032	90.5
586.242	94.5
586.452	88.5
586.662	98.5
586.872	95.5
587.082	87.5
587.292	100.5
587.502	94.5
587.713	81.5
587.923	91.5
588.133	85.5
588.343	86.5
588.553	86.5
588.762	92.5
588.972	105.5
589.182	132.5
589.392	114.5
589.602	96.5
589.812	107.5
590.022	92.5
590.232	84.5
590.441	95.5
590.651	81.5
590.861	79.5
591.071	92.5
591.281	80.5
591.49	83.5
591.7	99.5
591.91	82.5
592.119	90.5
592.329	90.5
592.539	91.5
592.748	83.5
592.958	96.5
593.167	91.5
593.377	95.5
593.587	102.5
593.796	94.5
594.006	92.5
594.215	91.5
594.424	91.5
594.634	99.5
594.843	80.5
595.053	84.5
595.262	94.5
595.472	91.5
595.681	82.5
595.89	77.5
596.1	87.5
596.309	94.5
596.518	102.5
596.727	85.5
596.937	94.5
597.146	85.5
597.355	91.5
597.564	96.5
597.774	103.5
597.983	89.5
598.192	85.5
598.401	78.5
598.61	90.5
598.819	93.5
599.028	95.5
599.237	86.5
599.446	82.5
599.655	94.5
599.864	87.5
600.073	77.5
600.282	87.5
600.491	98.5
600.7	95.5
600.909	97.5
601.118	98.5
601.327	104.5
601.536	96.5
601.745	102.5
601.953	100.5
602.162	97.5
602.371	96.5
602.58	90.5
602.789	87.5
602.997	96.5
603.206	100.5
603.415	90.5
603.623	82.5
603.832	97.5
604.041	94.5
604.249	93.5
604.458	86.5
604.666	94.5
604.875	83.5
605.084	94.5
605.292	95.5
605.501	88.5
605.709	94.5
605.918	94.5
606.126	92.5
606.334	93.5
606.543	98.5
606.751	107.5
606.96	92.5
607.168	94.5
607.376	98.5
607.585	87.5
607.793	80.5
608.001	91.5
608.21	98.5
608.418	94.5
608.626	73.5
608.834	92.5
609.043	92.5
609.251	80.5
609.459	84.5
609.667	80.5
609.875	84.5
610.083	90.5
610.291	88.5
610.499	89.5
610.707	73.5
610.916	88.5
611.124	79.5
611.332	88.5
611.54	92.5
611.748	79.5
611.955	96.5
612.163	90.5
612.371	96.5
612.579	78.5
612.787	82.5
612.995	93.5
613.203	90.5
613.411	83.5
613.618	88.5
613.826	85.5
614.034	101.5
614.242	90.5
614.449	95.5
614.657	89.5
614.865	94.5
615.072	88.5
615.28	108.5
615.488	87.5
615.695	90.5
615.903	97.5
616.111	100.5
616.318	99.5
616.526	91.5
616.733	88.5
616.941	94.5
617.148	94.5
617.356	87.5
617.563	88.5
617.771	78.5
617.978	91.5
618.185	90.5
618.393	72.5
618.6	90.5
618.807	88.5
619.015	79.5
619.222	88.5
619.429	85.5
619.637	88.5
619.844	90.5
620.051	89.5
620.258	82.5
620.466	78.5
620.673	81.5
620.88	91.5
621.087	90.5
621.294	86.5
621.501	90.5
621.708	79.5
621.915	105.5
622.122	90.5
622.329	90.5
622.536	89.5
622.743	89.5
622.95	90.5
623.157	80.5
623.364	99.5
623.571	107.5
623.778	90.5
623.985	93.5
624.192	82.5
624.399	82.5
624.606	83.5
624.812	87.5
625.019	84.5
625.226	90.5
625.433	79.5
625.639	80.5
625.846	80.5
626.053	84.5
626.259	82.5
626.466	86.5
626.673	95.5
626.879	92.5
627.086	90.5
627.293	96.5
627.499	86.5
627.706	96.5
627.912	90.5
628.119	81.5
628.325	99.5
628.532	97.5
628.738	82.5
628.945	90.5
629.151	92.5
629.357	91.5
629.564	102.5
629.77	87.5
629.976	85.5
630.183	79.5
630.389	95.5
630.595	70.5
630.802	73.5
631.008	78.5
631.214	88.5
631.42	89.5
631.627	91.5
631.833	92.5
632.039	84.5
632.245	81.5
632.451	86.5
632.657	94.5
632.863	82.5
633.069	93.5
633.275	91.5
633.481	84.5
633.688	76.5
633.893	82.5
634.099	76.5
634.305	76.5
634.511	75.5
634.717	89.5
634.923	91.5
635.129	88.5
635.335	96.5
635.541	95.5
635.747	96.5
635.952	95.5
636.158	108.5
636.364	199.5
636.57	174.5
636.775	111.5
636.981	89.5
637.187	91.5
637.392	98.5
637.598	96.5
637.804	87.5
638.009	85.5
638.215	93.5
638.421	80.5
638.626	86.5
638.832	98.5
639.037	88.5
639.243	86.5
639.448	77.5
639.654	80.5
639.859	88.5
640.065	83.5
640.27	102.5
640.475	78.5
640.681	106.5
640.886	88.5
641.091	88.5
641.297	90.5
641.502	98.5
641.707	102.5
641.913	87.5
642.118	84.5
642.323	70.5
642.528	78.5
642.733	82.5
642.939	86.5
643.144	89.5
643.349	94.5
643.554	101.5
643.759	80.5
643.964	85.5
644.169	90.5
644.374	87.5
644.579	71.5
644.784	87.5
644.989	84.5
645.194	78.5
645.399	87.5
645.604	100.5
645.809	88.5
646.014	95.5
646.219	90.5
646.423	88.5
646.628	81.5
646.833	90.5
647.038	95.5
647.243	83.5
647.447	84.5
647.652	87.5
647.857	84.5
648.062	82.5
648.266	100.5
648.471	94.5
648.676	96.5
648.88	86.5
649.085	85.5
649.289	88.5
649.494	113.5
649.698	140.5
649.903	108.5
650.107	90.5
650.312	91.5
650.516	84.5
650.721	98.5
650.925	74.5
651.13	80.5
651.334	80.5
651.539	82.5
651.743	88.5
651.947	92.5
652.152	90.5
652.356	91.5
652.56	76.5
652.764	91.5
652.969	89.5
653.173	94.5
653.377	76.5
653.581	84.5
653.785	73.5
653.99	81.5
654.194	94.5
654.398	84.5
654.602	92.5
654.806	88.5
655.01	104.5
655.214	88.5
655.418	82.5
655.622	85.5
655.826	98.5
656.03	85.5
656.234	83.5
656.438	101.5
656.642	102.5
656.846	103.5
657.049	102.5
657.253	89.5
657.457	98.5
657.661	82.5
657.865	88.5
658.068	79.5
658.272	82.5
658.476	85.5
658.68	90.5
658.883	84.5
659.087	90.5
659.291	88.5
659.494	88.5
659.698	74.5
659.901	89.5
660.105	78.5
660.309	83.5
660.512	88.5
660.716	87.5
660.919	81.5
661.123	86.5
661.326	84.5
661.53	71.5
661.733	88.5
661.936	81.5
662.14	82.5
662.343	75.5
662.546	98.5
662.75	89.5
662.953	83.5
663.156	85.5
663.36	86.5
663.563	76.5
663.766	81.5
663.969	99.5
664.173	73.5
664.376	83.5
664.579	86.5
664.782	88.5
664.985	86.5
665.188	78.5
665.391	80.5
665.594	96.5
665.797	79.5
666	93.5
666.203	81.5
666.406	75.5
666.609	82.5
666.812	84.5
667.015	89.5
667.218	82.5
667.421	71.5
667.624	90.5
667.827	88.5
668.03	82.5
668.232	84.5
668.435	74.5
668.638	80.5
668.841	89.5
669.043	81.5
669.246	99.5
669.449	90.5
669.651	98.5
669.854	96.5
670.057	100.5
670.259	94.5
670.462	95.5
670.665	95.5
670.867	97.5
671.07	85.5
671.272	81.5
671.475	94.5
671.677	69.5
671.88	92.5
672.082	74.5
672.284	86.5
672.487	88.5
672.689	81.5
672.892	103.5
