Data from Circ_1990_H10_HRD10591_00032.txt Node
Date: Wed Jan 03 11:55:10 EST 2024
User: Yrep
Spectrometer: HR+D1059
Trigger mode: 1
Integration Time (sec): 1.000000E-1
Scans to average: 1
Electric dark correction enabled: true
Nonlinearity correction enabled: false
Boxcar width: 0
XAxis mode: Wavelengths
Number of Pixels in Spectrum: 2048
>>>>>Begin Spectral Data<<<<<
223.165	-28.19
223.4	-28.19
223.635	-28.19
223.869	-23.19
224.104	-24.19
224.338	-16.19
224.573	-12.19
224.808	-20.19
225.042	-1.19
225.277	-0.19
225.511	1.81
225.746	13.81
225.98	1.81
226.215	9.81
226.449	18.81
226.683	25.81
226.918	21.81
227.152	31.81
227.387	33.81
227.621	46.81
227.856	37.81
228.09	39.81
228.324	55.81
228.559	55.81
228.793	50.81
229.027	59.81
229.262	71.81
229.496	60.81
229.73	81.81
229.964	94.81
230.199	76.81
230.433	74.81
230.667	75.81
230.901	68.81
231.136	71.81
231.37	77.81
231.604	81.81
231.838	76.81
232.072	73.81
232.306	79.81
232.541	73.81
232.775	87.81
233.009	85.81
233.243	90.81
233.477	68.81
233.711	87.81
233.945	89.81
234.179	80.81
234.413	66.81
234.647	77.81
234.881	73.81
235.115	79.81
235.349	74.81
235.583	71.81
235.817	81.81
236.051	75.81
236.285	81.81
236.519	84.81
236.753	72.81
236.987	74.81
237.221	89.81
237.455	95.81
237.689	78.81
237.922	72.81
238.156	82.81
238.39	67.81
238.624	71.81
238.858	65.81
239.091	65.81
239.325	75.81
239.559	85.81
239.793	83.81
240.027	74.81
240.26	84.81
240.494	68.81
240.728	71.81
240.961	65.81
241.195	70.81
241.429	71.81
241.662	74.81
241.896	73.81
242.13	79.81
242.363	68.81
242.597	77.81
242.83	88.81
243.064	75.81
243.298	80.81
243.531	82.81
243.765	67.81
243.998	79.81
244.232	75.81
244.465	92.81
244.699	76.81
244.932	66.81
245.166	68.81
245.399	85.81
245.633	77.81
245.866	68.81
246.099	70.81
246.333	64.81
246.566	76.81
246.8	66.81
247.033	83.81
247.266	75.81
247.5	83.81
247.733	81.81
247.966	66.81
248.2	81.81
248.433	87.81
248.666	69.81
248.899	69.81
249.133	82.81
249.366	89.81
249.599	81.81
249.832	64.81
250.066	73.81
250.299	74.81
250.532	73.81
250.765	88.81
250.998	105.81
251.231	83.81
251.465	66.81
251.698	81.81
251.931	77.81
252.164	85.81
252.397	66.81
252.63	65.81
252.863	84.81
253.096	74.81
253.329	82.81
253.562	79.81
253.795	76.81
254.028	91.81
254.261	82.81
254.494	82.81
254.727	76.81
254.96	80.81
255.193	88.81
255.426	82.81
255.659	85.81
255.892	94.81
256.124	87.81
256.357	89.81
256.59	63.81
256.823	93.81
257.056	77.81
257.289	88.81
257.521	92.81
257.754	75.81
257.987	72.81
258.22	76.81
258.452	88.81
258.685	74.81
258.918	91.81
259.151	79.81
259.383	86.81
259.616	87.81
259.849	83.81
260.081	87.81
260.314	90.81
260.547	67.81
260.779	74.81
261.012	88.81
261.244	97.81
261.477	97.81
261.71	94.81
261.942	102.81
262.175	102.81
262.407	83.81
262.64	82.81
262.872	76.81
263.105	76.81
263.337	97.81
263.57	74.81
263.802	62.81
264.035	81.81
264.267	68.81
264.499	93.81
264.732	82.81
264.964	89.81
265.197	98.81
265.429	79.81
265.661	88.81
265.894	87.81
266.126	77.81
266.358	87.81
266.591	87.81
266.823	72.81
267.055	82.81
267.287	73.81
267.52	86.81
267.752	77.81
267.984	67.81
268.216	73.81
268.448	75.81
268.681	85.81
268.913	69.81
269.145	94.81
269.377	79.81
269.609	76.81
269.841	75.81
270.073	93.81
270.306	81.81
270.538	79.81
270.77	83.81
271.002	76.81
271.234	77.81
271.466	91.81
271.698	98.81
271.93	95.81
272.162	58.81
272.394	92.81
272.626	79.81
272.858	78.81
273.09	75.81
273.322	66.81
273.553	75.81
273.785	93.81
274.017	88.81
274.249	92.81
274.481	92.81
274.713	86.81
274.945	90.81
275.176	73.81
275.408	99.81
275.64	86.81
275.872	101.81
276.104	81.81
276.335	95.81
276.567	89.81
276.799	104.81
277.031	109.81
277.262	109.81
277.494	88.81
277.726	77.81
277.957	84.81
278.189	88.81
278.421	65.81
278.652	89.81
278.884	80.81
279.115	83.81
279.347	84.81
279.579	81.81
279.81	95.81
280.042	99.81
280.273	121.81
280.505	83.81
280.736	98.81
280.968	95.81
281.199	96.81
281.431	105.81
281.662	88.81
281.894	98.81
282.125	92.81
282.356	119.81
282.588	129.81
282.819	116.81
283.051	97.81
283.282	98.81
283.513	74.81
283.745	84.81
283.976	84.81
284.207	85.81
284.439	87.81
284.67	87.81
284.901	88.81
285.132	80.81
285.364	78.81
285.595	87.81
285.826	95.81
286.057	83.81
286.288	83.81
286.52	87.81
286.751	84.81
286.982	92.81
287.213	92.81
287.444	81.81
287.675	79.81
287.906	92.81
288.138	96.81
288.369	88.81
288.6	80.81
288.831	84.81
289.062	79.81
289.293	89.81
289.524	84.81
289.755	86.81
289.986	80.81
290.217	101.81
290.448	69.81
290.679	94.81
290.91	91.81
291.141	97.81
291.371	89.81
291.602	92.81
291.833	90.81
292.064	90.81
292.295	91.81
292.526	91.81
292.757	84.81
292.987	97.81
293.218	94.81
293.449	88.81
293.68	90.81
293.91	82.81
294.141	78.81
294.372	85.81
294.603	80.81
294.833	73.81
295.064	82.81
295.295	89.81
295.525	83.81
295.756	102.81
295.987	106.81
296.217	123.81
296.448	104.81
296.679	84.81
296.909	94.81
297.14	81.81
297.37	89.81
297.601	75.81
297.831	82.81
298.062	90.81
298.292	79.81
298.523	99.81
298.753	93.81
298.984	91.81
299.214	95.81
299.445	79.81
299.675	87.81
299.905	78.81
300.136	84.81
300.366	68.81
300.597	90.81
300.827	100.81
301.057	103.81
301.288	110.81
301.518	95.81
301.748	89.81
301.979	116.81
302.209	89.81
302.439	93.81
302.669	81.81
302.9	85.81
303.13	91.81
303.36	97.81
303.59	115.81
303.82	119.81
304.051	88.81
304.281	91.81
304.511	83.81
304.741	90.81
304.971	97.81
305.201	88.81
305.431	78.81
305.661	83.81
305.891	80.81
306.121	96.81
306.352	90.81
306.582	108.81
306.812	98.81
307.042	91.81
307.272	107.81
307.502	97.81
307.731	108.81
307.961	104.81
308.191	92.81
308.421	95.81
308.651	86.81
308.881	92.81
309.111	98.81
309.341	91.81
309.571	96.81
309.8	81.81
310.03	82.81
310.26	96.81
310.49	94.81
310.72	101.81
310.949	102.81
311.179	91.81
311.409	97.81
311.639	92.81
311.868	105.81
312.098	100.81
312.328	103.81
312.557	99.81
312.787	99.81
313.017	96.81
313.246	92.81
313.476	84.81
313.706	100.81
313.935	94.81
314.165	101.81
314.394	88.81
314.624	82.81
314.853	89.81
315.083	92.81
315.312	98.81
315.542	87.81
315.771	87.81
316.001	87.81
316.23	83.81
316.46	93.81
316.689	86.81
316.919	86.81
317.148	80.81
317.377	89.81
317.607	101.81
317.836	93.81
318.065	94.81
318.295	97.81
318.524	83.81
318.753	87.81
318.983	69.81
319.212	95.81
319.441	104.81
319.67	106.81
319.9	100.81
320.129	91.81
320.358	90.81
320.587	87.81
320.816	95.81
321.046	108.81
321.275	96.81
321.504	86.81
321.733	98.81
321.962	99.81
322.191	97.81
322.42	85.81
322.649	104.81
322.878	110.81
323.108	107.81
323.337	120.81
323.566	126.81
323.795	147.81
324.024	189.81
324.253	353.81
324.482	739.81
324.71	1545.81
324.939	2038.81
325.168	738.81
325.397	213.81
325.626	122.81
325.855	107.81
326.084	116.81
326.313	112.81
326.542	145.81
326.77	199.81
326.999	419.81
327.228	868.81
327.457	1564.81
327.686	1239.81
327.914	378.81
328.143	234.81
328.372	248.81
328.6	157.81
328.829	126.81
329.058	135.81
329.287	132.81
329.515	123.81
329.744	128.81
329.972	183.81
330.201	289.81
330.43	372.81
330.658	217.81
330.887	144.81
331.115	114.81
331.344	110.81
331.572	100.81
331.801	115.81
332.03	106.81
332.258	102.81
332.486	100.81
332.715	89.81
332.943	109.81
333.172	104.81
333.4	116.81
333.629	114.81
333.857	132.81
334.085	188.81
334.314	293.81
334.542	477.81
334.771	454.81
334.999	179.81
335.227	108.81
335.455	95.81
335.684	116.81
335.912	100.81
336.14	97.81
336.369	104.81
336.597	95.81
336.825	106.81
337.053	96.81
337.281	83.81
337.51	75.81
337.738	94.81
337.966	96.81
338.194	98.81
338.422	97.81
338.65	82.81
338.878	87.81
339.106	85.81
339.334	78.81
339.562	82.81
339.79	86.81
340.018	90.81
340.246	96.81
340.474	101.81
340.702	93.81
340.93	94.81
341.158	88.81
341.386	102.81
341.614	101.81
341.842	106.81
342.07	89.81
342.298	93.81
342.526	91.81
342.754	93.81
342.981	93.81
343.209	89.81
343.437	107.81
343.665	72.81
343.893	99.81
344.12	89.81
344.348	87.81
344.576	74.81
344.804	85.81
345.031	88.81
345.259	89.81
345.487	83.81
345.714	101.81
345.942	100.81
346.17	96.81
346.397	96.81
346.625	83.81
346.853	82.81
347.08	100.81
347.308	97.81
347.535	76.81
347.763	98.81
347.99	105.81
348.218	99.81
348.445	109.81
348.673	100.81
348.9	96.81
349.128	80.81
349.355	98.81
349.583	107.81
349.81	98.81
350.037	87.81
350.265	93.81
350.492	102.81
350.72	94.81
350.947	92.81
351.174	105.81
351.402	108.81
351.629	100.81
351.856	95.81
352.083	103.81
352.311	95.81
352.538	111.81
352.765	110.81
352.992	98.81
353.22	95.81
353.447	107.81
353.674	85.81
353.901	84.81
354.128	95.81
354.355	97.81
354.583	88.81
354.81	112.81
355.037	100.81
355.264	94.81
355.491	97.81
355.718	91.81
355.945	80.81
356.172	104.81
356.399	97.81
356.626	90.81
356.853	91.81
357.08	101.81
357.307	87.81
357.534	83.81
357.761	96.81
357.988	93.81
358.215	108.81
358.441	95.81
358.668	94.81
358.895	92.81
359.122	90.81
359.349	96.81
359.576	88.81
359.802	84.81
360.029	115.81
360.256	108.81
360.483	95.81
360.709	92.81
360.936	79.81
361.163	97.81
361.39	91.81
361.616	92.81
361.843	92.81
362.07	87.81
362.296	94.81
362.523	93.81
362.749	85.81
362.976	79.81
363.203	74.81
363.429	89.81
363.656	85.81
363.882	85.81
364.109	77.81
364.335	93.81
364.562	88.81
364.788	87.81
365.015	78.81
365.241	104.81
365.468	96.81
365.694	105.81
365.92	96.81
366.147	96.81
366.373	94.81
366.599	88.81
366.826	77.81
367.052	76.81
367.278	98.81
367.505	67.81
367.731	95.81
367.957	90.81
368.184	81.81
368.41	101.81
368.636	118.81
368.862	101.81
369.089	102.81
369.315	81.81
369.541	88.81
369.767	88.81
369.993	89.81
370.219	91.81
370.445	96.81
370.672	90.81
370.898	82.81
371.124	89.81
371.35	101.81
371.576	91.81
371.802	77.81
372.028	76.81
372.254	69.81
372.48	90.81
372.706	91.81
372.932	83.81
373.158	87.81
373.384	93.81
373.61	84.81
373.835	85.81
374.061	78.81
374.287	96.81
374.513	87.81
374.739	88.81
374.965	82.81
375.191	89.81
375.416	90.81
375.642	87.81
375.868	89.81
376.094	72.81
376.319	86.81
376.545	73.81
376.771	87.81
376.997	91.81
377.222	82.81
377.448	82.81
377.674	97.81
377.899	89.81
378.125	99.81
378.35	87.81
378.576	87.81
378.802	90.81
379.027	108.81
379.253	91.81
379.478	87.81
379.704	108.81
379.929	105.81
380.155	97.81
380.38	101.81
380.606	88.81
380.831	116.81
381.057	110.81
381.282	96.81
381.507	103.81
381.733	101.81
381.958	99.81
382.184	111.81
382.409	94.81
382.634	93.81
382.86	102.81
383.085	99.81
383.31	96.81
383.535	100.81
383.761	107.81
383.986	101.81
384.211	96.81
384.436	101.81
384.662	104.81
384.887	114.81
385.112	132.81
385.337	120.81
385.562	119.81
385.787	135.81
386.013	119.81
386.238	126.81
386.463	118.81
386.688	117.81
386.913	127.81
387.138	116.81
387.363	127.81
387.588	107.81
387.813	120.81
388.038	127.81
388.263	112.81
388.488	131.81
388.713	88.81
388.938	83.81
389.163	93.81
389.387	89.81
389.612	91.81
389.837	83.81
390.062	116.81
390.287	83.81
390.512	79.81
390.736	88.81
390.961	100.81
391.186	82.81
391.411	95.81
391.636	81.81
391.86	97.81
392.085	73.81
392.31	95.81
392.534	82.81
392.759	82.81
392.984	85.81
393.208	76.81
393.433	105.81
393.658	93.81
393.882	77.81
394.107	82.81
394.331	82.81
394.556	91.81
394.78	86.81
395.005	78.81
395.229	84.81
395.454	88.81
395.678	68.81
395.903	73.81
396.127	84.81
396.352	95.81
396.576	89.81
396.801	82.81
397.025	86.81
397.249	93.81
397.474	83.81
397.698	78.81
397.922	95.81
398.147	83.81
398.371	79.81
398.595	80.81
398.82	96.81
399.044	83.81
399.268	77.81
399.492	97.81
399.717	91.81
399.941	87.81
400.165	93.81
400.389	87.81
400.613	71.81
400.837	87.81
401.062	94.81
401.286	75.81
401.51	91.81
401.734	81.81
401.958	90.81
402.182	118.81
402.406	130.81
402.63	106.81
402.854	81.81
403.078	101.81
403.302	81.81
403.526	76.81
403.75	78.81
403.974	86.81
404.198	90.81
404.422	73.81
404.645	71.81
404.869	88.81
405.093	110.81
405.317	112.81
405.541	95.81
405.765	116.81
405.988	105.81
406.212	142.81
406.436	209.81
406.66	139.81
406.883	99.81
407.107	102.81
407.331	95.81
407.555	91.81
407.778	112.81
408.002	89.81
408.226	82.81
408.449	71.81
408.673	94.81
408.896	94.81
409.12	93.81
409.344	96.81
409.567	90.81
409.791	94.81
410.014	94.81
410.238	91.81
410.461	91.81
410.685	79.81
410.908	97.81
411.132	103.81
411.355	94.81
411.578	85.81
411.802	79.81
412.025	77.81
412.249	84.81
412.472	97.81
412.695	107.81
412.919	101.81
413.142	88.81
413.365	88.81
413.589	80.81
413.812	79.81
414.035	84.81
414.258	89.81
414.482	89.81
414.705	77.81
414.928	90.81
415.151	106.81
415.374	105.81
415.597	79.81
415.821	72.81
416.044	83.81
416.267	82.81
416.49	80.81
416.713	93.81
416.936	89.81
417.159	86.81
417.382	81.81
417.605	98.81
417.828	82.81
418.051	98.81
418.274	88.81
418.497	84.81
418.72	86.81
418.943	84.81
419.166	89.81
419.389	87.81
419.611	80.81
419.834	97.81
420.057	81.81
420.28	87.81
420.503	82.81
420.726	81.81
420.948	83.81
421.171	93.81
421.394	88.81
421.617	81.81
421.839	78.81
422.062	81.81
422.285	96.81
422.507	88.81
422.73	87.81
422.953	77.81
423.175	85.81
423.398	81.81
423.621	80.81
423.843	75.81
424.066	95.81
424.288	80.81
424.511	99.81
424.733	99.81
424.956	93.81
425.178	81.81
425.401	96.81
425.623	83.81
425.846	82.81
426.068	83.81
426.291	95.81
426.513	88.81
426.735	78.81
426.958	94.81
427.18	102.81
427.402	141.81
427.625	163.81
427.847	144.81
428.069	135.81
428.292	83.81
428.514	78.81
428.736	81.81
428.958	87.81
429.181	91.81
429.403	76.81
429.625	92.81
429.847	77.81
430.069	103.81
430.292	87.81
430.514	81.81
430.736	77.81
430.958	76.81
431.18	71.81
431.402	74.81
431.624	92.81
431.846	81.81
432.068	83.81
432.29	80.81
432.512	84.81
432.734	80.81
432.956	86.81
433.178	95.81
433.4	93.81
433.622	89.81
433.844	78.81
434.066	79.81
434.287	93.81
434.509	82.81
434.731	84.81
434.953	80.81
435.175	96.81
435.397	107.81
435.618	94.81
435.84	91.81
436.062	121.81
436.284	141.81
436.505	90.81
436.727	105.81
436.949	99.81
437.17	78.81
437.392	79.81
437.614	78.81
437.835	97.81
438.057	123.81
438.278	110.81
438.5	110.81
438.721	126.81
438.943	94.81
439.165	88.81
439.386	85.81
439.608	85.81
439.829	89.81
440.05	113.81
440.272	120.81
440.493	84.81
440.715	84.81
440.936	83.81
441.158	93.81
441.379	83.81
441.6	88.81
441.822	102.81
442.043	95.81
442.264	101.81
442.486	89.81
442.707	79.81
442.928	111.81
443.149	113.81
443.371	117.81
443.592	109.81
443.813	109.81
444.034	101.81
444.255	100.81
444.476	79.81
444.698	86.81
444.919	92.81
445.14	124.81
445.361	119.81
445.582	120.81
445.803	110.81
446.024	131.81
446.245	119.81
446.466	105.81
446.687	90.81
446.908	68.81
447.129	77.81
447.35	86.81
447.571	97.81
447.792	90.81
448.013	98.81
448.234	95.81
448.455	104.81
448.675	109.81
448.896	117.81
449.117	96.81
449.338	94.81
449.559	114.81
449.779	120.81
450	98.81
450.221	91.81
450.442	80.81
450.662	93.81
450.883	100.81
451.104	97.81
451.324	99.81
451.545	83.81
451.766	91.81
451.986	88.81
452.207	84.81
452.428	73.81
452.648	91.81
452.869	103.81
453.089	115.81
453.31	107.81
453.53	95.81
453.751	98.81
453.971	109.81
454.192	98.81
454.412	95.81
454.633	87.81
454.853	81.81
455.073	87.81
455.294	88.81
455.514	99.81
455.734	85.81
455.955	93.81
456.175	94.81
456.395	85.81
456.616	80.81
456.836	83.81
457.056	64.81
457.276	80.81
457.497	87.81
457.717	78.81
457.937	78.81
458.157	82.81
458.377	86.81
458.598	104.81
458.818	153.81
459.038	141.81
459.258	113.81
459.478	102.81
459.698	87.81
459.918	85.81
460.138	83.81
460.358	72.81
460.578	79.81
460.798	93.81
461.018	72.81
461.238	87.81
461.458	75.81
461.678	83.81
461.898	91.81
462.118	88.81
462.338	71.81
462.558	71.81
462.777	77.81
462.997	76.81
463.217	87.81
463.437	98.81
463.657	93.81
463.876	76.81
464.096	85.81
464.316	95.81
464.536	79.81
464.755	91.81
464.975	110.81
465.195	174.81
465.414	143.81
465.634	96.81
465.854	91.81
466.073	84.81
466.293	86.81
466.512	89.81
466.732	72.81
466.951	82.81
467.171	97.81
467.391	94.81
467.61	107.81
467.829	119.81
468.049	211.81
468.268	225.81
468.488	106.81
468.707	91.81
468.927	84.81
469.146	99.81
469.365	97.81
469.585	87.81
469.804	98.81
470.023	102.81
470.243	98.81
470.462	91.81
470.681	107.81
470.901	83.81
471.12	83.81
471.339	96.81
471.558	82.81
471.777	82.81
471.997	130.81
472.216	315.81
472.435	591.81
472.654	199.81
472.873	81.81
473.092	87.81
473.311	82.81
473.53	89.81
473.749	87.81
473.968	88.81
474.187	98.81
474.406	87.81
474.625	91.81
474.844	87.81
475.063	98.81
475.282	78.81
475.501	91.81
475.72	75.81
475.939	82.81
476.158	79.81
476.377	75.81
476.596	84.81
476.814	104.81
477.033	95.81
477.252	81.81
477.471	83.81
477.69	94.81
477.908	97.81
478.127	94.81
478.346	85.81
478.564	91.81
478.783	90.81
479.002	97.81
479.22	93.81
479.439	93.81
479.658	110.81
479.876	91.81
480.095	90.81
480.313	105.81
480.532	108.81
480.751	124.81
480.969	321.81
481.188	1105.81
481.406	634.81
481.624	155.81
481.843	81.81
482.061	109.81
482.28	91.81
482.498	88.81
482.717	83.81
482.935	75.81
483.153	81.81
483.372	90.81
483.59	85.81
483.808	97.81
484.027	85.81
484.245	95.81
484.463	96.81
484.681	107.81
484.9	83.81
485.118	89.81
485.336	103.81
485.554	100.81
485.772	99.81
485.99	100.81
486.209	95.81
486.427	108.81
486.645	121.81
486.863	113.81
487.081	90.81
487.299	83.81
487.517	87.81
487.735	99.81
487.953	108.81
488.171	96.81
488.389	98.81
488.607	89.81
488.825	91.81
489.043	91.81
489.261	95.81
489.479	100.81
489.696	77.81
489.914	83.81
490.132	88.81
490.35	82.81
490.568	85.81
490.786	85.81
491.003	81.81
491.221	82.81
491.439	101.81
491.657	87.81
491.874	91.81
492.092	81.81
492.31	87.81
492.527	79.81
492.745	90.81
492.963	80.81
493.18	87.81
493.398	106.81
493.615	96.81
493.833	79.81
494.05	92.81
494.268	77.81
494.485	76.81
494.703	84.81
494.92	96.81
495.138	66.81
495.355	86.81
495.573	90.81
495.79	90.81
496.008	92.81
496.225	92.81
496.442	83.81
496.66	92.81
496.877	92.81
497.094	92.81
497.312	93.81
497.529	84.81
497.746	95.81
497.963	89.81
498.181	80.81
498.398	91.81
498.615	105.81
498.832	84.81
499.049	88.81
499.267	89.81
499.484	74.81
499.701	84.81
499.918	97.81
500.135	98.81
500.352	98.81
500.569	94.81
500.786	90.81
501.003	96.81
501.22	85.81
501.437	95.81
501.654	91.81
501.871	103.81
502.088	94.81
502.305	96.81
502.522	74.81
502.739	81.81
502.956	83.81
503.172	88.81
503.389	81.81
503.606	113.81
503.823	94.81
504.04	99.81
504.256	97.81
504.473	107.81
504.69	89.81
504.907	98.81
505.123	93.81
505.34	111.81
505.557	89.81
505.773	87.81
505.99	97.81
506.207	83.81
506.423	74.81
506.64	93.81
506.856	72.81
507.073	82.81
507.289	92.81
507.506	101.81
507.722	99.81
507.939	123.81
508.155	88.81
508.372	100.81
508.588	80.81
508.805	84.81
509.021	88.81
509.238	96.81
509.454	100.81
509.67	100.81
509.887	87.81
510.103	119.81
510.319	190.81
510.536	663.81
510.752	2028.81
510.968	575.81
511.184	149.81
511.401	117.81
511.617	92.81
511.833	101.81
512.049	87.81
512.265	88.81
512.481	94.81
512.698	96.81
512.914	85.81
513.13	93.81
513.346	99.81
513.562	88.81
513.778	90.81
513.994	105.81
514.21	97.81
514.426	108.81
514.642	122.81
514.858	122.81
515.074	163.81
515.29	422.81
515.506	1356.81
515.721	514.81
515.937	145.81
516.153	97.81
516.369	92.81
516.585	104.81
516.801	80.81
517.016	100.81
517.232	101.81
517.448	100.81
517.664	99.81
517.879	90.81
518.095	101.81
518.311	103.81
518.527	102.81
518.742	87.81
518.958	97.81
519.173	97.81
519.389	96.81
519.605	83.81
519.82	99.81
520.036	92.81
520.251	128.81
520.467	113.81
520.682	106.81
520.898	106.81
521.113	100.81
521.329	135.81
521.544	212.81
521.76	528.81
521.975	2345.81
522.19	1391.81
522.406	307.81
522.621	125.81
522.836	99.81
523.052	94.81
523.267	93.81
523.482	89.81
523.698	111.81
523.913	119.81
524.128	105.81
524.343	82.81
524.559	105.81
524.774	90.81
524.989	91.81
525.204	98.81
525.419	88.81
525.634	97.81
525.849	83.81
526.064	91.81
526.28	90.81
526.495	95.81
526.71	88.81
526.925	103.81
527.14	75.81
527.355	86.81
527.57	87.81
527.785	94.81
527.999	100.81
528.214	84.81
528.429	78.81
528.644	96.81
528.859	89.81
529.074	104.81
529.289	131.81
529.503	169.81
529.718	108.81
529.933	84.81
530.148	88.81
530.363	90.81
530.577	99.81
530.792	98.81
531.007	87.81
531.221	89.81
531.436	85.81
531.651	81.81
531.865	87.81
532.08	93.81
532.295	85.81
532.509	97.81
532.724	87.81
532.938	93.81
533.153	97.81
533.367	77.81
533.582	99.81
533.796	90.81
534.011	91.81
534.225	74.81
534.44	80.81
534.654	87.81
534.868	91.81
535.083	86.81
535.297	100.81
535.511	104.81
535.726	104.81
535.94	100.81
536.154	86.81
536.369	99.81
536.583	87.81
536.797	94.81
537.011	84.81
537.225	82.81
537.44	83.81
537.654	93.81
537.868	82.81
538.082	100.81
538.296	101.81
538.51	93.81
538.724	81.81
538.938	93.81
539.153	108.81
539.367	106.81
539.581	83.81
539.795	96.81
540.009	87.81
540.222	85.81
540.436	73.81
540.65	87.81
540.864	85.81
541.078	106.81
541.292	98.81
541.506	87.81
541.72	81.81
541.934	90.81
542.147	79.81
542.361	76.81
542.575	72.81
542.789	77.81
543.002	83.81
543.216	99.81
543.43	98.81
543.644	87.81
543.857	96.81
544.071	77.81
544.285	80.81
544.498	90.81
544.712	73.81
544.925	99.81
545.139	89.81
545.352	81.81
545.566	96.81
545.779	83.81
545.993	78.81
546.206	85.81
546.42	89.81
546.633	82.81
546.847	96.81
547.06	100.81
547.274	86.81
547.487	77.81
547.7	81.81
547.914	72.81
548.127	92.81
548.34	89.81
548.554	96.81
548.767	87.81
548.98	88.81
549.193	91.81
549.407	99.81
549.62	84.81
549.833	81.81
550.046	86.81
550.259	85.81
550.473	96.81
550.686	78.81
550.899	88.81
551.112	87.81
551.325	89.81
551.538	93.81
551.751	76.81
551.964	88.81
552.177	89.81
552.39	87.81
552.603	86.81
552.816	85.81
553.029	87.81
553.242	84.81
553.455	90.81
553.667	111.81
553.88	87.81
554.093	79.81
554.306	102.81
554.519	106.81
554.732	79.81
554.944	92.81
555.157	85.81
555.37	82.81
555.583	81.81
555.795	105.81
556.008	89.81
556.221	85.81
556.433	84.81
556.646	86.81
556.859	86.81
557.071	96.81
557.284	88.81
557.496	94.81
557.709	93.81
557.921	79.81
558.134	97.81
558.346	98.81
558.559	83.81
558.771	105.81
558.984	87.81
559.196	81.81
559.409	94.81
559.621	77.81
559.833	85.81
560.046	92.81
560.258	100.81
560.47	81.81
560.683	78.81
560.895	94.81
561.107	94.81
561.32	92.81
561.532	91.81
561.744	83.81
561.956	95.81
562.168	94.81
562.381	73.81
562.593	97.81
562.805	92.81
563.017	69.81
563.229	93.81
563.441	84.81
563.653	79.81
563.865	93.81
564.077	92.81
564.289	74.81
564.501	83.81
564.713	84.81
564.925	97.81
565.137	100.81
565.349	100.81
565.561	87.81
565.773	89.81
565.985	105.81
566.197	84.81
566.408	68.81
566.62	93.81
566.832	79.81
567.044	83.81
567.255	79.81
567.467	88.81
567.679	87.81
567.891	96.81
568.102	93.81
568.314	96.81
568.526	91.81
568.737	83.81
568.949	80.81
569.161	79.81
569.372	79.81
569.584	90.81
569.795	90.81
570.007	106.81
570.218	214.81
570.43	126.81
570.641	80.81
570.853	80.81
571.064	103.81
571.276	91.81
571.487	84.81
571.698	89.81
571.91	81.81
572.121	87.81
572.333	79.81
572.544	81.81
572.755	100.81
572.966	89.81
573.178	88.81
573.389	90.81
573.6	87.81
573.811	95.81
574.023	76.81
574.234	79.81
574.445	91.81
574.656	89.81
574.867	96.81
575.078	93.81
575.289	83.81
575.501	85.81
575.712	92.81
575.923	75.81
576.134	91.81
576.345	85.81
576.556	81.81
576.767	96.81
576.978	83.81
577.188	85.81
577.399	83.81
577.61	81.81
577.821	97.81
578.032	122.81
578.243	246.81
578.454	646.81
578.665	197.81
578.875	111.81
579.086	90.81
579.297	91.81
579.508	99.81
579.718	88.81
579.929	85.81
580.14	87.81
580.35	84.81
580.561	92.81
580.772	89.81
580.982	70.81
581.193	78.81
581.403	74.81
581.614	67.81
581.825	104.81
582.035	90.81
582.246	69.81
582.456	89.81
582.667	88.81
582.877	90.81
583.087	87.81
583.298	93.81
583.508	93.81
583.719	90.81
583.929	96.81
584.139	88.81
584.35	98.81
584.56	91.81
584.77	93.81
584.981	79.81
585.191	83.81
585.401	88.81
585.611	93.81
585.821	95.81
586.032	74.81
586.242	79.81
586.452	95.81
586.662	84.81
586.872	81.81
587.082	89.81
587.292	76.81
587.502	77.81
587.713	94.81
587.923	80.81
588.133	99.81
588.343	100.81
588.553	75.81
588.762	100.81
588.972	104.81
589.182	167.81
589.392	117.81
589.602	106.81
589.812	137.81
590.022	94.81
590.232	93.81
590.441	85.81
590.651	72.81
590.861	68.81
591.071	85.81
591.281	87.81
591.49	89.81
591.7	97.81
591.91	99.81
592.119	103.81
592.329	81.81
592.539	91.81
592.748	86.81
592.958	70.81
593.167	79.81
593.377	81.81
593.587	106.81
593.796	82.81
594.006	73.81
594.215	88.81
594.424	85.81
594.634	89.81
594.843	79.81
595.053	82.81
595.262	92.81
595.472	88.81
595.681	84.81
595.89	96.81
596.1	73.81
596.309	78.81
596.518	100.81
596.727	77.81
596.937	63.81
597.146	85.81
597.355	85.81
597.564	80.81
597.774	85.81
597.983	84.81
598.192	75.81
598.401	86.81
598.61	79.81
598.819	92.81
599.028	77.81
599.237	84.81
599.446	90.81
599.655	85.81
599.864	82.81
600.073	80.81
600.282	88.81
600.491	84.81
600.7	71.81
600.909	81.81
601.118	82.81
601.327	83.81
601.536	83.81
601.745	88.81
601.953	88.81
602.162	86.81
602.371	92.81
602.58	85.81
602.789	92.81
602.997	92.81
603.206	98.81
603.415	84.81
603.623	74.81
603.832	87.81
604.041	86.81
604.249	68.81
604.458	79.81
604.666	88.81
604.875	93.81
605.084	88.81
605.292	79.81
605.501	63.81
605.709	71.81
605.918	89.81
606.126	87.81
606.334	92.81
606.543	76.81
606.751	99.81
606.96	83.81
607.168	98.81
607.376	92.81
607.585	84.81
607.793	88.81
608.001	83.81
608.21	79.81
608.418	79.81
608.626	93.81
608.834	88.81
609.043	80.81
609.251	70.81
609.459	84.81
609.667	78.81
609.875	79.81
610.083	88.81
610.291	95.81
610.499	85.81
610.707	73.81
610.916	85.81
611.124	90.81
611.332	87.81
611.54	81.81
611.748	96.81
611.955	79.81
612.163	94.81
612.371	88.81
612.579	87.81
612.787	89.81
612.995	80.81
613.203	96.81
613.411	78.81
613.618	91.81
613.826	97.81
614.034	89.81
614.242	76.81
614.449	80.81
614.657	79.81
614.865	78.81
615.072	88.81
615.28	92.81
615.488	88.81
615.695	97.81
615.903	101.81
616.111	92.81
616.318	82.81
616.526	91.81
616.733	88.81
616.941	81.81
617.148	101.81
617.356	100.81
617.563	82.81
617.771	79.81
617.978	91.81
618.185	80.81
618.393	76.81
618.6	67.81
618.807	96.81
619.015	80.81
619.222	86.81
619.429	78.81
619.637	72.81
619.844	84.81
620.051	90.81
620.258	90.81
620.466	90.81
620.673	83.81
620.88	87.81
621.087	79.81
621.294	71.81
621.501	90.81
621.708	83.81
621.915	85.81
622.122	94.81
622.329	76.81
622.536	89.81
622.743	76.81
622.95	76.81
623.157	75.81
623.364	84.81
623.571	75.81
623.778	88.81
623.985	80.81
624.192	83.81
624.399	87.81
624.606	73.81
624.812	84.81
625.019	68.81
625.226	68.81
625.433	90.81
625.639	91.81
625.846	90.81
626.053	92.81
626.259	87.81
626.466	87.81
626.673	82.81
626.879	86.81
627.086	91.81
627.293	91.81
627.499	87.81
627.706	91.81
627.912	97.81
628.119	74.81
628.325	78.81
628.532	91.81
628.738	89.81
628.945	74.81
629.151	67.81
629.357	71.81
629.564	82.81
629.77	89.81
629.976	77.81
630.183	73.81
630.389	84.81
630.595	89.81
630.802	89.81
631.008	81.81
631.214	88.81
631.42	70.81
631.627	88.81
631.833	74.81
632.039	71.81
632.245	81.81
632.451	83.81
632.657	91.81
632.863	75.81
633.069	73.81
633.275	82.81
633.481	85.81
633.688	83.81
633.893	86.81
634.099	77.81
634.305	79.81
634.511	92.81
634.717	66.81
634.923	81.81
635.129	84.81
635.335	85.81
635.541	79.81
635.747	81.81
635.952	76.81
636.158	97.81
636.364	141.81
636.57	118.81
636.775	95.81
636.981	68.81
637.187	90.81
637.392	83.81
637.598	96.81
637.804	83.81
638.009	95.81
638.215	76.81
638.421	86.81
638.626	82.81
638.832	71.81
639.037	71.81
639.243	85.81
639.448	71.81
639.654	78.81
639.859	79.81
640.065	81.81
640.27	83.81
640.475	83.81
640.681	80.81
640.886	98.81
641.091	92.81
641.297	89.81
641.502	87.81
641.707	90.81
641.913	80.81
642.118	76.81
642.323	82.81
642.528	90.81
642.733	68.81
642.939	77.81
643.144	100.81
643.349	85.81
643.554	78.81
643.759	73.81
643.964	76.81
644.169	73.81
644.374	81.81
644.579	96.81
644.784	79.81
644.989	78.81
645.194	84.81
645.399	61.81
645.604	82.81
645.809	79.81
646.014	90.81
646.219	77.81
646.423	61.81
646.628	81.81
646.833	84.81
647.038	86.81
647.243	72.81
647.447	93.81
647.652	83.81
647.857	92.81
648.062	86.81
648.266	83.81
648.471	85.81
648.676	92.81
648.88	76.81
649.085	81.81
649.289	94.81
649.494	96.81
649.698	125.81
649.903	97.81
650.107	97.81
650.312	80.81
650.516	83.81
650.721	82.81
650.925	71.81
651.13	84.81
651.334	79.81
651.539	78.81
651.743	88.81
651.947	77.81
652.152	73.81
652.356	77.81
652.56	83.81
652.764	74.81
652.969	79.81
653.173	90.81
653.377	91.81
653.581	86.81
653.785	85.81
653.99	80.81
654.194	80.81
654.398	76.81
654.602	72.81
654.806	91.81
655.01	101.81
655.214	79.81
655.418	75.81
655.622	89.81
655.826	95.81
656.03	90.81
656.234	93.81
656.438	95.81
656.642	83.81
656.846	86.81
657.049	95.81
657.253	74.81
657.457	82.81
657.661	95.81
657.865	84.81
658.068	78.81
658.272	75.81
658.476	75.81
658.68	78.81
658.883	66.81
659.087	71.81
659.291	83.81
659.494	87.81
659.698	78.81
659.901	76.81
660.105	92.81
660.309	71.81
660.512	95.81
660.716	85.81
660.919	79.81
661.123	94.81
661.326	77.81
661.53	67.81
661.733	76.81
661.936	79.81
662.14	92.81
662.343	92.81
662.546	94.81
662.75	82.81
662.953	80.81
663.156	79.81
663.36	92.81
663.563	81.81
663.766	85.81
663.969	69.81
664.173	90.81
664.376	77.81
664.579	80.81
664.782	75.81
664.985	75.81
665.188	75.81
665.391	73.81
665.594	74.81
665.797	67.81
666	85.81
666.203	82.81
666.406	65.81
666.609	75.81
666.812	67.81
667.015	66.81
667.218	88.81
667.421	73.81
667.624	75.81
667.827	87.81
668.03	63.81
668.232	73.81
668.435	87.81
668.638	79.81
668.841	76.81
669.043	89.81
669.246	75.81
669.449	73.81
669.651	80.81
669.854	68.81
670.057	83.81
670.259	81.81
670.462	86.81
670.665	77.81
670.867	94.81
671.07	77.81
671.272	67.81
671.475	83.81
671.677	74.81
671.88	83.81
672.082	94.81
672.284	87.81
672.487	69.81
672.689	71.81
672.892	78.81
