Data from Circ_1990_H10_HRD10591_00064.txt Node
Date: Wed Jan 03 11:55:16 EST 2024
User: Yrep
Spectrometer: HR+D1059
Trigger mode: 1
Integration Time (sec): 1.000000E-1
Scans to average: 1
Electric dark correction enabled: true
Nonlinearity correction enabled: false
Boxcar width: 0
XAxis mode: Wavelengths
Number of Pixels in Spectrum: 2048
>>>>>Begin Spectral Data<<<<<
223.165	-12.44
223.4	-12.44
223.635	-12.44
223.869	-15.44
224.104	-19.44
224.338	-23.44
224.573	-24.44
224.808	-20.44
225.042	-3.44
225.277	-9.44
225.511	-1.44
225.746	9.56
225.98	-5.44
226.215	23.56
226.449	18.56
226.683	19.56
226.918	27.56
227.152	36.56
227.387	37.56
227.621	35.56
227.856	55.56
228.09	53.56
228.324	56.56
228.559	59.56
228.793	166.56
229.027	486.56
229.262	534.56
229.496	616.56
229.73	828.56
229.964	829.56
230.199	553.56
230.433	500.56
230.667	479.56
230.901	465.56
231.136	485.56
231.37	481.56
231.604	482.56
231.838	495.56
232.072	475.56
232.306	498.56
232.541	512.56
232.775	498.56
233.009	495.56
233.243	503.56
233.477	502.56
233.711	526.56
233.945	536.56
234.179	536.56
234.413	548.56
234.647	539.56
234.881	549.56
235.115	558.56
235.349	584.56
235.583	593.56
235.817	601.56
236.051	681.56
236.285	655.56
236.519	641.56
236.753	725.56
236.987	964.56
237.221	1368.56
237.455	1501.56
237.689	907.56
237.922	781.56
238.156	767.56
238.39	722.56
238.624	697.56
238.858	723.56
239.091	715.56
239.325	744.56
239.559	737.56
239.793	767.56
240.027	856.56
240.26	988.56
240.494	1020.56
240.728	1021.56
240.961	947.56
241.195	872.56
241.429	863.56
241.662	824.56
241.896	840.56
242.13	849.56
242.363	850.56
242.597	896.56
242.83	929.56
243.064	935.56
243.298	914.56
243.531	904.56
243.765	905.56
243.998	949.56
244.232	974.56
244.465	1014.56
244.699	976.56
244.932	998.56
245.166	1006.56
245.399	1023.56
245.633	969.56
245.866	1013.56
246.099	1013.56
246.333	1003.56
246.566	1051.56
246.8	1078.56
247.033	1123.56
247.266	1157.56
247.5	1175.56
247.733	1233.56
247.966	1229.56
248.2	1236.56
248.433	1242.56
248.666	1333.56
248.899	1467.56
249.133	1564.56
249.366	1611.56
249.599	1535.56
249.832	1495.56
250.066	1597.56
250.299	1965.56
250.532	2496.56
250.765	2448.56
250.998	2207.56
251.231	1955.56
251.465	1714.56
251.698	1652.56
251.931	1608.56
252.164	1542.56
252.397	1577.56
252.63	1597.56
252.863	1699.56
253.096	1798.56
253.329	1826.56
253.562	1741.56
253.795	1719.56
254.028	1712.56
254.261	1776.56
254.494	2014.56
254.727	2333.56
254.96	2392.56
255.193	2200.56
255.426	2182.56
255.659	2413.56
255.892	3318.56
256.124	4165.56
256.357	3556.56
256.59	2717.56
256.823	2327.56
257.056	2075.56
257.289	1987.56
257.521	1916.56
257.754	1861.56
257.987	1820.56
258.22	1783.56
258.452	1783.56
258.685	1748.56
258.918	1788.56
259.151	1797.56
259.383	1887.56
259.616	1871.56
259.849	1951.56
260.081	2039.56
260.314	2227.56
260.547	2164.56
260.779	1966.56
261.012	1935.56
261.244	1858.56
261.477	1846.56
261.71	1850.56
261.942	1890.56
262.175	1937.56
262.407	1915.56
262.64	1833.56
262.872	1819.56
263.105	1756.56
263.337	1787.56
263.57	1824.56
263.802	1842.56
264.035	1793.56
264.267	1837.56
264.499	1843.56
264.732	1832.56
264.964	1874.56
265.197	1861.56
265.429	1897.56
265.661	1870.56
265.894	1881.56
266.126	1897.56
266.358	1959.56
266.591	1926.56
266.823	2020.56
267.055	2039.56
267.287	2000.56
267.52	1982.56
267.752	2017.56
267.984	2012.56
268.216	2100.56
268.448	2073.56
268.681	2124.56
268.913	2267.56
269.145	2465.56
269.377	2483.56
269.609	2441.56
269.841	2351.56
270.073	2515.56
270.306	2744.56
270.538	2862.56
270.77	2695.56
271.002	2597.56
271.234	2589.56
271.466	2751.56
271.698	2874.56
271.93	2873.56
272.162	2828.56
272.394	2772.56
272.626	2648.56
272.858	2477.56
273.09	2477.56
273.322	2459.56
273.553	2409.56
273.785	2479.56
274.017	2438.56
274.249	2488.56
274.481	2485.56
274.713	2542.56
274.945	2523.56
275.176	2511.56
275.408	2560.56
275.64	2543.56
275.872	2526.56
276.104	2613.56
276.335	2587.56
276.567	2755.56
276.799	2943.56
277.031	3223.56
277.262	3385.56
277.494	3163.56
277.726	2904.56
277.957	2799.56
278.189	2794.56
278.421	2739.56
278.652	2686.56
278.884	2654.56
279.115	2627.56
279.347	2687.56
279.579	2731.56
279.81	2747.56
280.042	2905.56
280.273	3089.56
280.505	2996.56
280.736	2875.56
280.968	2800.56
281.199	2798.56
281.431	2749.56
281.662	2761.56
281.894	2784.56
282.125	2793.56
282.356	3007.56
282.588	3133.56
282.819	2938.56
283.051	2821.56
283.282	2754.56
283.513	2806.56
283.745	2921.56
283.976	2880.56
284.207	2891.56
284.439	2801.56
284.67	2853.56
284.901	2863.56
285.132	2829.56
285.364	2854.56
285.595	2861.56
285.826	2895.56
286.057	2939.56
286.288	2904.56
286.52	2895.56
286.751	2919.56
286.982	2963.56
287.213	2936.56
287.444	3026.56
287.675	3052.56
287.906	3172.56
288.138	3216.56
288.369	3153.56
288.6	3137.56
288.831	3099.56
289.062	3011.56
289.293	3084.56
289.524	3044.56
289.755	3032.56
289.986	2988.56
290.217	3037.56
290.448	3052.56
290.679	2992.56
290.91	3092.56
291.141	3043.56
291.371	3043.56
291.602	3032.56
291.833	3083.56
292.064	3030.56
292.295	3033.56
292.526	3038.56
292.757	2995.56
292.987	3011.56
293.218	2993.56
293.449	3058.56
293.68	3020.56
293.91	3033.56
294.141	3058.56
294.372	3054.56
294.603	3092.56
294.833	3113.56
295.064	3073.56
295.295	3147.56
295.525	3144.56
295.756	3185.56
295.987	3210.56
296.217	3450.56
296.448	3336.56
296.679	3153.56
296.909	3120.56
297.14	3220.56
297.37	3230.56
297.601	3233.56
297.831	3258.56
298.062	3255.56
298.292	3254.56
298.523	3369.56
298.753	3320.56
298.984	3311.56
299.214	3333.56
299.445	3292.56
299.675	3305.56
299.905	3385.56
300.136	3375.56
300.366	3384.56
300.597	3400.56
300.827	3566.56
301.057	3566.56
301.288	3609.56
301.518	3542.56
301.748	3606.56
301.979	3646.56
302.209	3631.56
302.439	3619.56
302.669	3567.56
302.9	3572.56
303.13	3460.56
303.36	3563.56
303.59	3671.56
303.82	3700.56
304.051	3641.56
304.281	3591.56
304.511	3584.56
304.741	3584.56
304.971	3571.56
305.201	3471.56
305.431	3528.56
305.661	3502.56
305.891	3483.56
306.121	3487.56
306.352	3610.56
306.582	3571.56
306.812	3443.56
307.042	3578.56
307.272	3614.56
307.502	3716.56
307.731	3636.56
307.961	3604.56
308.191	3519.56
308.421	3527.56
308.651	3595.56
308.881	3564.56
309.111	3622.56
309.341	3620.56
309.571	3709.56
309.8	3802.56
310.03	3844.56
310.26	3864.56
310.49	3841.56
310.72	3985.56
310.949	4088.56
311.179	4056.56
311.409	3950.56
311.639	3887.56
311.868	3916.56
312.098	3933.56
312.328	4071.56
312.557	4239.56
312.787	4302.56
313.017	4165.56
313.246	4081.56
313.476	3976.56
313.706	4089.56
313.935	4176.56
314.165	4240.56
314.394	4272.56
314.624	4189.56
314.853	4104.56
315.083	4049.56
315.312	4047.56
315.542	3950.56
315.771	3955.56
316.001	3884.56
316.23	3877.56
316.46	3899.56
316.689	4002.56
316.919	4047.56
317.148	4072.56
317.377	4099.56
317.607	4039.56
317.836	3990.56
318.065	3908.56
318.295	3906.56
318.524	3976.56
318.753	3947.56
318.983	3956.56
319.212	3984.56
319.441	4006.56
319.67	4070.56
319.9	3961.56
320.129	4037.56
320.358	3997.56
320.587	4045.56
320.816	4073.56
321.046	4178.56
321.275	4130.56
321.504	4142.56
321.733	4236.56
321.962	4261.56
322.191	4349.56
322.42	4474.56
322.649	4595.56
322.878	4645.56
323.108	4807.56
323.337	5010.56
323.566	5128.56
323.795	5588.56
324.024	6161.56
324.253	7927.56
324.482	11788.56
324.71	15625.56
324.939	15625.56
325.168	13671.56
325.397	7134.56
325.626	5774.56
325.855	5358.56
326.084	5330.56
326.313	5284.56
326.542	5524.56
326.77	6183.56
326.999	7856.56
327.228	11295.56
327.457	15142.56
327.686	14687.56
327.914	9077.56
328.143	8376.56
328.372	8569.56
328.6	7347.56
328.829	6628.56
329.058	6819.56
329.287	6836.56
329.515	6783.56
329.744	7247.56
329.972	8734.56
330.201	11008.56
330.43	12157.56
330.658	9384.56
330.887	7921.56
331.115	6912.56
331.344	6157.56
331.572	5989.56
331.801	6006.56
332.03	5996.56
332.258	5878.56
332.486	5907.56
332.715	6115.56
332.943	6343.56
333.172	6619.56
333.4	7007.56
333.629	7463.56
333.857	8440.56
334.085	9846.56
334.314	12468.56
334.542	14544.56
334.771	13733.56
334.999	9041.56
335.227	7357.56
335.455	6660.56
335.684	6327.56
335.912	6055.56
336.14	5753.56
336.369	5735.56
336.597	5732.56
336.825	5545.56
337.053	5502.56
337.281	5300.56
337.51	5189.56
337.738	5239.56
337.966	5225.56
338.194	5201.56
338.422	5122.56
338.65	4989.56
338.878	4908.56
339.106	4847.56
339.334	4892.56
339.562	4866.56
339.79	4767.56
340.018	4737.56
340.246	4787.56
340.474	4837.56
340.702	4724.56
340.93	4756.56
341.158	4725.56
341.386	4740.56
341.614	4765.56
341.842	4669.56
342.07	4649.56
342.298	4609.56
342.526	4613.56
342.754	4556.56
342.981	4640.56
343.209	4701.56
343.437	4947.56
343.665	5183.56
343.893	5437.56
344.12	5490.56
344.348	5229.56
344.576	5083.56
344.804	5001.56
345.031	4965.56
345.259	4928.56
345.487	4764.56
345.714	4621.56
345.942	4521.56
346.17	4547.56
346.397	4484.56
346.625	4487.56
346.853	4411.56
347.08	4428.56
347.308	4526.56
347.535	4555.56
347.763	4636.56
347.99	4589.56
348.218	4584.56
348.445	4660.56
348.673	4508.56
348.9	4463.56
349.128	4321.56
349.355	4333.56
349.583	4367.56
349.81	4259.56
350.037	4286.56
350.265	4308.56
350.492	4328.56
350.72	4286.56
350.947	4344.56
351.174	4443.56
351.402	4533.56
351.629	4462.56
351.856	4458.56
352.083	4538.56
352.311	4588.56
352.538	4565.56
352.765	4563.56
352.992	4515.56
353.22	4318.56
353.447	4383.56
353.674	4315.56
353.901	4225.56
354.128	4198.56
354.355	4157.56
354.583	4280.56
354.81	4203.56
355.037	4159.56
355.264	4210.56
355.491	4222.56
355.718	4197.56
355.945	4161.56
356.172	4241.56
356.399	4183.56
356.626	4192.56
356.853	4244.56
357.08	4200.56
357.307	4168.56
357.534	4233.56
357.761	4209.56
357.988	4332.56
358.215	4237.56
358.441	4190.56
358.668	4281.56
358.895	4285.56
359.122	4357.56
359.349	4393.56
359.576	4580.56
359.802	4744.56
360.029	4980.56
360.256	4930.56
360.483	4742.56
360.709	4452.56
360.936	4437.56
361.163	4494.56
361.39	4503.56
361.616	4546.56
361.843	4406.56
362.07	4455.56
362.296	4529.56
362.523	4405.56
362.749	4427.56
362.976	4425.56
363.203	4297.56
363.429	4276.56
363.656	4382.56
363.882	4308.56
364.109	4253.56
364.335	4329.56
364.562	4287.56
364.788	4279.56
365.015	4330.56
365.241	4239.56
365.468	4314.56
365.694	4341.56
365.92	4334.56
366.147	4328.56
366.373	4337.56
366.599	4269.56
366.826	4264.56
367.052	4240.56
367.278	4269.56
367.505	4340.56
367.731	4308.56
367.957	4307.56
368.184	4471.56
368.41	4498.56
368.636	4455.56
368.862	4534.56
369.089	4440.56
369.315	4447.56
369.541	4387.56
369.767	4423.56
369.993	4455.56
370.219	4430.56
370.445	4435.56
370.672	4408.56
370.898	4420.56
371.124	4555.56
371.35	4540.56
371.576	4540.56
371.802	4533.56
372.028	4472.56
372.254	4559.56
372.48	4606.56
372.706	4747.56
372.932	4702.56
373.158	4620.56
373.384	4584.56
373.61	4571.56
373.835	4625.56
374.061	4555.56
374.287	4685.56
374.513	4721.56
374.739	4892.56
374.965	4990.56
375.191	4965.56
375.416	4934.56
375.642	4716.56
375.868	4719.56
376.094	4654.56
376.319	4587.56
376.545	4591.56
376.771	4662.56
376.997	4512.56
377.222	4561.56
377.448	4521.56
377.674	4552.56
377.899	4448.56
378.125	4477.56
378.35	4415.56
378.576	4424.56
378.802	4456.56
379.027	4486.56
379.253	4534.56
379.478	4455.56
379.704	4435.56
379.929	4540.56
380.155	4566.56
380.38	4583.56
380.606	4531.56
380.831	4487.56
381.057	4573.56
381.282	4575.56
381.507	4620.56
381.733	4623.56
381.958	4649.56
382.184	4632.56
382.409	4742.56
382.634	4778.56
382.86	4749.56
383.085	4913.56
383.31	4912.56
383.535	5028.56
383.761	5058.56
383.986	5026.56
384.211	5224.56
384.436	5241.56
384.662	5327.56
384.887	5352.56
385.112	5441.56
385.337	5477.56
385.562	5421.56
385.787	5448.56
386.013	5581.56
386.238	5605.56
386.463	5535.56
386.688	5453.56
386.913	5390.56
387.138	5370.56
387.363	5447.56
387.588	5309.56
387.813	5334.56
388.038	5405.56
388.263	5385.56
388.488	5445.56
388.713	5303.56
388.938	5379.56
389.163	5399.56
389.387	5311.56
389.612	5269.56
389.837	5235.56
390.062	5255.56
390.287	5323.56
390.512	5326.56
390.736	5405.56
390.961	5513.56
391.186	5513.56
391.411	5763.56
391.636	5814.56
391.86	5968.56
392.085	6032.56
392.31	5924.56
392.534	5774.56
392.759	5717.56
392.984	5670.56
393.208	5623.56
393.433	5613.56
393.658	5567.56
393.882	5618.56
394.107	5688.56
394.331	5672.56
394.556	5653.56
394.78	5675.56
395.005	5802.56
395.229	5801.56
395.454	5949.56
395.678	6097.56
395.903	6078.56
396.127	6175.56
396.352	5950.56
396.576	5744.56
396.801	5675.56
397.025	5761.56
397.249	5992.56
397.474	6069.56
397.698	6084.56
397.922	6202.56
398.147	6352.56
398.371	6491.56
398.595	6549.56
398.82	6822.56
399.044	7426.56
399.268	8188.56
399.492	9249.56
399.717	9793.56
399.941	9626.56
400.165	9059.56
400.389	8331.56
400.613	7623.56
400.837	7139.56
401.062	7040.56
401.286	6866.56
401.51	6751.56
401.734	6799.56
401.958	6963.56
402.182	7007.56
402.406	7194.56
402.63	7197.56
402.854	7249.56
403.078	7327.56
403.302	7521.56
403.526	7683.56
403.75	7722.56
403.974	7899.56
404.198	7839.56
404.422	7976.56
404.645	8133.56
404.869	8209.56
405.093	8801.56
405.317	9352.56
405.541	9231.56
405.765	8313.56
405.988	7872.56
406.212	8095.56
406.436	8068.56
406.66	8184.56
406.883	8157.56
407.107	8562.56
407.331	9233.56
407.555	9683.56
407.778	9400.56
408.002	8613.56
408.226	8217.56
408.449	8123.56
408.673	8069.56
408.896	8228.56
409.12	8305.56
409.344	7913.56
409.567	7451.56
409.791	7416.56
410.014	7383.56
410.238	7387.56
410.461	7429.56
410.685	7448.56
410.908	7423.56
411.132	7703.56
411.355	7746.56
411.578	7488.56
411.802	7268.56
412.025	7411.56
412.249	7895.56
412.472	8513.56
412.695	9023.56
412.919	8354.56
413.142	7845.56
413.365	7478.56
413.589	7236.56
413.812	7055.56
414.035	6795.56
414.258	6927.56
414.482	6980.56
414.705	6888.56
414.928	6839.56
415.151	6840.56
415.374	6694.56
415.597	6710.56
415.821	6659.56
416.044	6710.56
416.267	6685.56
416.49	6535.56
416.713	6555.56
416.936	6689.56
417.159	6665.56
417.382	6810.56
417.605	6915.56
417.828	7087.56
418.051	6993.56
418.274	6869.56
418.497	6689.56
418.72	6904.56
418.943	6913.56
419.166	7336.56
419.389	7699.56
419.611	7768.56
419.834	7649.56
420.057	7781.56
420.28	7989.56
420.503	7821.56
420.726	7475.56
420.948	7469.56
421.171	7706.56
421.394	7547.56
421.617	7008.56
421.839	7017.56
422.062	6997.56
422.285	7165.56
422.507	7804.56
422.73	8230.56
422.953	7595.56
423.175	7294.56
423.398	7282.56
423.621	7332.56
423.843	7561.56
424.066	7507.56
424.288	7360.56
424.511	7659.56
424.733	8103.56
424.956	8494.56
425.178	8032.56
425.401	8161.56
425.623	8048.56
425.846	7071.56
426.068	6904.56
426.291	6863.56
426.513	6820.56
426.735	6960.56
426.958	7420.56
427.18	8232.56
427.402	9524.56
427.625	9951.56
427.847	9106.56
428.069	8820.56
428.292	7428.56
428.514	6691.56
428.736	6373.56
428.958	6358.56
429.181	6183.56
429.403	6135.56
429.625	6271.56
429.847	6590.56
430.069	7153.56
430.292	6673.56
430.514	6094.56
430.736	6166.56
430.958	5949.56
431.18	5911.56
431.402	5888.56
431.624	5944.56
431.846	5957.56
432.068	5955.56
432.29	6128.56
432.512	5971.56
432.734	6104.56
432.956	5989.56
433.178	6096.56
433.4	6149.56
433.622	6056.56
433.844	6100.56
434.066	6042.56
434.287	6139.56
434.509	6432.56
434.731	6595.56
434.953	6672.56
435.175	6860.56
435.397	7011.56
435.618	6925.56
435.84	7292.56
436.062	8132.56
436.284	8028.56
436.505	6782.56
436.727	6580.56
436.949	6324.56
437.17	6104.56
437.392	6046.56
437.614	6233.56
437.835	6671.56
438.057	7699.56
438.278	8295.56
438.5	8041.56
438.721	8969.56
438.943	7878.56
439.165	6635.56
439.386	6491.56
439.608	6593.56
439.829	6683.56
440.05	7053.56
440.272	7494.56
440.493	6779.56
440.715	6433.56
440.936	6351.56
441.158	6453.56
441.379	6639.56
441.6	6871.56
441.822	7137.56
442.043	7582.56
442.264	8312.56
442.486	8011.56
442.707	7167.56
442.928	7055.56
443.149	7283.56
443.371	7515.56
443.592	7981.56
443.813	8953.56
444.034	8859.56
444.255	7816.56
444.476	7591.56
444.698	7785.56
444.919	7840.56
445.14	7589.56
445.361	7581.56
445.582	7826.56
445.803	8475.56
446.024	9005.56
446.245	8595.56
446.466	7732.56
446.687	6691.56
446.908	6425.56
447.129	6071.56
447.35	5886.56
447.571	5923.56
447.792	5797.56
448.013	5847.56
448.234	6018.56
448.455	6841.56
448.675	7995.56
448.896	8339.56
449.117	6947.56
449.338	7191.56
449.559	8579.56
449.779	8715.56
450	6640.56
450.221	5969.56
450.442	5798.56
450.662	5695.56
450.883	5820.56
451.104	6040.56
451.324	5707.56
451.545	5608.56
451.766	5432.56
451.986	5343.56
452.207	5309.56
452.428	5322.56
452.648	5348.56
452.869	5309.56
453.089	5404.56
453.31	5473.56
453.53	5357.56
453.751	5315.56
453.971	5348.56
454.192	5478.56
454.412	5232.56
454.633	5164.56
454.853	5158.56
455.073	5139.56
455.294	5636.56
455.514	6197.56
455.734	5584.56
455.955	5003.56
456.175	4914.56
456.395	4844.56
456.616	4876.56
456.836	4915.56
457.056	4870.56
457.276	4836.56
457.497	5023.56
457.717	4912.56
457.937	5090.56
458.157	5125.56
458.377	5217.56
458.598	5633.56
458.818	6375.56
459.038	7156.56
459.258	6974.56
459.478	6303.56
459.698	6075.56
459.918	6231.56
460.138	6340.56
460.358	6517.56
460.578	6647.56
460.798	6600.56
461.018	6651.56
461.238	6617.56
461.458	6484.56
461.678	6506.56
461.898	6745.56
462.118	6653.56
462.338	7041.56
462.558	7201.56
462.777	7470.56
462.997	8004.56
463.217	8499.56
463.437	8291.56
463.657	7670.56
463.876	7553.56
464.096	7534.56
464.316	7497.56
464.536	7547.56
464.755	7271.56
464.975	7217.56
465.195	7603.56
465.414	7697.56
465.634	6651.56
465.854	6165.56
466.073	6032.56
466.293	5800.56
466.512	5654.56
466.732	5597.56
466.951	5622.56
467.171	5535.56
467.391	5677.56
467.61	5795.56
467.829	5992.56
468.049	6604.56
468.268	7356.56
468.488	6201.56
468.707	5692.56
468.927	5518.56
469.146	5476.56
469.365	5470.56
469.585	5430.56
469.804	5687.56
470.023	5847.56
470.243	5837.56
470.462	5988.56
470.681	6088.56
470.901	5942.56
471.12	5727.56
471.339	5764.56
471.558	5846.56
471.777	5935.56
471.997	6233.56
472.216	8059.56
472.435	11345.56
472.654	8540.56
472.873	6788.56
473.092	6217.56
473.311	5921.56
473.53	5877.56
473.749	5780.56
473.968	6335.56
474.187	7334.56
474.406	6716.56
474.625	5847.56
474.844	5669.56
475.063	5492.56
475.282	5486.56
475.501	5512.56
475.72	5531.56
475.939	5515.56
476.158	5637.56
476.377	5623.56
476.596	5634.56
476.814	5764.56
477.033	5924.56
477.252	5950.56
477.471	5989.56
477.69	6128.56
477.908	6278.56
478.127	6433.56
478.346	6425.56
478.564	6538.56
478.783	6707.56
479.002	6769.56
479.22	6758.56
479.439	6953.56
479.658	7022.56
479.876	7296.56
480.095	7502.56
480.313	7983.56
480.532	8010.56
480.751	8278.56
480.969	10099.56
481.188	15017.56
481.406	14821.56
481.624	10414.56
481.843	8712.56
482.061	7999.56
482.28	7466.56
482.498	7199.56
482.717	6938.56
482.935	6875.56
483.153	6689.56
483.372	6685.56
483.59	6684.56
483.808	6592.56
484.027	6627.56
484.245	6653.56
484.463	6694.56
484.681	6759.56
484.9	6800.56
485.118	6791.56
485.336	6830.56
485.554	6870.56
485.772	6981.56
485.99	6929.56
486.209	6958.56
486.427	7001.56
486.645	7037.56
486.863	7218.56
487.081	7112.56
487.299	7040.56
487.517	6988.56
487.735	6947.56
487.953	6940.56
488.171	6999.56
488.389	6949.56
488.607	7000.56
488.825	7045.56
489.043	7071.56
489.261	7187.56
489.479	7255.56
489.696	7305.56
489.914	7548.56
490.132	7569.56
490.35	7675.56
490.568	7853.56
490.786	8072.56
491.003	8176.56
491.221	8580.56
491.439	9020.56
491.657	9005.56
491.874	9075.56
492.092	9176.56
492.31	9287.56
492.527	9522.56
492.745	9742.56
492.963	9802.56
493.18	9576.56
493.398	9526.56
493.615	9445.56
493.833	9436.56
494.05	9186.56
494.268	9103.56
494.485	8972.56
494.703	8727.56
494.92	8791.56
495.138	8814.56
495.355	8793.56
495.573	8632.56
495.79	8658.56
496.008	8621.56
496.225	8469.56
496.442	8486.56
496.66	8442.56
496.877	8478.56
497.094	8579.56
497.312	8746.56
497.529	8875.56
497.746	9108.56
497.963	9235.56
498.181	9612.56
498.398	9864.56
498.615	10139.56
498.832	10703.56
499.049	11211.56
499.267	11774.56
499.484	12467.56
499.701	13212.56
499.918	13923.56
500.135	14713.56
500.352	15229.56
500.569	15477.56
500.786	15410.56
501.003	15003.56
501.22	14358.56
501.437	13629.56
501.654	12865.56
501.871	12203.56
502.088	11379.56
502.305	10786.56
502.522	10317.56
502.739	9870.56
502.956	9391.56
503.172	9149.56
503.389	8881.56
503.606	8797.56
503.823	8604.56
504.04	8517.56
504.256	8678.56
504.473	8771.56
504.69	8704.56
504.907	8499.56
505.123	8060.56
505.34	7959.56
505.557	7661.56
505.773	7508.56
505.99	7555.56
506.207	7421.56
506.423	7282.56
506.64	7203.56
506.856	7221.56
507.073	7126.56
507.289	7036.56
507.506	7024.56
507.722	7123.56
507.939	7234.56
508.155	6876.56
508.372	6772.56
508.588	6726.56
508.805	6716.56
509.021	6798.56
509.238	7003.56
509.454	6869.56
509.67	6797.56
509.887	6584.56
510.103	6621.56
510.319	6746.56
510.536	8115.56
510.752	11912.56
510.968	7989.56
511.184	6619.56
511.401	6647.56
511.617	6836.56
511.833	7391.56
512.049	7451.56
512.265	7057.56
512.481	6774.56
512.698	6660.56
512.914	6608.56
513.13	6422.56
513.346	6335.56
513.562	6389.56
513.778	6366.56
513.994	6429.56
514.21	6557.56
514.426	6711.56
514.642	7091.56
514.858	7197.56
515.074	7663.56
515.29	9247.56
515.506	12224.56
515.721	8910.56
515.937	7360.56
516.153	7202.56
516.369	7041.56
516.585	6992.56
516.801	7230.56
517.016	7337.56
517.232	7595.56
517.448	7803.56
517.664	7992.56
517.879	7959.56
518.095	7855.56
518.311	7742.56
518.527	7509.56
518.742	7193.56
518.958	6959.56
519.173	6832.56
519.389	6681.56
519.605	6544.56
519.82	6513.56
520.036	6647.56
520.251	6775.56
520.467	6832.56
520.682	6767.56
520.898	6734.56
521.113	6920.56
521.329	7270.56
521.544	8051.56
521.76	10316.56
521.975	14797.56
522.19	12073.56
522.406	7527.56
522.621	6577.56
522.836	6097.56
523.052	5929.56
523.267	5734.56
523.482	5641.56
523.698	5610.56
523.913	5583.56
524.128	5607.56
524.343	5459.56
524.559	5316.56
524.774	5283.56
524.989	5324.56
525.204	5387.56
525.419	5360.56
525.634	5245.56
525.849	5179.56
526.064	5145.56
526.28	5207.56
526.495	5096.56
526.71	5082.56
526.925	5108.56
527.14	5069.56
527.355	5072.56
527.57	5025.56
527.785	5090.56
527.999	5023.56
528.214	5000.56
528.429	5077.56
528.644	5028.56
528.859	5092.56
529.074	5046.56
529.289	5403.56
529.503	6031.56
529.718	5638.56
529.933	5249.56
530.148	5124.56
530.363	5051.56
530.577	4965.56
530.792	5006.56
531.007	5023.56
531.221	4968.56
531.436	4986.56
531.651	5051.56
531.865	4958.56
532.08	4959.56
532.295	4926.56
532.509	4942.56
532.724	4905.56
532.938	4971.56
533.153	4941.56
533.367	4896.56
533.582	4885.56
533.796	4860.56
534.011	4872.56
534.225	4912.56
534.44	4777.56
534.654	4794.56
534.868	4836.56
535.083	4823.56
535.297	4825.56
535.511	4880.56
535.726	4799.56
535.94	4816.56
536.154	4796.56
536.369	4727.56
536.583	4692.56
536.797	4647.56
537.011	4659.56
537.225	4589.56
537.44	4582.56
537.654	4610.56
537.868	4594.56
538.082	4614.56
538.296	4591.56
538.51	4545.56
538.724	4592.56
538.938	4490.56
539.153	4548.56
539.367	4667.56
539.581	4607.56
539.795	4572.56
540.009	4486.56
540.222	4522.56
540.436	4503.56
540.65	4512.56
540.864	4579.56
541.078	4596.56
541.292	4529.56
541.506	4460.56
541.72	4400.56
541.934	4311.56
542.147	4394.56
542.361	4305.56
542.575	4329.56
542.789	4295.56
543.002	4411.56
543.216	4463.56
543.43	4486.56
543.644	4389.56
543.857	4411.56
544.071	4357.56
544.285	4389.56
544.498	4408.56
544.712	4316.56
544.925	4369.56
545.139	4363.56
545.352	4369.56
545.566	4399.56
545.779	4396.56
545.993	4402.56
546.206	4417.56
546.42	4391.56
546.633	4329.56
546.847	4292.56
547.06	4382.56
547.274	4377.56
547.487	4315.56
547.7	4347.56
547.914	4389.56
548.127	4415.56
548.34	4380.56
548.554	4306.56
548.767	4350.56
548.98	4431.56
549.193	4452.56
549.407	4404.56
549.62	4478.56
549.833	4469.56
550.046	4409.56
550.259	4356.56
550.473	4257.56
550.686	4279.56
550.899	4252.56
551.112	4261.56
551.325	4185.56
551.538	4219.56
551.751	4276.56
551.964	4266.56
552.177	4342.56
552.39	4404.56
552.603	4472.56
552.816	4564.56
553.029	4634.56
553.242	4722.56
553.455	4764.56
553.667	4711.56
553.88	4787.56
554.093	4715.56
554.306	4569.56
554.519	4489.56
554.732	4387.56
554.944	4224.56
555.157	4181.56
555.37	4092.56
555.583	4055.56
555.795	4025.56
556.008	3907.56
556.221	3869.56
556.433	3868.56
556.646	3808.56
556.859	3799.56
557.071	3701.56
557.284	3704.56
557.496	3636.56
557.709	3652.56
557.921	3682.56
558.134	3601.56
558.346	3555.56
558.559	3592.56
558.771	3551.56
558.984	3550.56
559.196	3549.56
559.409	3461.56
559.621	3537.56
559.833	3553.56
560.046	3573.56
560.258	3537.56
560.47	3550.56
560.683	3547.56
560.895	3554.56
561.107	3469.56
561.32	3462.56
561.532	3453.56
561.744	3507.56
561.956	3446.56
562.168	3465.56
562.381	3492.56
562.593	3489.56
562.805	3415.56
563.017	3505.56
563.229	3527.56
563.441	3550.56
563.653	3588.56
563.865	3608.56
564.077	3639.56
564.289	3612.56
564.501	3673.56
564.713	3771.56
564.925	3901.56
565.137	3991.56
565.349	4020.56
565.561	4095.56
565.773	4276.56
565.985	4428.56
566.197	4681.56
566.408	4933.56
566.62	5237.56
566.832	5578.56
567.044	5605.56
567.255	5522.56
567.467	5791.56
567.679	6079.56
567.891	6371.56
568.102	6344.56
568.314	5974.56
568.526	5440.56
568.737	5028.56
568.949	4671.56
569.161	4346.56
569.372	4171.56
569.584	3951.56
569.795	3859.56
570.007	3756.56
570.218	3979.56
570.43	3709.56
570.641	3592.56
570.853	3508.56
571.064	3549.56
571.276	3577.56
571.487	3389.56
571.698	3323.56
571.91	3219.56
572.121	3157.56
572.333	3113.56
572.544	3054.56
572.755	2959.56
572.966	2936.56
573.178	2948.56
573.389	2908.56
573.6	2877.56
573.811	2763.56
574.023	2856.56
574.234	2808.56
574.445	2772.56
574.656	2768.56
574.867	2782.56
575.078	2783.56
575.289	2756.56
575.501	2684.56
575.712	2674.56
575.923	2623.56
576.134	2651.56
576.345	2635.56
576.556	2662.56
576.767	2637.56
576.978	2627.56
577.188	2585.56
577.399	2595.56
577.61	2516.56
577.821	2537.56
578.032	2580.56
578.243	2898.56
578.454	3967.56
578.665	2731.56
578.875	2478.56
579.086	2413.56
579.297	2442.56
579.508	2406.56
579.718	2404.56
579.929	2389.56
580.14	2385.56
580.35	2332.56
580.561	2380.56
580.772	2367.56
580.982	2347.56
581.193	2311.56
581.403	2301.56
581.614	2323.56
581.825	2313.56
582.035	2296.56
582.246	2272.56
582.456	2312.56
582.667	2256.56
582.877	2253.56
583.087	2257.56
583.298	2253.56
583.508	2257.56
583.719	2257.56
583.929	2252.56
584.139	2234.56
584.35	2174.56
584.56	2256.56
584.77	2207.56
584.981	2205.56
585.191	2207.56
585.401	2210.56
585.611	2216.56
585.821	2178.56
586.032	2208.56
586.242	2211.56
586.452	2120.56
586.662	2135.56
586.872	2135.56
587.082	2113.56
587.292	2135.56
587.502	2133.56
587.713	2140.56
587.923	2092.56
588.133	2136.56
588.343	2142.56
588.553	2168.56
588.762	2142.56
588.972	2157.56
589.182	2185.56
589.392	2243.56
589.602	2336.56
589.812	2266.56
590.022	2200.56
590.232	2115.56
590.441	2157.56
590.651	2196.56
590.861	2147.56
591.071	2233.56
591.281	2203.56
591.49	2255.56
591.7	2277.56
591.91	2317.56
592.119	2357.56
592.329	2411.56
592.539	2449.56
592.748	2534.56
592.958	2582.56
593.167	2656.56
593.377	2679.56
593.587	2747.56
593.796	2751.56
594.006	2718.56
594.215	2759.56
594.424	2711.56
594.634	2652.56
594.843	2563.56
595.053	2459.56
595.262	2437.56
595.472	2283.56
595.681	2261.56
595.89	2204.56
596.1	2144.56
596.309	2077.56
596.518	2032.56
596.727	2025.56
596.937	1967.56
597.146	2007.56
597.355	1994.56
597.564	1898.56
597.774	1948.56
597.983	1867.56
598.192	1859.56
598.401	1872.56
598.61	1823.56
598.819	1812.56
599.028	1840.56
599.237	1819.56
599.446	1817.56
599.655	1819.56
599.864	1818.56
600.073	1776.56
600.282	1799.56
600.491	1769.56
600.7	1768.56
600.909	1788.56
601.118	1755.56
601.327	1752.56
601.536	1739.56
601.745	1762.56
601.953	1732.56
602.162	1741.56
602.371	1670.56
602.58	1697.56
602.789	1733.56
602.997	1659.56
603.206	1684.56
603.415	1695.56
603.623	1680.56
603.832	1659.56
604.041	1667.56
604.249	1621.56
604.458	1659.56
604.666	1618.56
604.875	1579.56
605.084	1612.56
605.292	1596.56
605.501	1592.56
605.709	1603.56
605.918	1603.56
606.126	1597.56
606.334	1588.56
606.543	1565.56
606.751	1549.56
606.96	1566.56
607.168	1582.56
607.376	1536.56
607.585	1571.56
607.793	1619.56
608.001	1596.56
608.21	1564.56
608.418	1562.56
608.626	1555.56
608.834	1519.56
609.043	1555.56
609.251	1549.56
609.459	1540.56
609.667	1507.56
609.875	1527.56
610.083	1564.56
610.291	1545.56
610.499	1545.56
610.707	1523.56
610.916	1550.56
611.124	1572.56
611.332	1544.56
611.54	1570.56
611.748	1526.56
611.955	1508.56
612.163	1491.56
612.371	1488.56
612.579	1505.56
612.787	1499.56
612.995	1429.56
613.203	1448.56
613.411	1481.56
613.618	1487.56
613.826	1448.56
614.034	1455.56
614.242	1431.56
614.449	1427.56
614.657	1475.56
614.865	1478.56
615.072	1440.56
615.28	1477.56
615.488	1464.56
615.695	1456.56
615.903	1461.56
616.111	1487.56
616.318	1468.56
616.526	1496.56
616.733	1476.56
616.941	1440.56
617.148	1439.56
617.356	1431.56
617.563	1445.56
617.771	1449.56
617.978	1421.56
618.185	1443.56
618.393	1463.56
618.6	1421.56
618.807	1403.56
619.015	1404.56
619.222	1406.56
619.429	1377.56
619.637	1380.56
619.844	1401.56
620.051	1375.56
620.258	1359.56
620.466	1338.56
620.673	1286.56
620.88	1286.56
621.087	1308.56
621.294	1289.56
621.501	1317.56
621.708	1320.56
621.915	1321.56
622.122	1316.56
622.329	1280.56
622.536	1269.56
622.743	1251.56
622.95	1244.56
623.157	1253.56
623.364	1236.56
623.571	1245.56
623.778	1214.56
623.985	1244.56
624.192	1225.56
624.399	1203.56
624.606	1204.56
624.812	1206.56
625.019	1206.56
625.226	1178.56
625.433	1197.56
625.639	1207.56
625.846	1169.56
626.053	1183.56
626.259	1161.56
626.466	1162.56
626.673	1156.56
626.879	1132.56
627.086	1133.56
627.293	1131.56
627.499	1140.56
627.706	1110.56
627.912	1106.56
628.119	1124.56
628.325	1120.56
628.532	1136.56
628.738	1111.56
628.945	1117.56
629.151	1106.56
629.357	1077.56
629.564	1065.56
629.77	1044.56
629.976	1059.56
630.183	1068.56
630.389	1047.56
630.595	1034.56
630.802	1052.56
631.008	1029.56
631.214	1026.56
631.42	1023.56
631.627	1007.56
631.833	1006.56
632.039	980.56
632.245	990.56
632.451	988.56
632.657	1010.56
632.863	1006.56
633.069	1015.56
633.275	983.56
633.481	989.56
633.688	967.56
633.893	985.56
634.099	994.56
634.305	984.56
634.511	976.56
634.717	969.56
634.923	967.56
635.129	932.56
635.335	971.56
635.541	978.56
635.747	998.56
635.952	1011.56
636.158	1074.56
636.364	1375.56
636.57	1435.56
636.775	1206.56
636.981	1099.56
637.187	1049.56
637.392	988.56
637.598	1024.56
637.804	998.56
638.009	994.56
638.215	953.56
638.421	936.56
638.626	901.56
638.832	920.56
639.037	891.56
639.243	883.56
639.448	859.56
639.654	847.56
639.859	871.56
640.065	832.56
640.27	859.56
640.475	861.56
640.681	854.56
640.886	851.56
641.091	844.56
641.297	850.56
641.502	845.56
641.707	829.56
641.913	840.56
642.118	835.56
642.323	814.56
642.528	799.56
642.733	803.56
642.939	790.56
643.144	773.56
643.349	799.56
643.554	774.56
643.759	784.56
643.964	784.56
644.169	791.56
644.374	750.56
644.579	791.56
644.784	804.56
644.989	777.56
645.194	774.56
645.399	752.56
645.604	744.56
645.809	766.56
646.014	779.56
646.219	771.56
646.423	780.56
646.628	774.56
646.833	793.56
647.038	790.56
647.243	800.56
647.447	817.56
647.652	792.56
647.857	785.56
648.062	812.56
648.266	850.56
648.471	854.56
648.676	864.56
648.88	834.56
649.085	825.56
649.289	857.56
649.494	904.56
649.698	1039.56
649.903	912.56
650.107	786.56
650.312	762.56
650.516	715.56
650.721	708.56
650.925	682.56
651.13	651.56
651.334	640.56
651.539	646.56
651.743	595.56
651.947	597.56
652.152	604.56
652.356	603.56
652.56	568.56
652.764	546.56
652.969	549.56
653.173	539.56
653.377	530.56
653.581	518.56
653.785	503.56
653.99	507.56
654.194	495.56
654.398	503.56
654.602	496.56
654.806	516.56
655.01	567.56
655.214	539.56
655.418	488.56
655.622	464.56
655.826	473.56
656.03	485.56
656.234	503.56
656.438	517.56
656.642	496.56
656.846	468.56
657.049	434.56
657.253	399.56
657.457	371.56
657.661	349.56
657.865	323.56
658.068	279.56
658.272	280.56
658.476	293.56
658.68	267.56
658.883	257.56
659.087	253.56
659.291	229.56
659.494	220.56
659.698	216.56
659.901	179.56
660.105	200.56
660.309	181.56
660.512	183.56
660.716	173.56
660.919	175.56
661.123	156.56
661.326	157.56
661.53	148.56
661.733	155.56
661.936	121.56
662.14	117.56
662.343	119.56
662.546	108.56
662.75	111.56
662.953	108.56
663.156	100.56
663.36	108.56
663.563	102.56
663.766	94.56
663.969	97.56
664.173	96.56
664.376	93.56
664.579	83.56
664.782	75.56
664.985	101.56
665.188	83.56
665.391	91.56
665.594	84.56
665.797	91.56
666	70.56
666.203	89.56
666.406	74.56
666.609	91.56
666.812	83.56
667.015	91.56
667.218	79.56
667.421	59.56
667.624	93.56
667.827	82.56
668.03	78.56
668.232	73.56
668.435	93.56
668.638	77.56
668.841	96.56
669.043	98.56
669.246	87.56
669.449	81.56
669.651	92.56
669.854	75.56
670.057	81.56
670.259	80.56
670.462	76.56
670.665	86.56
670.867	87.56
671.07	95.56
671.272	75.56
671.475	96.56
671.677	76.56
671.88	83.56
672.082	72.56
672.284	91.56
672.487	84.56
672.689	79.56
672.892	83.56
