Data from Uncirc_2009_H10_HRD10591_00042.txt Node
Date: Wed Jan 03 10:12:10 EST 2024
User: Yrep
Spectrometer: HR+D1059
Trigger mode: 1
Integration Time (sec): 1.000000E-1
Scans to average: 1
Electric dark correction enabled: true
Nonlinearity correction enabled: false
Boxcar width: 0
XAxis mode: Wavelengths
Number of Pixels in Spectrum: 2048
>>>>>Begin Spectral Data<<<<<
223.165	-7.94
223.4	-7.94
223.635	-7.94
223.869	-14.94
224.104	-18.94
224.338	-21.94
224.573	-34.94
224.808	-23.94
225.042	1.06
225.277	-2.94
225.511	-3.94
225.746	-2.94
225.98	22.06
226.215	17.06
226.449	30.06
226.683	9.06
226.918	24.06
227.152	29.06
227.387	29.06
227.621	30.06
227.856	45.06
228.09	40.06
228.324	45.06
228.559	54.06
228.793	61.06
229.027	66.06
229.262	60.06
229.496	64.06
229.73	87.06
229.964	81.06
230.199	75.06
230.433	63.06
230.667	66.06
230.901	85.06
231.136	70.06
231.37	76.06
231.604	90.06
231.838	83.06
232.072	74.06
232.306	86.06
232.541	70.06
232.775	76.06
233.009	86.06
233.243	72.06
233.477	89.06
233.711	79.06
233.945	85.06
234.179	79.06
234.413	80.06
234.647	80.06
234.881	77.06
235.115	90.06
235.349	86.06
235.583	81.06
235.817	96.06
236.051	84.06
236.285	78.06
236.519	78.06
236.753	90.06
236.987	71.06
237.221	76.06
237.455	73.06
237.689	75.06
237.922	77.06
238.156	75.06
238.39	67.06
238.624	79.06
238.858	77.06
239.091	70.06
239.325	82.06
239.559	85.06
239.793	68.06
240.027	92.06
240.26	74.06
240.494	80.06
240.728	80.06
240.961	73.06
241.195	95.06
241.429	81.06
241.662	85.06
241.896	79.06
242.13	76.06
242.363	96.06
242.597	74.06
242.83	94.06
243.064	78.06
243.298	69.06
243.531	90.06
243.765	78.06
243.998	73.06
244.232	81.06
244.465	79.06
244.699	86.06
244.932	81.06
245.166	75.06
245.399	85.06
245.633	84.06
245.866	82.06
246.099	77.06
246.333	88.06
246.566	86.06
246.8	72.06
247.033	68.06
247.266	83.06
247.5	82.06
247.733	64.06
247.966	83.06
248.2	86.06
248.433	78.06
248.666	86.06
248.899	94.06
249.133	79.06
249.366	87.06
249.599	97.06
249.832	92.06
250.066	81.06
250.299	82.06
250.532	79.06
250.765	83.06
250.998	72.06
251.231	80.06
251.465	74.06
251.698	88.06
251.931	79.06
252.164	86.06
252.397	76.06
252.63	71.06
252.863	96.06
253.096	86.06
253.329	83.06
253.562	76.06
253.795	74.06
254.028	75.06
254.261	80.06
254.494	82.06
254.727	85.06
254.96	72.06
255.193	63.06
255.426	73.06
255.659	73.06
255.892	91.06
256.124	71.06
256.357	67.06
256.59	89.06
256.823	79.06
257.056	83.06
257.289	81.06
257.521	87.06
257.754	74.06
257.987	74.06
258.22	84.06
258.452	78.06
258.685	79.06
258.918	79.06
259.151	75.06
259.383	87.06
259.616	82.06
259.849	97.06
260.081	90.06
260.314	78.06
260.547	83.06
260.779	90.06
261.012	92.06
261.244	85.06
261.477	89.06
261.71	103.06
261.942	102.06
262.175	95.06
262.407	85.06
262.64	82.06
262.872	69.06
263.105	74.06
263.337	86.06
263.57	97.06
263.802	87.06
264.035	77.06
264.267	86.06
264.499	74.06
264.732	79.06
264.964	88.06
265.197	83.06
265.429	81.06
265.661	72.06
265.894	80.06
266.126	76.06
266.358	78.06
266.591	73.06
266.823	87.06
267.055	82.06
267.287	89.06
267.52	83.06
267.752	71.06
267.984	98.06
268.216	99.06
268.448	85.06
268.681	79.06
268.913	90.06
269.145	92.06
269.377	90.06
269.609	89.06
269.841	83.06
270.073	96.06
270.306	85.06
270.538	67.06
270.77	99.06
271.002	94.06
271.234	89.06
271.466	76.06
271.698	90.06
271.93	89.06
272.162	80.06
272.394	78.06
272.626	73.06
272.858	83.06
273.09	74.06
273.322	101.06
273.553	94.06
273.785	85.06
274.017	91.06
274.249	82.06
274.481	94.06
274.713	87.06
274.945	88.06
275.176	75.06
275.408	80.06
275.64	79.06
275.872	96.06
276.104	104.06
276.335	91.06
276.567	101.06
276.799	102.06
277.031	93.06
277.262	94.06
277.494	109.06
277.726	86.06
277.957	85.06
278.189	94.06
278.421	81.06
278.652	79.06
278.884	80.06
279.115	94.06
279.347	94.06
279.579	90.06
279.81	90.06
280.042	82.06
280.273	77.06
280.505	90.06
280.736	86.06
280.968	84.06
281.199	86.06
281.431	97.06
281.662	73.06
281.894	89.06
282.125	94.06
282.356	111.06
282.588	110.06
282.819	92.06
283.051	98.06
283.282	92.06
283.513	96.06
283.745	88.06
283.976	79.06
284.207	109.06
284.439	98.06
284.67	96.06
284.901	77.06
285.132	83.06
285.364	85.06
285.595	86.06
285.826	75.06
286.057	94.06
286.288	95.06
286.52	95.06
286.751	89.06
286.982	89.06
287.213	95.06
287.444	96.06
287.675	104.06
287.906	98.06
288.138	79.06
288.369	87.06
288.6	89.06
288.831	81.06
289.062	91.06
289.293	79.06
289.524	76.06
289.755	79.06
289.986	95.06
290.217	89.06
290.448	83.06
290.679	93.06
290.91	89.06
291.141	94.06
291.371	98.06
291.602	102.06
291.833	100.06
292.064	92.06
292.295	82.06
292.526	69.06
292.757	81.06
292.987	97.06
293.218	88.06
293.449	88.06
293.68	86.06
293.91	76.06
294.141	86.06
294.372	98.06
294.603	86.06
294.833	85.06
295.064	77.06
295.295	73.06
295.525	91.06
295.756	109.06
295.987	92.06
296.217	109.06
296.448	102.06
296.679	87.06
296.909	73.06
297.14	100.06
297.37	92.06
297.601	93.06
297.831	99.06
298.062	77.06
298.292	76.06
298.523	97.06
298.753	91.06
298.984	81.06
299.214	97.06
299.445	76.06
299.675	85.06
299.905	89.06
300.136	100.06
300.366	89.06
300.597	88.06
300.827	87.06
301.057	103.06
301.288	94.06
301.518	106.06
301.748	81.06
301.979	88.06
302.209	97.06
302.439	92.06
302.669	85.06
302.9	85.06
303.13	122.06
303.36	108.06
303.59	90.06
303.82	89.06
304.051	84.06
304.281	104.06
304.511	74.06
304.741	82.06
304.971	86.06
305.201	83.06
305.431	86.06
305.661	79.06
305.891	83.06
306.121	97.06
306.352	93.06
306.582	91.06
306.812	96.06
307.042	98.06
307.272	91.06
307.502	95.06
307.731	101.06
307.961	82.06
308.191	90.06
308.421	94.06
308.651	78.06
308.881	90.06
309.111	97.06
309.341	94.06
309.571	101.06
309.8	91.06
310.03	101.06
310.26	86.06
310.49	98.06
310.72	105.06
310.949	102.06
311.179	96.06
311.409	89.06
311.639	95.06
311.868	102.06
312.098	98.06
312.328	99.06
312.557	99.06
312.787	93.06
313.017	94.06
313.246	83.06
313.476	79.06
313.706	104.06
313.935	84.06
314.165	93.06
314.394	90.06
314.624	94.06
314.853	90.06
315.083	80.06
315.312	106.06
315.542	92.06
315.771	82.06
316.001	94.06
316.23	83.06
316.46	81.06
316.689	75.06
316.919	89.06
317.148	106.06
317.377	107.06
317.607	136.06
317.836	111.06
318.065	97.06
318.295	89.06
318.524	79.06
318.753	90.06
318.983	91.06
319.212	85.06
319.441	98.06
319.67	94.06
319.9	91.06
320.129	101.06
320.358	92.06
320.587	95.06
320.816	96.06
321.046	105.06
321.275	86.06
321.504	86.06
321.733	97.06
321.962	90.06
322.191	102.06
322.42	115.06
322.649	113.06
322.878	97.06
323.108	101.06
323.337	110.06
323.566	113.06
323.795	139.06
324.024	178.06
324.253	336.06
324.482	703.06
324.71	1399.06
324.939	1784.06
325.168	675.06
325.397	234.06
325.626	137.06
325.855	120.06
326.084	126.06
326.313	132.06
326.542	155.06
326.77	211.06
326.999	393.06
327.228	802.06
327.457	1488.06
327.686	1154.06
327.914	327.06
328.143	168.06
328.372	133.06
328.6	120.06
328.829	108.06
329.058	109.06
329.287	109.06
329.515	115.06
329.744	113.06
329.972	104.06
330.201	96.06
330.43	115.06
330.658	106.06
330.887	117.06
331.115	115.06
331.344	117.06
331.572	100.06
331.801	101.06
332.03	99.06
332.258	94.06
332.486	97.06
332.715	86.06
332.943	83.06
333.172	91.06
333.4	92.06
333.629	99.06
333.857	97.06
334.085	88.06
334.314	116.06
334.542	116.06
334.771	123.06
334.999	102.06
335.227	96.06
335.455	95.06
335.684	101.06
335.912	88.06
336.14	102.06
336.369	95.06
336.597	107.06
336.825	97.06
337.053	98.06
337.281	83.06
337.51	79.06
337.738	102.06
337.966	91.06
338.194	106.06
338.422	97.06
338.65	83.06
338.878	87.06
339.106	94.06
339.334	98.06
339.562	93.06
339.79	97.06
340.018	102.06
340.246	99.06
340.474	101.06
340.702	82.06
340.93	97.06
341.158	84.06
341.386	97.06
341.614	92.06
341.842	92.06
342.07	103.06
342.298	112.06
342.526	80.06
342.754	87.06
342.981	83.06
343.209	89.06
343.437	101.06
343.665	102.06
343.893	87.06
344.12	80.06
344.348	91.06
344.576	87.06
344.804	92.06
345.031	91.06
345.259	98.06
345.487	100.06
345.714	94.06
345.942	90.06
346.17	81.06
346.397	88.06
346.625	95.06
346.853	98.06
347.08	83.06
347.308	88.06
347.535	90.06
347.763	102.06
347.99	106.06
348.218	103.06
348.445	99.06
348.673	91.06
348.9	98.06
349.128	113.06
349.355	89.06
349.583	89.06
349.81	93.06
350.037	91.06
350.265	91.06
350.492	104.06
350.72	105.06
350.947	94.06
351.174	101.06
351.402	105.06
351.629	86.06
351.856	86.06
352.083	97.06
352.311	98.06
352.538	109.06
352.765	104.06
352.992	111.06
353.22	92.06
353.447	96.06
353.674	95.06
353.901	102.06
354.128	87.06
354.355	88.06
354.583	89.06
354.81	91.06
355.037	102.06
355.264	86.06
355.491	99.06
355.718	98.06
355.945	92.06
356.172	90.06
356.399	115.06
356.626	97.06
356.853	97.06
357.08	85.06
357.307	94.06
357.534	91.06
357.761	87.06
357.988	89.06
358.215	95.06
358.441	87.06
358.668	85.06
358.895	86.06
359.122	82.06
359.349	100.06
359.576	92.06
359.802	97.06
360.029	117.06
360.256	106.06
360.483	111.06
360.709	98.06
360.936	93.06
361.163	97.06
361.39	101.06
361.616	86.06
361.843	93.06
362.07	93.06
362.296	92.06
362.523	80.06
362.749	89.06
362.976	86.06
363.203	103.06
363.429	82.06
363.656	66.06
363.882	106.06
364.109	100.06
364.335	100.06
364.562	91.06
364.788	95.06
365.015	94.06
365.241	106.06
365.468	114.06
365.694	102.06
365.92	97.06
366.147	80.06
366.373	80.06
366.599	88.06
366.826	80.06
367.052	98.06
367.278	88.06
367.505	75.06
367.731	97.06
367.957	86.06
368.184	88.06
368.41	101.06
368.636	113.06
368.862	113.06
369.089	87.06
369.315	96.06
369.541	82.06
369.767	85.06
369.993	88.06
370.219	99.06
370.445	99.06
370.672	105.06
370.898	83.06
371.124	80.06
371.35	91.06
371.576	82.06
371.802	79.06
372.028	102.06
372.254	84.06
372.48	86.06
372.706	93.06
372.932	83.06
373.158	64.06
373.384	75.06
373.61	92.06
373.835	94.06
374.061	78.06
374.287	82.06
374.513	106.06
374.739	83.06
374.965	95.06
375.191	84.06
375.416	99.06
375.642	93.06
375.868	97.06
376.094	82.06
376.319	92.06
376.545	97.06
376.771	82.06
376.997	94.06
377.222	74.06
377.448	93.06
377.674	99.06
377.899	88.06
378.125	96.06
378.35	107.06
378.576	95.06
378.802	75.06
379.027	79.06
379.253	83.06
379.478	97.06
379.704	88.06
379.929	104.06
380.155	105.06
380.38	114.06
380.606	88.06
380.831	71.06
381.057	85.06
381.282	102.06
381.507	95.06
381.733	90.06
381.958	94.06
382.184	88.06
382.409	97.06
382.634	93.06
382.86	92.06
383.085	89.06
383.31	97.06
383.535	102.06
383.761	96.06
383.986	104.06
384.211	96.06
384.436	90.06
384.662	104.06
384.887	87.06
385.112	93.06
385.337	98.06
385.562	103.06
385.787	101.06
386.013	112.06
386.238	100.06
386.463	101.06
386.688	102.06
386.913	108.06
387.138	96.06
387.363	97.06
387.588	101.06
387.813	98.06
388.038	105.06
388.263	123.06
388.488	96.06
388.713	89.06
388.938	99.06
389.163	90.06
389.387	110.06
389.612	105.06
389.837	87.06
390.062	90.06
390.287	101.06
390.512	88.06
390.736	84.06
390.961	83.06
391.186	89.06
391.411	103.06
391.636	99.06
391.86	73.06
392.085	89.06
392.31	88.06
392.534	94.06
392.759	79.06
392.984	85.06
393.208	73.06
393.433	87.06
393.658	86.06
393.882	84.06
394.107	89.06
394.331	89.06
394.556	94.06
394.78	91.06
395.005	84.06
395.229	94.06
395.454	83.06
395.678	101.06
395.903	94.06
396.127	108.06
396.352	81.06
396.576	95.06
396.801	81.06
397.025	98.06
397.249	85.06
397.474	87.06
397.698	75.06
397.922	82.06
398.147	82.06
398.371	96.06
398.595	91.06
398.82	82.06
399.044	90.06
399.268	89.06
399.492	82.06
399.717	94.06
399.941	101.06
400.165	76.06
400.389	88.06
400.613	84.06
400.837	86.06
401.062	74.06
401.286	82.06
401.51	78.06
401.734	85.06
401.958	91.06
402.182	105.06
402.406	134.06
402.63	119.06
402.854	83.06
403.078	96.06
403.302	81.06
403.526	91.06
403.75	88.06
403.974	83.06
404.198	93.06
404.422	84.06
404.645	83.06
404.869	94.06
405.093	105.06
405.317	89.06
405.541	92.06
405.765	106.06
405.988	96.06
406.212	157.06
406.436	198.06
406.66	119.06
406.883	100.06
407.107	92.06
407.331	108.06
407.555	84.06
407.778	92.06
408.002	95.06
408.226	90.06
408.449	85.06
408.673	95.06
408.896	94.06
409.12	100.06
409.344	84.06
409.567	95.06
409.791	77.06
410.014	88.06
410.238	95.06
410.461	90.06
410.685	93.06
410.908	112.06
411.132	105.06
411.355	94.06
411.578	91.06
411.802	89.06
412.025	97.06
412.249	104.06
412.472	101.06
412.695	96.06
412.919	85.06
413.142	80.06
413.365	73.06
413.589	83.06
413.812	83.06
414.035	94.06
414.258	76.06
414.482	89.06
414.705	82.06
414.928	90.06
415.151	84.06
415.374	83.06
415.597	89.06
415.821	82.06
416.044	88.06
416.267	106.06
416.49	95.06
416.713	90.06
416.936	88.06
417.159	83.06
417.382	80.06
417.605	79.06
417.828	79.06
418.051	81.06
418.274	88.06
418.497	94.06
418.72	83.06
418.943	90.06
419.166	95.06
419.389	78.06
419.611	90.06
419.834	85.06
420.057	101.06
420.28	91.06
420.503	82.06
420.726	79.06
420.948	95.06
421.171	91.06
421.394	97.06
421.617	95.06
421.839	94.06
422.062	82.06
422.285	89.06
422.507	102.06
422.73	97.06
422.953	86.06
423.175	72.06
423.398	93.06
423.621	89.06
423.843	95.06
424.066	94.06
424.288	87.06
424.511	92.06
424.733	90.06
424.956	98.06
425.178	94.06
425.401	98.06
425.623	93.06
425.846	83.06
426.068	86.06
426.291	87.06
426.513	99.06
426.735	86.06
426.958	89.06
427.18	96.06
427.402	119.06
427.625	138.06
427.847	120.06
428.069	108.06
428.292	91.06
428.514	93.06
428.736	87.06
428.958	69.06
429.181	98.06
429.403	80.06
429.625	89.06
429.847	101.06
430.069	108.06
430.292	97.06
430.514	90.06
430.736	93.06
430.958	88.06
431.18	76.06
431.402	93.06
431.624	80.06
431.846	96.06
432.068	93.06
432.29	87.06
432.512	93.06
432.734	78.06
432.956	94.06
433.178	102.06
433.4	100.06
433.622	83.06
433.844	91.06
434.066	101.06
434.287	81.06
434.509	102.06
434.731	103.06
434.953	75.06
435.175	92.06
435.397	98.06
435.618	90.06
435.84	75.06
436.062	117.06
436.284	92.06
436.505	105.06
436.727	114.06
436.949	102.06
437.17	93.06
437.392	85.06
437.614	103.06
437.835	108.06
438.057	112.06
438.278	93.06
438.5	97.06
438.721	109.06
438.943	91.06
439.165	83.06
439.386	90.06
439.608	83.06
439.829	107.06
440.05	112.06
440.272	116.06
440.493	102.06
440.715	95.06
440.936	95.06
441.158	85.06
441.379	86.06
441.6	84.06
441.822	94.06
442.043	99.06
442.264	91.06
442.486	95.06
442.707	106.06
442.928	107.06
443.149	95.06
443.371	117.06
443.592	114.06
443.813	104.06
444.034	105.06
444.255	85.06
444.476	92.06
444.698	89.06
444.919	92.06
445.14	121.06
445.361	119.06
445.582	108.06
445.803	115.06
446.024	126.06
446.245	123.06
446.466	108.06
446.687	99.06
446.908	94.06
447.129	101.06
447.35	84.06
447.571	89.06
447.792	89.06
448.013	85.06
448.234	103.06
448.455	97.06
448.675	90.06
448.896	89.06
449.117	112.06
449.338	89.06
449.559	133.06
449.779	133.06
450	93.06
450.221	82.06
450.442	89.06
450.662	98.06
450.883	93.06
451.104	103.06
451.324	104.06
451.545	107.06
451.766	97.06
451.986	80.06
452.207	89.06
452.428	79.06
452.648	98.06
452.869	95.06
453.089	101.06
453.31	97.06
453.53	93.06
453.751	94.06
453.971	94.06
454.192	106.06
454.412	91.06
454.633	92.06
454.853	80.06
455.073	87.06
455.294	89.06
455.514	98.06
455.734	91.06
455.955	98.06
456.175	77.06
456.395	94.06
456.616	87.06
456.836	89.06
457.056	89.06
457.276	76.06
457.497	74.06
457.717	88.06
457.937	78.06
458.157	83.06
458.377	105.06
458.598	111.06
458.818	121.06
459.038	137.06
459.258	110.06
459.478	88.06
459.698	96.06
459.918	88.06
460.138	90.06
460.358	91.06
460.578	93.06
460.798	89.06
461.018	89.06
461.238	84.06
461.458	70.06
461.678	79.06
461.898	88.06
462.118	79.06
462.338	87.06
462.558	93.06
462.777	87.06
462.997	90.06
463.217	96.06
463.437	82.06
463.657	90.06
463.876	87.06
464.096	98.06
464.316	84.06
464.536	98.06
464.755	105.06
464.975	110.06
465.195	145.06
465.414	123.06
465.634	102.06
465.854	102.06
466.073	79.06
466.293	100.06
466.512	90.06
466.732	80.06
466.951	86.06
467.171	83.06
467.391	82.06
467.61	111.06
467.829	91.06
468.049	92.06
468.268	107.06
468.488	91.06
468.707	93.06
468.927	82.06
469.146	84.06
469.365	81.06
469.585	91.06
469.804	108.06
470.023	87.06
470.243	94.06
470.462	95.06
470.681	87.06
470.901	83.06
471.12	97.06
471.339	97.06
471.558	80.06
471.777	99.06
471.997	96.06
472.216	105.06
472.435	127.06
472.654	87.06
472.873	86.06
473.092	83.06
473.311	79.06
473.53	90.06
473.749	89.06
473.968	98.06
474.187	104.06
474.406	90.06
474.625	95.06
474.844	85.06
475.063	92.06
475.282	89.06
475.501	93.06
475.72	76.06
475.939	87.06
476.158	77.06
476.377	79.06
476.596	90.06
476.814	97.06
477.033	91.06
477.252	101.06
477.471	85.06
477.69	81.06
477.908	87.06
478.127	92.06
478.346	92.06
478.564	88.06
478.783	84.06
479.002	93.06
479.22	87.06
479.439	108.06
479.658	104.06
479.876	93.06
480.095	93.06
480.313	92.06
480.532	96.06
480.751	91.06
480.969	111.06
481.188	153.06
481.406	143.06
481.624	74.06
481.843	86.06
482.061	101.06
482.28	90.06
482.498	92.06
482.717	87.06
482.935	103.06
483.153	82.06
483.372	89.06
483.59	94.06
483.808	72.06
484.027	95.06
484.245	100.06
484.463	88.06
484.681	98.06
484.9	95.06
485.118	109.06
485.336	100.06
485.554	92.06
485.772	95.06
485.99	94.06
486.209	91.06
486.427	110.06
486.645	112.06
486.863	106.06
487.081	104.06
487.299	105.06
487.517	87.06
487.735	80.06
487.953	97.06
488.171	86.06
488.389	95.06
488.607	101.06
488.825	95.06
489.043	102.06
489.261	85.06
489.479	87.06
489.696	97.06
489.914	88.06
490.132	98.06
490.35	98.06
490.568	90.06
490.786	94.06
491.003	98.06
491.221	97.06
491.439	97.06
491.657	95.06
491.874	87.06
492.092	91.06
492.31	111.06
492.527	102.06
492.745	89.06
492.963	75.06
493.18	94.06
493.398	85.06
493.615	97.06
493.833	99.06
494.05	101.06
494.268	93.06
494.485	82.06
494.703	93.06
494.92	89.06
495.138	75.06
495.355	101.06
495.573	90.06
495.79	105.06
496.008	95.06
496.225	99.06
496.442	83.06
496.66	104.06
496.877	86.06
497.094	79.06
497.312	103.06
497.529	98.06
497.746	86.06
497.963	94.06
498.181	81.06
498.398	95.06
498.615	110.06
498.832	114.06
499.049	97.06
499.267	87.06
499.484	83.06
499.701	74.06
499.918	85.06
500.135	82.06
500.352	80.06
500.569	101.06
500.786	100.06
501.003	81.06
501.22	83.06
501.437	93.06
501.654	87.06
501.871	97.06
502.088	81.06
502.305	99.06
502.522	89.06
502.739	83.06
502.956	93.06
503.172	97.06
503.389	105.06
503.606	119.06
503.823	110.06
504.04	102.06
504.256	108.06
504.473	75.06
504.69	105.06
504.907	92.06
505.123	82.06
505.34	88.06
505.557	79.06
505.773	107.06
505.99	101.06
506.207	89.06
506.423	81.06
506.64	93.06
506.856	89.06
507.073	96.06
507.289	104.06
507.506	83.06
507.722	121.06
507.939	113.06
508.155	100.06
508.372	105.06
508.588	88.06
508.805	95.06
509.021	97.06
509.238	104.06
509.454	94.06
509.67	97.06
509.887	109.06
510.103	124.06
510.319	168.06
510.536	590.06
510.752	1743.06
510.968	528.06
511.184	144.06
511.401	107.06
511.617	95.06
511.833	93.06
512.049	95.06
512.265	101.06
512.481	96.06
512.698	103.06
512.914	94.06
513.13	101.06
513.346	104.06
513.562	95.06
513.778	93.06
513.994	90.06
514.21	82.06
514.426	104.06
514.642	111.06
514.858	109.06
515.074	150.06
515.29	377.06
515.506	1074.06
515.721	441.06
515.937	149.06
516.153	83.06
516.369	95.06
516.585	91.06
516.801	81.06
517.016	99.06
517.232	103.06
517.448	103.06
517.664	85.06
517.879	105.06
518.095	93.06
518.311	84.06
518.527	88.06
518.742	92.06
518.958	75.06
519.173	94.06
519.389	94.06
519.605	91.06
519.82	95.06
520.036	107.06
520.251	110.06
520.467	95.06
520.682	92.06
520.898	96.06
521.113	119.06
521.329	125.06
521.544	190.06
521.76	436.06
521.975	1713.06
522.19	1091.06
522.406	249.06
522.621	115.06
522.836	106.06
523.052	99.06
523.267	97.06
523.482	101.06
523.698	103.06
523.913	106.06
524.128	99.06
524.343	100.06
524.559	100.06
524.774	80.06
524.989	103.06
525.204	102.06
525.419	102.06
525.634	96.06
525.849	100.06
526.064	96.06
526.28	93.06
526.495	84.06
526.71	82.06
526.925	85.06
527.14	91.06
527.355	97.06
527.57	102.06
527.785	101.06
527.999	82.06
528.214	86.06
528.429	97.06
528.644	90.06
528.859	87.06
529.074	86.06
529.289	110.06
529.503	137.06
529.718	99.06
529.933	89.06
530.148	90.06
530.363	91.06
530.577	88.06
530.792	89.06
531.007	94.06
531.221	98.06
531.436	87.06
531.651	106.06
531.865	102.06
532.08	89.06
532.295	92.06
532.509	86.06
532.724	78.06
532.938	77.06
533.153	112.06
533.367	97.06
533.582	111.06
533.796	93.06
534.011	94.06
534.225	106.06
534.44	94.06
534.654	90.06
534.868	78.06
535.083	93.06
535.297	90.06
535.511	98.06
535.726	102.06
535.94	97.06
536.154	94.06
536.369	105.06
536.583	89.06
536.797	91.06
537.011	108.06
537.225	87.06
537.44	106.06
537.654	103.06
537.868	95.06
538.082	97.06
538.296	98.06
538.51	102.06
538.724	86.06
538.938	89.06
539.153	85.06
539.367	96.06
539.581	94.06
539.795	97.06
540.009	83.06
540.222	107.06
540.436	107.06
540.65	83.06
540.864	90.06
541.078	86.06
541.292	95.06
541.506	83.06
541.72	99.06
541.934	89.06
542.147	95.06
542.361	96.06
542.575	77.06
542.789	93.06
543.002	102.06
543.216	86.06
543.43	88.06
543.644	91.06
543.857	99.06
544.071	93.06
544.285	88.06
544.498	103.06
544.712	94.06
544.925	94.06
545.139	86.06
545.352	85.06
545.566	93.06
545.779	94.06
545.993	88.06
546.206	82.06
546.42	89.06
546.633	82.06
546.847	87.06
547.06	96.06
547.274	89.06
547.487	81.06
547.7	95.06
547.914	89.06
548.127	101.06
548.34	92.06
548.554	91.06
548.767	93.06
548.98	102.06
549.193	95.06
549.407	81.06
549.62	90.06
549.833	104.06
550.046	86.06
550.259	85.06
550.473	94.06
550.686	91.06
550.899	103.06
551.112	90.06
551.325	96.06
551.538	98.06
551.751	87.06
551.964	83.06
552.177	90.06
552.39	102.06
552.603	98.06
552.816	91.06
553.029	94.06
553.242	106.06
553.455	80.06
553.667	96.06
553.88	106.06
554.093	99.06
554.306	82.06
554.519	97.06
554.732	106.06
554.944	92.06
555.157	94.06
555.37	96.06
555.583	95.06
555.795	89.06
556.008	98.06
556.221	97.06
556.433	85.06
556.646	107.06
556.859	101.06
557.071	105.06
557.284	102.06
557.496	103.06
557.709	86.06
557.921	94.06
558.134	89.06
558.346	85.06
558.559	87.06
558.771	85.06
558.984	102.06
559.196	92.06
559.409	96.06
559.621	77.06
559.833	90.06
560.046	87.06
560.258	78.06
560.47	85.06
560.683	84.06
560.895	76.06
561.107	82.06
561.32	83.06
561.532	99.06
561.744	90.06
561.956	97.06
562.168	91.06
562.381	95.06
562.593	88.06
562.805	97.06
563.017	97.06
563.229	88.06
563.441	95.06
563.653	102.06
563.865	79.06
564.077	83.06
564.289	87.06
564.501	80.06
564.713	102.06
564.925	89.06
565.137	89.06
565.349	102.06
565.561	103.06
565.773	108.06
565.985	79.06
566.197	76.06
566.408	84.06
566.62	94.06
566.832	92.06
567.044	87.06
567.255	99.06
567.467	85.06
567.679	89.06
567.891	95.06
568.102	98.06
568.314	91.06
568.526	89.06
568.737	77.06
568.949	81.06
569.161	90.06
569.372	87.06
569.584	84.06
569.795	96.06
570.007	103.06
570.218	207.06
570.43	125.06
570.641	85.06
570.853	90.06
571.064	89.06
571.276	88.06
571.487	99.06
571.698	85.06
571.91	81.06
572.121	79.06
572.333	83.06
572.544	99.06
572.755	101.06
572.966	92.06
573.178	80.06
573.389	95.06
573.6	92.06
573.811	92.06
574.023	71.06
574.234	88.06
574.445	76.06
574.656	93.06
574.867	100.06
575.078	86.06
575.289	91.06
575.501	93.06
575.712	92.06
575.923	92.06
576.134	92.06
576.345	83.06
576.556	93.06
576.767	95.06
576.978	86.06
577.188	96.06
577.399	105.06
577.61	95.06
577.821	94.06
578.032	111.06
578.243	230.06
578.454	618.06
578.665	194.06
578.875	80.06
579.086	103.06
579.297	87.06
579.508	89.06
579.718	89.06
579.929	98.06
580.14	98.06
580.35	97.06
580.561	93.06
580.772	93.06
580.982	98.06
581.193	76.06
581.403	68.06
581.614	78.06
581.825	74.06
582.035	78.06
582.246	99.06
582.456	83.06
582.667	101.06
582.877	102.06
583.087	97.06
583.298	85.06
583.508	90.06
583.719	102.06
583.929	96.06
584.139	90.06
584.35	77.06
584.56	91.06
584.77	98.06
584.981	98.06
585.191	83.06
585.401	83.06
585.611	78.06
585.821	82.06
586.032	83.06
586.242	107.06
586.452	100.06
586.662	91.06
586.872	81.06
587.082	89.06
587.292	88.06
587.502	91.06
587.713	79.06
587.923	91.06
588.133	98.06
588.343	76.06
588.553	93.06
588.762	90.06
588.972	93.06
589.182	90.06
589.392	93.06
589.602	99.06
589.812	102.06
590.022	92.06
590.232	88.06
590.441	81.06
590.651	83.06
590.861	86.06
591.071	94.06
591.281	83.06
591.49	92.06
591.7	78.06
591.91	94.06
592.119	76.06
592.329	98.06
592.539	85.06
592.748	90.06
592.958	100.06
593.167	92.06
593.377	90.06
593.587	71.06
593.796	82.06
594.006	89.06
594.215	89.06
594.424	83.06
594.634	77.06
594.843	88.06
595.053	96.06
595.262	87.06
595.472	80.06
595.681	89.06
595.89	87.06
596.1	90.06
596.309	93.06
596.518	93.06
596.727	78.06
596.937	85.06
597.146	90.06
597.355	87.06
597.564	94.06
597.774	98.06
597.983	85.06
598.192	96.06
598.401	90.06
598.61	73.06
598.819	74.06
599.028	81.06
599.237	82.06
599.446	86.06
599.655	91.06
599.864	91.06
600.073	92.06
600.282	82.06
600.491	98.06
600.7	83.06
600.909	103.06
601.118	95.06
601.327	103.06
601.536	87.06
601.745	87.06
601.953	80.06
602.162	83.06
602.371	96.06
602.58	89.06
602.789	91.06
602.997	96.06
603.206	82.06
603.415	80.06
603.623	87.06
603.832	83.06
604.041	79.06
604.249	82.06
604.458	86.06
604.666	79.06
604.875	94.06
605.084	89.06
605.292	85.06
605.501	92.06
605.709	116.06
605.918	89.06
606.126	96.06
606.334	86.06
606.543	89.06
606.751	95.06
606.96	81.06
607.168	90.06
607.376	92.06
607.585	94.06
607.793	92.06
608.001	86.06
608.21	76.06
608.418	77.06
608.626	90.06
608.834	89.06
609.043	82.06
609.251	82.06
609.459	88.06
609.667	97.06
609.875	92.06
610.083	82.06
610.291	94.06
610.499	89.06
610.707	87.06
610.916	97.06
611.124	97.06
611.332	80.06
611.54	75.06
611.748	74.06
611.955	72.06
612.163	89.06
612.371	80.06
612.579	107.06
612.787	90.06
612.995	88.06
613.203	105.06
613.411	83.06
613.618	84.06
613.826	82.06
614.034	86.06
614.242	82.06
614.449	85.06
614.657	88.06
614.865	86.06
615.072	83.06
615.28	84.06
615.488	97.06
615.695	88.06
615.903	88.06
616.111	98.06
616.318	99.06
616.526	93.06
616.733	92.06
616.941	98.06
617.148	87.06
617.356	99.06
617.563	95.06
617.771	82.06
617.978	82.06
618.185	90.06
618.393	79.06
618.6	88.06
618.807	76.06
619.015	82.06
619.222	95.06
619.429	80.06
619.637	88.06
619.844	76.06
620.051	88.06
620.258	76.06
620.466	92.06
620.673	86.06
620.88	87.06
621.087	69.06
621.294	86.06
621.501	85.06
621.708	71.06
621.915	82.06
622.122	72.06
622.329	98.06
622.536	102.06
622.743	82.06
622.95	93.06
623.157	87.06
623.364	87.06
623.571	81.06
623.778	82.06
623.985	97.06
624.192	73.06
624.399	98.06
624.606	83.06
624.812	82.06
625.019	105.06
625.226	78.06
625.433	81.06
625.639	88.06
625.846	102.06
626.053	81.06
626.259	84.06
626.466	91.06
626.673	81.06
626.879	76.06
627.086	78.06
627.293	87.06
627.499	87.06
627.706	77.06
627.912	85.06
628.119	74.06
628.325	74.06
628.532	81.06
628.738	92.06
628.945	80.06
629.151	93.06
629.357	82.06
629.564	80.06
629.77	90.06
629.976	81.06
630.183	81.06
630.389	69.06
630.595	70.06
630.802	89.06
631.008	77.06
631.214	96.06
631.42	84.06
631.627	74.06
631.833	84.06
632.039	94.06
632.245	72.06
632.451	96.06
632.657	85.06
632.863	86.06
633.069	89.06
633.275	94.06
633.481	85.06
633.688	93.06
633.893	76.06
634.099	82.06
634.305	75.06
634.511	81.06
634.717	93.06
634.923	80.06
635.129	82.06
635.335	85.06
635.541	78.06
635.747	84.06
635.952	82.06
636.158	103.06
636.364	91.06
636.57	95.06
636.775	75.06
636.981	90.06
637.187	79.06
637.392	90.06
637.598	83.06
637.804	100.06
638.009	79.06
638.215	87.06
638.421	98.06
638.626	85.06
638.832	78.06
639.037	83.06
639.243	84.06
639.448	80.06
639.654	93.06
639.859	71.06
640.065	79.06
640.27	85.06
640.475	94.06
640.681	90.06
640.886	81.06
641.091	67.06
641.297	83.06
641.502	79.06
641.707	86.06
641.913	88.06
642.118	87.06
642.323	78.06
642.528	79.06
642.733	96.06
642.939	83.06
643.144	82.06
643.349	72.06
643.554	82.06
643.759	82.06
643.964	91.06
644.169	88.06
644.374	89.06
644.579	71.06
644.784	77.06
644.989	86.06
645.194	79.06
645.399	69.06
645.604	78.06
645.809	88.06
646.014	91.06
646.219	80.06
646.423	82.06
646.628	86.06
646.833	89.06
647.038	87.06
647.243	83.06
647.447	80.06
647.652	79.06
647.857	82.06
648.062	90.06
648.266	85.06
648.471	90.06
648.676	100.06
648.88	102.06
649.085	86.06
649.289	93.06
649.494	94.06
649.698	117.06
649.903	91.06
650.107	98.06
650.312	76.06
650.516	84.06
650.721	78.06
650.925	69.06
651.13	94.06
651.334	104.06
651.539	82.06
651.743	78.06
651.947	81.06
652.152	86.06
652.356	79.06
652.56	89.06
652.764	90.06
652.969	82.06
653.173	87.06
653.377	85.06
653.581	80.06
653.785	81.06
653.99	73.06
654.194	83.06
654.398	81.06
654.602	87.06
654.806	85.06
655.01	79.06
655.214	86.06
655.418	93.06
655.622	73.06
655.826	86.06
656.03	85.06
656.234	93.06
656.438	90.06
656.642	106.06
656.846	99.06
657.049	78.06
657.253	90.06
657.457	89.06
657.661	87.06
657.865	77.06
658.068	73.06
658.272	71.06
658.476	76.06
658.68	80.06
658.883	82.06
659.087	93.06
659.291	93.06
659.494	80.06
659.698	85.06
659.901	75.06
660.105	68.06
660.309	89.06
660.512	95.06
660.716	87.06
660.919	73.06
661.123	82.06
661.326	80.06
661.53	73.06
661.733	82.06
661.936	66.06
662.14	87.06
662.343	74.06
662.546	77.06
662.75	88.06
662.953	78.06
663.156	73.06
663.36	85.06
663.563	83.06
663.766	66.06
663.969	80.06
664.173	82.06
664.376	74.06
664.579	82.06
664.782	92.06
664.985	77.06
665.188	85.06
665.391	90.06
665.594	73.06
665.797	75.06
666	78.06
666.203	89.06
666.406	85.06
666.609	76.06
666.812	82.06
667.015	82.06
667.218	95.06
667.421	84.06
667.624	87.06
667.827	79.06
668.03	82.06
668.232	89.06
668.435	87.06
668.638	83.06
668.841	73.06
669.043	77.06
669.246	74.06
669.449	57.06
669.651	72.06
669.854	86.06
670.057	79.06
670.259	69.06
670.462	81.06
670.665	73.06
670.867	91.06
671.07	90.06
671.272	80.06
671.475	82.06
671.677	80.06
671.88	72.06
672.082	80.06
672.284	89.06
672.487	84.06
672.689	66.06
672.892	63.06
