Data from Uncirc_2004_H10_HRD10591_00017.txt Node
Date: Wed Jan 03 10:32:16 EST 2024
User: Yrep
Spectrometer: HR+D1059
Trigger mode: 1
Integration Time (sec): 1.000000E-1
Scans to average: 1
Electric dark correction enabled: true
Nonlinearity correction enabled: false
Boxcar width: 0
XAxis mode: Wavelengths
Number of Pixels in Spectrum: 2048
>>>>>Begin Spectral Data<<<<<
223.165	-16.31
223.4	-16.31
223.635	-16.31
223.869	-25.31
224.104	-21.31
224.338	-20.31
224.573	-14.31
224.808	-14.31
225.042	-13.31
225.277	-4.31
225.511	6.69
225.746	7.69
225.98	9.69
226.215	15.69
226.449	11.69
226.683	13.69
226.918	38.69
227.152	25.69
227.387	29.69
227.621	43.69
227.856	55.69
228.09	41.69
228.324	57.69
228.559	61.69
228.793	71.69
229.027	66.69
229.262	77.69
229.496	73.69
229.73	82.69
229.964	89.69
230.199	83.69
230.433	96.69
230.667	85.69
230.901	82.69
231.136	81.69
231.37	69.69
231.604	72.69
231.838	83.69
232.072	83.69
232.306	86.69
232.541	79.69
232.775	72.69
233.009	83.69
233.243	83.69
233.477	99.69
233.711	78.69
233.945	73.69
234.179	83.69
234.413	88.69
234.647	90.69
234.881	79.69
235.115	88.69
235.349	81.69
235.583	82.69
235.817	93.69
236.051	89.69
236.285	76.69
236.519	72.69
236.753	84.69
236.987	79.69
237.221	73.69
237.455	85.69
237.689	76.69
237.922	83.69
238.156	83.69
238.39	75.69
238.624	76.69
238.858	75.69
239.091	56.69
239.325	79.69
239.559	88.69
239.793	96.69
240.027	84.69
240.26	75.69
240.494	91.69
240.728	84.69
240.961	86.69
241.195	97.69
241.429	81.69
241.662	80.69
241.896	81.69
242.13	91.69
242.363	85.69
242.597	79.69
242.83	88.69
243.064	81.69
243.298	90.69
243.531	83.69
243.765	85.69
243.998	74.69
244.232	78.69
244.465	81.69
244.699	78.69
244.932	95.69
245.166	99.69
245.399	79.69
245.633	87.69
245.866	63.69
246.099	81.69
246.333	71.69
246.566	77.69
246.8	84.69
247.033	72.69
247.266	76.69
247.5	88.69
247.733	84.69
247.966	83.69
248.2	96.69
248.433	80.69
248.666	72.69
248.899	66.69
249.133	87.69
249.366	92.69
249.599	112.69
249.832	83.69
250.066	86.69
250.299	80.69
250.532	88.69
250.765	70.69
250.998	90.69
251.231	90.69
251.465	84.69
251.698	87.69
251.931	79.69
252.164	81.69
252.397	88.69
252.63	91.69
252.863	90.69
253.096	91.69
253.329	88.69
253.562	87.69
253.795	79.69
254.028	85.69
254.261	84.69
254.494	85.69
254.727	83.69
254.96	75.69
255.193	76.69
255.426	76.69
255.659	85.69
255.892	81.69
256.124	76.69
256.357	76.69
256.59	75.69
256.823	93.69
257.056	82.69
257.289	83.69
257.521	88.69
257.754	79.69
257.987	74.69
258.22	100.69
258.452	92.69
258.685	87.69
258.918	83.69
259.151	72.69
259.383	89.69
259.616	86.69
259.849	82.69
260.081	102.69
260.314	74.69
260.547	76.69
260.779	76.69
261.012	96.69
261.244	90.69
261.477	92.69
261.71	95.69
261.942	107.69
262.175	108.69
262.407	81.69
262.64	87.69
262.872	89.69
263.105	80.69
263.337	96.69
263.57	80.69
263.802	88.69
264.035	83.69
264.267	74.69
264.499	66.69
264.732	86.69
264.964	79.69
265.197	89.69
265.429	85.69
265.661	85.69
265.894	86.69
266.126	82.69
266.358	92.69
266.591	75.69
266.823	94.69
267.055	97.69
267.287	72.69
267.52	86.69
267.752	92.69
267.984	90.69
268.216	81.69
268.448	93.69
268.681	88.69
268.913	94.69
269.145	92.69
269.377	89.69
269.609	84.69
269.841	90.69
270.073	93.69
270.306	100.69
270.538	74.69
270.77	85.69
271.002	83.69
271.234	96.69
271.466	80.69
271.698	78.69
271.93	94.69
272.162	93.69
272.394	90.69
272.626	86.69
272.858	80.69
273.09	89.69
273.322	91.69
273.553	86.69
273.785	98.69
274.017	98.69
274.249	95.69
274.481	88.69
274.713	91.69
274.945	81.69
275.176	91.69
275.408	85.69
275.64	88.69
275.872	80.69
276.104	98.69
276.335	100.69
276.567	92.69
276.799	97.69
277.031	89.69
277.262	104.69
277.494	99.69
277.726	82.69
277.957	89.69
278.189	88.69
278.421	83.69
278.652	88.69
278.884	80.69
279.115	87.69
279.347	96.69
279.579	84.69
279.81	91.69
280.042	87.69
280.273	102.69
280.505	81.69
280.736	87.69
280.968	74.69
281.199	85.69
281.431	95.69
281.662	89.69
281.894	101.69
282.125	106.69
282.356	99.69
282.588	116.69
282.819	111.69
283.051	76.69
283.282	93.69
283.513	105.69
283.745	94.69
283.976	87.69
284.207	88.69
284.439	103.69
284.67	88.69
284.901	82.69
285.132	90.69
285.364	98.69
285.595	79.69
285.826	92.69
286.057	79.69
286.288	85.69
286.52	90.69
286.751	88.69
286.982	87.69
287.213	74.69
287.444	98.69
287.675	99.69
287.906	90.69
288.138	96.69
288.369	91.69
288.6	79.69
288.831	95.69
289.062	76.69
289.293	97.69
289.524	88.69
289.755	98.69
289.986	96.69
290.217	94.69
290.448	103.69
290.679	105.69
290.91	77.69
291.141	87.69
291.371	89.69
291.602	83.69
291.833	101.69
292.064	80.69
292.295	82.69
292.526	83.69
292.757	91.69
292.987	84.69
293.218	81.69
293.449	91.69
293.68	89.69
293.91	89.69
294.141	100.69
294.372	89.69
294.603	91.69
294.833	96.69
295.064	76.69
295.295	95.69
295.525	101.69
295.756	102.69
295.987	98.69
296.217	123.69
296.448	124.69
296.679	81.69
296.909	88.69
297.14	89.69
297.37	85.69
297.601	98.69
297.831	91.69
298.062	93.69
298.292	101.69
298.523	84.69
298.753	90.69
298.984	86.69
299.214	102.69
299.445	103.69
299.675	94.69
299.905	101.69
300.136	87.69
300.366	88.69
300.597	89.69
300.827	104.69
301.057	108.69
301.288	99.69
301.518	88.69
301.748	89.69
301.979	103.69
302.209	89.69
302.439	108.69
302.669	81.69
302.9	91.69
303.13	91.69
303.36	89.69
303.59	92.69
303.82	92.69
304.051	82.69
304.281	92.69
304.511	97.69
304.741	86.69
304.971	88.69
305.201	93.69
305.431	90.69
305.661	90.69
305.891	96.69
306.121	93.69
306.352	105.69
306.582	97.69
306.812	87.69
307.042	101.69
307.272	84.69
307.502	95.69
307.731	94.69
307.961	92.69
308.191	94.69
308.421	87.69
308.651	97.69
308.881	98.69
309.111	84.69
309.341	88.69
309.571	85.69
309.8	89.69
310.03	88.69
310.26	87.69
310.49	98.69
310.72	101.69
310.949	102.69
311.179	101.69
311.409	99.69
311.639	84.69
311.868	97.69
312.098	107.69
312.328	94.69
312.557	94.69
312.787	109.69
313.017	96.69
313.246	99.69
313.476	85.69
313.706	91.69
313.935	80.69
314.165	104.69
314.394	104.69
314.624	93.69
314.853	92.69
315.083	101.69
315.312	81.69
315.542	91.69
315.771	100.69
316.001	96.69
316.23	101.69
316.46	108.69
316.689	96.69
316.919	84.69
317.148	92.69
317.377	109.69
317.607	98.69
317.836	106.69
318.065	92.69
318.295	96.69
318.524	91.69
318.753	93.69
318.983	102.69
319.212	114.69
319.441	109.69
319.67	103.69
319.9	96.69
320.129	89.69
320.358	114.69
320.587	99.69
320.816	103.69
321.046	96.69
321.275	104.69
321.504	99.69
321.733	106.69
321.962	108.69
322.191	86.69
322.42	104.69
322.649	117.69
322.878	112.69
323.108	109.69
323.337	124.69
323.566	125.69
323.795	153.69
324.024	199.69
324.253	387.69
324.482	776.69
324.71	1605.69
324.939	2068.69
325.168	766.69
325.397	232.69
325.626	150.69
325.855	119.69
326.084	125.69
326.313	127.69
326.542	155.69
326.77	231.69
326.999	460.69
327.228	935.69
327.457	1627.69
327.686	1263.69
327.914	355.69
328.143	176.69
328.372	163.69
328.6	133.69
328.829	124.69
329.058	118.69
329.287	109.69
329.515	104.69
329.744	111.69
329.972	108.69
330.201	97.69
330.43	104.69
330.658	122.69
330.887	131.69
331.115	124.69
331.344	108.69
331.572	112.69
331.801	99.69
332.03	104.69
332.258	96.69
332.486	100.69
332.715	88.69
332.943	95.69
333.172	109.69
333.4	98.69
333.629	113.69
333.857	107.69
334.085	122.69
334.314	108.69
334.542	100.69
334.771	122.69
334.999	109.69
335.227	97.69
335.455	85.69
335.684	105.69
335.912	90.69
336.14	96.69
336.369	101.69
336.597	102.69
336.825	100.69
337.053	80.69
337.281	83.69
337.51	100.69
337.738	93.69
337.966	98.69
338.194	101.69
338.422	83.69
338.65	96.69
338.878	104.69
339.106	91.69
339.334	91.69
339.562	93.69
339.79	93.69
340.018	104.69
340.246	92.69
340.474	89.69
340.702	86.69
340.93	89.69
341.158	101.69
341.386	101.69
341.614	108.69
341.842	93.69
342.07	88.69
342.298	84.69
342.526	93.69
342.754	98.69
342.981	95.69
343.209	87.69
343.437	100.69
343.665	104.69
343.893	95.69
344.12	100.69
344.348	100.69
344.576	97.69
344.804	87.69
345.031	86.69
345.259	98.69
345.487	106.69
345.714	103.69
345.942	97.69
346.17	90.69
346.397	95.69
346.625	97.69
346.853	82.69
347.08	86.69
347.308	87.69
347.535	88.69
347.763	112.69
347.99	96.69
348.218	107.69
348.445	93.69
348.673	100.69
348.9	89.69
349.128	92.69
349.355	88.69
349.583	106.69
349.81	100.69
350.037	96.69
350.265	86.69
350.492	98.69
350.72	97.69
350.947	96.69
351.174	111.69
351.402	116.69
351.629	94.69
351.856	113.69
352.083	102.69
352.311	103.69
352.538	97.69
352.765	106.69
352.992	105.69
353.22	120.69
353.447	91.69
353.674	110.69
353.901	114.69
354.128	98.69
354.355	99.69
354.583	115.69
354.81	108.69
355.037	106.69
355.264	90.69
355.491	113.69
355.718	85.69
355.945	87.69
356.172	105.69
356.399	110.69
356.626	96.69
356.853	91.69
357.08	96.69
357.307	77.69
357.534	108.69
357.761	82.69
357.988	92.69
358.215	106.69
358.441	89.69
358.668	91.69
358.895	90.69
359.122	101.69
359.349	98.69
359.576	85.69
359.802	91.69
360.029	109.69
360.256	103.69
360.483	108.69
360.709	91.69
360.936	95.69
361.163	103.69
361.39	102.69
361.616	96.69
361.843	99.69
362.07	93.69
362.296	94.69
362.523	98.69
362.749	99.69
362.976	100.69
363.203	106.69
363.429	82.69
363.656	93.69
363.882	95.69
364.109	97.69
364.335	85.69
364.562	87.69
364.788	97.69
365.015	115.69
365.241	108.69
365.468	117.69
365.694	98.69
365.92	87.69
366.147	95.69
366.373	84.69
366.599	98.69
366.826	90.69
367.052	88.69
367.278	96.69
367.505	110.69
367.731	84.69
367.957	82.69
368.184	103.69
368.41	108.69
368.636	114.69
368.862	123.69
369.089	108.69
369.315	99.69
369.541	96.69
369.767	92.69
369.993	101.69
370.219	96.69
370.445	87.69
370.672	98.69
370.898	90.69
371.124	87.69
371.35	93.69
371.576	90.69
371.802	85.69
372.028	87.69
372.254	90.69
372.48	85.69
372.706	91.69
372.932	95.69
373.158	87.69
373.384	92.69
373.61	98.69
373.835	82.69
374.061	99.69
374.287	86.69
374.513	101.69
374.739	99.69
374.965	103.69
375.191	77.69
375.416	92.69
375.642	103.69
375.868	95.69
376.094	91.69
376.319	90.69
376.545	95.69
376.771	88.69
376.997	99.69
377.222	88.69
377.448	97.69
377.674	102.69
377.899	95.69
378.125	111.69
378.35	110.69
378.576	102.69
378.802	103.69
379.027	101.69
379.253	84.69
379.478	111.69
379.704	104.69
379.929	93.69
380.155	102.69
380.38	105.69
380.606	99.69
380.831	99.69
381.057	107.69
381.282	93.69
381.507	103.69
381.733	111.69
381.958	113.69
382.184	132.69
382.409	100.69
382.634	113.69
382.86	113.69
383.085	100.69
383.31	127.69
383.535	102.69
383.761	110.69
383.986	106.69
384.211	105.69
384.436	96.69
384.662	114.69
384.887	105.69
385.112	123.69
385.337	115.69
385.562	119.69
385.787	100.69
386.013	107.69
386.238	128.69
386.463	114.69
386.688	114.69
386.913	116.69
387.138	124.69
387.363	128.69
387.588	122.69
387.813	97.69
388.038	109.69
388.263	116.69
388.488	121.69
388.713	104.69
388.938	96.69
389.163	91.69
389.387	104.69
389.612	93.69
389.837	101.69
390.062	74.69
390.287	98.69
390.512	91.69
390.736	74.69
390.961	98.69
391.186	93.69
391.411	111.69
391.636	83.69
391.86	82.69
392.085	88.69
392.31	91.69
392.534	91.69
392.759	92.69
392.984	81.69
393.208	105.69
393.433	99.69
393.658	84.69
393.882	85.69
394.107	97.69
394.331	88.69
394.556	94.69
394.78	93.69
395.005	96.69
395.229	104.69
395.454	108.69
395.678	90.69
395.903	96.69
396.127	97.69
396.352	85.69
396.576	98.69
396.801	93.69
397.025	91.69
397.249	67.69
397.474	92.69
397.698	85.69
397.922	96.69
398.147	88.69
398.371	83.69
398.595	93.69
398.82	93.69
399.044	88.69
399.268	89.69
399.492	98.69
399.717	90.69
399.941	88.69
400.165	104.69
400.389	89.69
400.613	93.69
400.837	84.69
401.062	86.69
401.286	94.69
401.51	86.69
401.734	85.69
401.958	104.69
402.182	133.69
402.406	159.69
402.63	108.69
402.854	98.69
403.078	95.69
403.302	88.69
403.526	102.69
403.75	87.69
403.974	106.69
404.198	75.69
404.422	91.69
404.645	101.69
404.869	94.69
405.093	107.69
405.317	96.69
405.541	99.69
405.765	97.69
405.988	111.69
406.212	180.69
406.436	209.69
406.66	156.69
406.883	100.69
407.107	77.69
407.331	96.69
407.555	102.69
407.778	100.69
408.002	96.69
408.226	89.69
408.449	95.69
408.673	92.69
408.896	87.69
409.12	99.69
409.344	96.69
409.567	84.69
409.791	101.69
410.014	98.69
410.238	91.69
410.461	94.69
410.685	85.69
410.908	80.69
411.132	94.69
411.355	88.69
411.578	97.69
411.802	81.69
412.025	96.69
412.249	94.69
412.472	87.69
412.695	92.69
412.919	83.69
413.142	103.69
413.365	96.69
413.589	94.69
413.812	88.69
414.035	107.69
414.258	91.69
414.482	87.69
414.705	92.69
414.928	103.69
415.151	88.69
415.374	100.69
415.597	102.69
415.821	100.69
416.044	107.69
416.267	108.69
416.49	100.69
416.713	100.69
416.936	83.69
417.159	92.69
417.382	85.69
417.605	92.69
417.828	102.69
418.051	104.69
418.274	95.69
418.497	86.69
418.72	83.69
418.943	96.69
419.166	98.69
419.389	104.69
419.611	100.69
419.834	98.69
420.057	89.69
420.28	80.69
420.503	80.69
420.726	91.69
420.948	96.69
421.171	114.69
421.394	101.69
421.617	95.69
421.839	95.69
422.062	86.69
422.285	89.69
422.507	95.69
422.73	116.69
422.953	100.69
423.175	86.69
423.398	84.69
423.621	93.69
423.843	79.69
424.066	79.69
424.288	97.69
424.511	102.69
424.733	117.69
424.956	118.69
425.178	93.69
425.401	99.69
425.623	99.69
425.846	95.69
426.068	96.69
426.291	91.69
426.513	93.69
426.735	97.69
426.958	93.69
427.18	108.69
427.402	129.69
427.625	167.69
427.847	134.69
428.069	107.69
428.292	99.69
428.514	94.69
428.736	88.69
428.958	106.69
429.181	105.69
429.403	86.69
429.625	98.69
429.847	104.69
430.069	71.69
430.292	92.69
430.514	106.69
430.736	93.69
430.958	89.69
431.18	90.69
431.402	99.69
431.624	97.69
431.846	96.69
432.068	86.69
432.29	90.69
432.512	92.69
432.734	76.69
432.956	89.69
433.178	104.69
433.4	87.69
433.622	101.69
433.844	100.69
434.066	99.69
434.287	89.69
434.509	91.69
434.731	75.69
434.953	85.69
435.175	91.69
435.397	100.69
435.618	103.69
435.84	102.69
436.062	112.69
436.284	119.69
436.505	118.69
436.727	101.69
436.949	97.69
437.17	83.69
437.392	86.69
437.614	101.69
437.835	110.69
438.057	93.69
438.278	124.69
438.5	117.69
438.721	128.69
438.943	99.69
439.165	86.69
439.386	94.69
439.608	80.69
439.829	96.69
440.05	136.69
440.272	124.69
440.493	103.69
440.715	95.69
440.936	76.69
441.158	91.69
441.379	87.69
441.6	103.69
441.822	83.69
442.043	93.69
442.264	91.69
442.486	98.69
442.707	103.69
442.928	98.69
443.149	146.69
443.371	135.69
443.592	106.69
443.813	113.69
444.034	105.69
444.255	93.69
444.476	91.69
444.698	90.69
444.919	80.69
445.14	140.69
445.361	128.69
445.582	119.69
445.803	140.69
446.024	130.69
446.245	145.69
446.466	98.69
446.687	92.69
446.908	94.69
447.129	80.69
447.35	86.69
447.571	100.69
447.792	86.69
448.013	100.69
448.234	112.69
448.455	105.69
448.675	119.69
448.896	106.69
449.117	103.69
449.338	94.69
449.559	130.69
449.779	125.69
450	101.69
450.221	97.69
450.442	95.69
450.662	97.69
450.883	98.69
451.104	105.69
451.324	100.69
451.545	98.69
451.766	104.69
451.986	106.69
452.207	99.69
452.428	89.69
452.648	94.69
452.869	109.69
453.089	103.69
453.31	122.69
453.53	92.69
453.751	82.69
453.971	98.69
454.192	113.69
454.412	84.69
454.633	89.69
454.853	94.69
455.073	98.69
455.294	96.69
455.514	107.69
455.734	95.69
455.955	98.69
456.175	107.69
456.395	84.69
456.616	77.69
456.836	90.69
457.056	86.69
457.276	97.69
457.497	83.69
457.717	91.69
457.937	98.69
458.157	106.69
458.377	101.69
458.598	105.69
458.818	136.69
459.038	149.69
459.258	117.69
459.478	106.69
459.698	91.69
459.918	93.69
460.138	78.69
460.358	90.69
460.578	83.69
460.798	76.69
461.018	89.69
461.238	89.69
461.458	100.69
461.678	73.69
461.898	93.69
462.118	89.69
462.338	90.69
462.558	82.69
462.777	79.69
462.997	92.69
463.217	74.69
463.437	90.69
463.657	88.69
463.876	72.69
464.096	89.69
464.316	89.69
464.536	96.69
464.755	101.69
464.975	105.69
465.195	152.69
465.414	144.69
465.634	96.69
465.854	90.69
466.073	89.69
466.293	99.69
466.512	96.69
466.732	103.69
466.951	89.69
467.171	91.69
467.391	92.69
467.61	96.69
467.829	108.69
468.049	112.69
468.268	88.69
468.488	90.69
468.707	92.69
468.927	89.69
469.146	91.69
469.365	89.69
469.585	82.69
469.804	96.69
470.023	88.69
470.243	105.69
470.462	101.69
470.681	99.69
470.901	87.69
471.12	99.69
471.339	77.69
471.558	91.69
471.777	101.69
471.997	80.69
472.216	106.69
472.435	104.69
472.654	92.69
472.873	99.69
473.092	91.69
473.311	87.69
473.53	94.69
473.749	93.69
473.968	100.69
474.187	88.69
474.406	107.69
474.625	85.69
474.844	74.69
475.063	81.69
475.282	108.69
475.501	83.69
475.72	109.69
475.939	74.69
476.158	98.69
476.377	93.69
476.596	92.69
476.814	90.69
477.033	94.69
477.252	89.69
477.471	91.69
477.69	86.69
477.908	72.69
478.127	83.69
478.346	101.69
478.564	96.69
478.783	101.69
479.002	95.69
479.22	91.69
479.439	99.69
479.658	94.69
479.876	101.69
480.095	87.69
480.313	83.69
480.532	98.69
480.751	97.69
480.969	109.69
481.188	148.69
481.406	121.69
481.624	95.69
481.843	83.69
482.061	112.69
482.28	89.69
482.498	93.69
482.717	93.69
482.935	94.69
483.153	79.69
483.372	89.69
483.59	94.69
483.808	107.69
484.027	79.69
484.245	91.69
484.463	93.69
484.681	97.69
484.9	87.69
485.118	99.69
485.336	97.69
485.554	102.69
485.772	105.69
485.99	119.69
486.209	111.69
486.427	100.69
486.645	114.69
486.863	100.69
487.081	100.69
487.299	105.69
487.517	91.69
487.735	100.69
487.953	97.69
488.171	96.69
488.389	101.69
488.607	104.69
488.825	98.69
489.043	86.69
489.261	105.69
489.479	90.69
489.696	90.69
489.914	80.69
490.132	96.69
490.35	88.69
490.568	110.69
490.786	94.69
491.003	95.69
491.221	97.69
491.439	103.69
491.657	94.69
491.874	99.69
492.092	81.69
492.31	99.69
492.527	106.69
492.745	77.69
492.963	116.69
493.18	93.69
493.398	98.69
493.615	97.69
493.833	102.69
494.05	96.69
494.268	108.69
494.485	93.69
494.703	98.69
494.92	83.69
495.138	94.69
495.355	96.69
495.573	99.69
495.79	99.69
496.008	87.69
496.225	101.69
496.442	91.69
496.66	99.69
496.877	84.69
497.094	109.69
497.312	79.69
497.529	88.69
497.746	106.69
497.963	102.69
498.181	94.69
498.398	90.69
498.615	112.69
498.832	90.69
499.049	92.69
499.267	92.69
499.484	92.69
499.701	92.69
499.918	92.69
500.135	75.69
500.352	100.69
500.569	87.69
500.786	85.69
501.003	89.69
501.22	90.69
501.437	86.69
501.654	106.69
501.871	118.69
502.088	93.69
502.305	92.69
502.522	96.69
502.739	90.69
502.956	93.69
503.172	93.69
503.389	85.69
503.606	119.69
503.823	97.69
504.04	95.69
504.256	93.69
504.473	84.69
504.69	100.69
504.907	99.69
505.123	91.69
505.34	90.69
505.557	100.69
505.773	100.69
505.99	91.69
506.207	98.69
506.423	92.69
506.64	89.69
506.856	85.69
507.073	96.69
507.289	93.69
507.506	104.69
507.722	115.69
507.939	115.69
508.155	103.69
508.372	94.69
508.588	106.69
508.805	111.69
509.021	105.69
509.238	103.69
509.454	98.69
509.67	122.69
509.887	114.69
510.103	138.69
510.319	224.69
510.536	767.69
510.752	2300.69
510.968	647.69
511.184	159.69
511.401	116.69
511.617	106.69
511.833	104.69
512.049	96.69
512.265	92.69
512.481	99.69
512.698	99.69
512.914	90.69
513.13	84.69
513.346	100.69
513.562	105.69
513.778	99.69
513.994	105.69
514.21	109.69
514.426	127.69
514.642	137.69
514.858	123.69
515.074	154.69
515.29	430.69
515.506	1367.69
515.721	521.69
515.937	145.69
516.153	99.69
516.369	104.69
516.585	106.69
516.801	91.69
517.016	106.69
517.232	83.69
517.448	104.69
517.664	90.69
517.879	99.69
518.095	111.69
518.311	89.69
518.527	100.69
518.742	99.69
518.958	89.69
519.173	94.69
519.389	99.69
519.605	101.69
519.82	107.69
520.036	108.69
520.251	119.69
520.467	111.69
520.682	108.69
520.898	114.69
521.113	126.69
521.329	141.69
521.544	200.69
521.76	548.69
521.975	2319.69
522.19	1356.69
522.406	315.69
522.621	135.69
522.836	103.69
523.052	86.69
523.267	104.69
523.482	108.69
523.698	99.69
523.913	130.69
524.128	103.69
524.343	96.69
524.559	89.69
524.774	89.69
524.989	122.69
525.204	120.69
525.419	103.69
525.634	103.69
525.849	91.69
526.064	86.69
526.28	86.69
526.495	98.69
526.71	77.69
526.925	90.69
527.14	116.69
527.355	104.69
527.57	85.69
527.785	90.69
527.999	98.69
528.214	92.69
528.429	103.69
528.644	83.69
528.859	106.69
529.074	97.69
529.289	118.69
529.503	161.69
529.718	110.69
529.933	96.69
530.148	88.69
530.363	86.69
530.577	84.69
530.792	89.69
531.007	100.69
531.221	111.69
531.436	103.69
531.651	90.69
531.865	91.69
532.08	95.69
532.295	94.69
532.509	86.69
532.724	97.69
532.938	92.69
533.153	83.69
533.367	96.69
533.582	100.69
533.796	100.69
534.011	85.69
534.225	102.69
534.44	95.69
534.654	97.69
534.868	96.69
535.083	103.69
535.297	95.69
535.511	97.69
535.726	86.69
535.94	105.69
536.154	96.69
536.369	91.69
536.583	84.69
536.797	103.69
537.011	82.69
537.225	91.69
537.44	87.69
537.654	103.69
537.868	100.69
538.082	76.69
538.296	95.69
538.51	95.69
538.724	94.69
538.938	85.69
539.153	92.69
539.367	103.69
539.581	67.69
539.795	86.69
540.009	100.69
540.222	97.69
540.436	92.69
540.65	87.69
540.864	96.69
541.078	112.69
541.292	101.69
541.506	105.69
541.72	100.69
541.934	96.69
542.147	92.69
542.361	99.69
542.575	100.69
542.789	87.69
543.002	92.69
543.216	112.69
543.43	85.69
543.644	89.69
543.857	93.69
544.071	86.69
544.285	102.69
544.498	88.69
544.712	77.69
544.925	88.69
545.139	97.69
545.352	84.69
545.566	88.69
545.779	95.69
545.993	99.69
546.206	78.69
546.42	100.69
546.633	95.69
546.847	92.69
547.06	95.69
547.274	83.69
547.487	98.69
547.7	103.69
547.914	102.69
548.127	92.69
548.34	84.69
548.554	89.69
548.767	86.69
548.98	99.69
549.193	90.69
549.407	94.69
549.62	89.69
549.833	98.69
550.046	88.69
550.259	114.69
550.473	96.69
550.686	85.69
550.899	95.69
551.112	103.69
551.325	77.69
551.538	88.69
551.751	92.69
551.964	105.69
552.177	103.69
552.39	90.69
552.603	104.69
552.816	104.69
553.029	85.69
553.242	90.69
553.455	91.69
553.667	105.69
553.88	93.69
554.093	93.69
554.306	100.69
554.519	89.69
554.732	96.69
554.944	105.69
555.157	87.69
555.37	97.69
555.583	95.69
555.795	96.69
556.008	97.69
556.221	89.69
556.433	96.69
556.646	114.69
556.859	93.69
557.071	95.69
557.284	90.69
557.496	103.69
557.709	88.69
557.921	90.69
558.134	88.69
558.346	95.69
558.559	93.69
558.771	100.69
558.984	88.69
559.196	90.69
559.409	98.69
559.621	95.69
559.833	87.69
560.046	87.69
560.258	96.69
560.47	96.69
560.683	95.69
560.895	95.69
561.107	95.69
561.32	97.69
561.532	89.69
561.744	81.69
561.956	97.69
562.168	107.69
562.381	107.69
562.593	87.69
562.805	91.69
563.017	90.69
563.229	82.69
563.441	90.69
563.653	81.69
563.865	76.69
564.077	69.69
564.289	84.69
564.501	85.69
564.713	92.69
564.925	85.69
565.137	106.69
565.349	89.69
565.561	80.69
565.773	89.69
565.985	86.69
566.197	91.69
566.408	86.69
566.62	88.69
566.832	86.69
567.044	72.69
567.255	99.69
567.467	86.69
567.679	89.69
567.891	91.69
568.102	79.69
568.314	97.69
568.526	85.69
568.737	92.69
568.949	89.69
569.161	82.69
569.372	87.69
569.584	97.69
569.795	107.69
570.007	137.69
570.218	242.69
570.43	147.69
570.641	92.69
570.853	88.69
571.064	90.69
571.276	91.69
571.487	101.69
571.698	77.69
571.91	87.69
572.121	75.69
572.333	80.69
572.544	92.69
572.755	100.69
572.966	93.69
573.178	107.69
573.389	90.69
573.6	81.69
573.811	89.69
574.023	101.69
574.234	90.69
574.445	85.69
574.656	93.69
574.867	82.69
575.078	95.69
575.289	92.69
575.501	97.69
575.712	74.69
575.923	89.69
576.134	109.69
576.345	98.69
576.556	84.69
576.767	112.69
576.978	96.69
577.188	96.69
577.399	80.69
577.61	92.69
577.821	116.69
578.032	117.69
578.243	296.69
578.454	757.69
578.665	222.69
578.875	99.69
579.086	98.69
579.297	88.69
579.508	88.69
579.718	93.69
579.929	85.69
580.14	90.69
580.35	86.69
580.561	81.69
580.772	88.69
580.982	98.69
581.193	93.69
581.403	91.69
581.614	88.69
581.825	87.69
582.035	82.69
582.246	88.69
582.456	94.69
582.667	76.69
582.877	101.69
583.087	83.69
583.298	91.69
583.508	94.69
583.719	69.69
583.929	102.69
584.139	103.69
584.35	87.69
584.56	107.69
584.77	88.69
584.981	82.69
585.191	93.69
585.401	106.69
585.611	90.69
585.821	95.69
586.032	99.69
586.242	100.69
586.452	87.69
586.662	87.69
586.872	85.69
587.082	84.69
587.292	61.69
587.502	73.69
587.713	91.69
587.923	97.69
588.133	84.69
588.343	83.69
588.553	100.69
588.762	92.69
588.972	89.69
589.182	92.69
589.392	89.69
589.602	93.69
589.812	93.69
590.022	96.69
590.232	88.69
590.441	91.69
590.651	97.69
590.861	95.69
591.071	90.69
591.281	94.69
591.49	88.69
591.7	88.69
591.91	95.69
592.119	97.69
592.329	90.69
592.539	94.69
592.748	91.69
592.958	90.69
593.167	82.69
593.377	97.69
593.587	94.69
593.796	79.69
594.006	91.69
594.215	83.69
594.424	91.69
594.634	83.69
594.843	84.69
595.053	86.69
595.262	84.69
595.472	94.69
595.681	86.69
595.89	86.69
596.1	97.69
596.309	106.69
596.518	97.69
596.727	84.69
596.937	81.69
597.146	97.69
597.355	85.69
597.564	93.69
597.774	102.69
597.983	85.69
598.192	89.69
598.401	74.69
598.61	86.69
598.819	87.69
599.028	92.69
599.237	89.69
599.446	102.69
599.655	86.69
599.864	96.69
600.073	84.69
600.282	88.69
600.491	84.69
600.7	104.69
600.909	92.69
601.118	91.69
601.327	102.69
601.536	88.69
601.745	79.69
601.953	89.69
602.162	90.69
602.371	99.69
602.58	83.69
602.789	81.69
602.997	85.69
603.206	88.69
603.415	85.69
603.623	73.69
603.832	95.69
604.041	107.69
604.249	84.69
604.458	79.69
604.666	90.69
604.875	88.69
605.084	83.69
605.292	84.69
605.501	91.69
605.709	88.69
605.918	89.69
606.126	82.69
606.334	96.69
606.543	89.69
606.751	86.69
606.96	84.69
607.168	69.69
607.376	82.69
607.585	96.69
607.793	95.69
608.001	86.69
608.21	84.69
608.418	87.69
608.626	92.69
608.834	108.69
609.043	91.69
609.251	94.69
609.459	84.69
609.667	97.69
609.875	85.69
610.083	89.69
610.291	87.69
610.499	87.69
610.707	96.69
610.916	88.69
611.124	85.69
611.332	98.69
611.54	102.69
611.748	85.69
611.955	92.69
612.163	89.69
612.371	91.69
612.579	88.69
612.787	80.69
612.995	82.69
613.203	99.69
613.411	85.69
613.618	77.69
613.826	83.69
614.034	92.69
614.242	95.69
614.449	81.69
614.657	91.69
614.865	81.69
615.072	89.69
615.28	87.69
615.488	93.69
615.695	88.69
615.903	103.69
616.111	102.69
616.318	104.69
616.526	98.69
616.733	103.69
616.941	92.69
617.148	99.69
617.356	82.69
617.563	84.69
617.771	95.69
617.978	86.69
618.185	83.69
618.393	97.69
618.6	84.69
618.807	106.69
619.015	82.69
619.222	75.69
619.429	83.69
619.637	91.69
619.844	92.69
620.051	82.69
620.258	92.69
620.466	88.69
620.673	78.69
620.88	77.69
621.087	85.69
621.294	82.69
621.501	75.69
621.708	69.69
621.915	81.69
622.122	91.69
622.329	92.69
622.536	83.69
622.743	85.69
622.95	91.69
623.157	100.69
623.364	77.69
623.571	100.69
623.778	87.69
623.985	77.69
624.192	85.69
624.399	93.69
624.606	84.69
624.812	93.69
625.019	81.69
625.226	80.69
625.433	92.69
625.639	86.69
625.846	95.69
626.053	83.69
626.259	86.69
626.466	87.69
626.673	88.69
626.879	93.69
627.086	97.69
627.293	100.69
627.499	89.69
627.706	100.69
627.912	97.69
628.119	90.69
628.325	90.69
628.532	94.69
628.738	104.69
628.945	89.69
629.151	100.69
629.357	100.69
629.564	84.69
629.77	99.69
629.976	83.69
630.183	77.69
630.389	80.69
630.595	87.69
630.802	82.69
631.008	92.69
631.214	85.69
631.42	89.69
631.627	91.69
631.833	78.69
632.039	80.69
632.245	89.69
632.451	79.69
632.657	86.69
632.863	82.69
633.069	89.69
633.275	97.69
633.481	79.69
633.688	82.69
633.893	92.69
634.099	83.69
634.305	90.69
634.511	76.69
634.717	77.69
634.923	93.69
635.129	88.69
635.335	84.69
635.541	81.69
635.747	97.69
635.952	77.69
636.158	84.69
636.364	79.69
636.57	87.69
636.775	83.69
636.981	91.69
637.187	78.69
637.392	88.69
637.598	80.69
637.804	56.69
638.009	86.69
638.215	90.69
638.421	75.69
638.626	82.69
638.832	93.69
639.037	103.69
639.243	85.69
639.448	90.69
639.654	91.69
639.859	82.69
640.065	95.69
640.27	91.69
640.475	91.69
640.681	86.69
640.886	90.69
641.091	109.69
641.297	88.69
641.502	74.69
641.707	84.69
641.913	92.69
642.118	83.69
642.323	83.69
642.528	85.69
642.733	83.69
642.939	91.69
643.144	86.69
643.349	90.69
643.554	82.69
643.759	79.69
643.964	83.69
644.169	75.69
644.374	92.69
644.579	83.69
644.784	88.69
644.989	87.69
645.194	93.69
645.399	111.69
645.604	86.69
645.809	84.69
646.014	83.69
646.219	83.69
646.423	81.69
646.628	91.69
646.833	94.69
647.038	85.69
647.243	76.69
647.447	89.69
647.652	86.69
647.857	86.69
648.062	82.69
648.266	92.69
648.471	88.69
648.676	83.69
648.88	104.69
649.085	97.69
649.289	94.69
649.494	114.69
649.698	134.69
649.903	100.69
650.107	92.69
650.312	74.69
650.516	76.69
650.721	87.69
650.925	92.69
651.13	82.69
651.334	68.69
651.539	90.69
651.743	91.69
651.947	102.69
652.152	83.69
652.356	84.69
652.56	88.69
652.764	97.69
652.969	93.69
653.173	90.69
653.377	89.69
653.581	93.69
653.785	87.69
653.99	100.69
654.194	99.69
654.398	76.69
654.602	89.69
654.806	85.69
655.01	107.69
655.214	86.69
655.418	75.69
655.622	92.69
655.826	92.69
656.03	80.69
656.234	112.69
656.438	103.69
656.642	93.69
656.846	92.69
657.049	88.69
657.253	90.69
657.457	97.69
657.661	75.69
657.865	92.69
658.068	85.69
658.272	88.69
658.476	95.69
658.68	84.69
658.883	91.69
659.087	81.69
659.291	85.69
659.494	81.69
659.698	74.69
659.901	88.69
660.105	85.69
660.309	80.69
660.512	68.69
660.716	81.69
660.919	93.69
661.123	81.69
661.326	96.69
661.53	92.69
661.733	87.69
661.936	79.69
662.14	61.69
662.343	74.69
662.546	79.69
662.75	66.69
662.953	82.69
663.156	87.69
663.36	82.69
663.563	99.69
663.766	86.69
663.969	86.69
664.173	79.69
664.376	64.69
664.579	78.69
664.782	89.69
664.985	90.69
665.188	70.69
665.391	89.69
665.594	83.69
665.797	67.69
666	84.69
666.203	91.69
666.406	85.69
666.609	84.69
666.812	84.69
667.015	89.69
667.218	75.69
667.421	87.69
667.624	72.69
667.827	89.69
668.03	87.69
668.232	78.69
668.435	78.69
668.638	86.69
668.841	84.69
669.043	89.69
669.246	87.69
669.449	85.69
669.651	83.69
669.854	88.69
670.057	92.69
670.259	81.69
670.462	75.69
670.665	87.69
670.867	85.69
671.07	81.69
671.272	91.69
671.475	72.69
671.677	95.69
671.88	81.69
672.082	83.69
672.284	96.69
672.487	101.69
672.689	88.69
672.892	80.69
