Data from Uncirc_2004_H10_HRD10591_00071.txt Node
Date: Wed Jan 03 10:32:27 EST 2024
User: Yrep
Spectrometer: HR+D1059
Trigger mode: 1
Integration Time (sec): 1.000000E-1
Scans to average: 1
Electric dark correction enabled: true
Nonlinearity correction enabled: false
Boxcar width: 0
XAxis mode: Wavelengths
Number of Pixels in Spectrum: 2048
>>>>>Begin Spectral Data<<<<<
223.165	-8.81
223.4	-8.81
223.635	-8.81
223.869	-28.81
224.104	-33.81
224.338	-14.81
224.573	-9.81
224.808	-3.81
225.042	-0.81
225.277	-8.81
225.511	-4.81
225.746	6.19
225.98	-2.81
226.215	6.19
226.449	28.19
226.683	23.19
226.918	11.19
227.152	42.19
227.387	33.19
227.621	25.19
227.856	44.19
228.09	49.19
228.324	50.19
228.559	54.19
228.793	53.19
229.027	55.19
229.262	64.19
229.496	79.19
229.73	92.19
229.964	93.19
230.199	74.19
230.433	61.19
230.667	74.19
230.901	79.19
231.136	91.19
231.37	89.19
231.604	76.19
231.838	89.19
232.072	80.19
232.306	80.19
232.541	95.19
232.775	81.19
233.009	87.19
233.243	90.19
233.477	84.19
233.711	93.19
233.945	85.19
234.179	85.19
234.413	99.19
234.647	82.19
234.881	92.19
235.115	81.19
235.349	75.19
235.583	74.19
235.817	69.19
236.051	87.19
236.285	63.19
236.519	75.19
236.753	83.19
236.987	87.19
237.221	88.19
237.455	85.19
237.689	73.19
237.922	78.19
238.156	71.19
238.39	73.19
238.624	69.19
238.858	80.19
239.091	82.19
239.325	79.19
239.559	75.19
239.793	85.19
240.027	82.19
240.26	70.19
240.494	73.19
240.728	69.19
240.961	84.19
241.195	83.19
241.429	82.19
241.662	75.19
241.896	71.19
242.13	77.19
242.363	83.19
242.597	90.19
242.83	70.19
243.064	79.19
243.298	70.19
243.531	87.19
243.765	70.19
243.998	70.19
244.232	69.19
244.465	89.19
244.699	72.19
244.932	84.19
245.166	66.19
245.399	70.19
245.633	76.19
245.866	85.19
246.099	66.19
246.333	74.19
246.566	83.19
246.8	80.19
247.033	79.19
247.266	82.19
247.5	82.19
247.733	80.19
247.966	81.19
248.2	80.19
248.433	85.19
248.666	85.19
248.899	82.19
249.133	91.19
249.366	112.19
249.599	93.19
249.832	76.19
250.066	83.19
250.299	81.19
250.532	73.19
250.765	82.19
250.998	69.19
251.231	81.19
251.465	81.19
251.698	87.19
251.931	87.19
252.164	70.19
252.397	77.19
252.63	87.19
252.863	63.19
253.096	86.19
253.329	78.19
253.562	87.19
253.795	84.19
254.028	99.19
254.261	87.19
254.494	82.19
254.727	74.19
254.96	78.19
255.193	84.19
255.426	106.19
255.659	103.19
255.892	85.19
256.124	80.19
256.357	79.19
256.59	81.19
256.823	85.19
257.056	75.19
257.289	66.19
257.521	79.19
257.754	82.19
257.987	93.19
258.22	96.19
258.452	77.19
258.685	107.19
258.918	78.19
259.151	85.19
259.383	76.19
259.616	78.19
259.849	68.19
260.081	80.19
260.314	90.19
260.547	78.19
260.779	81.19
261.012	85.19
261.244	82.19
261.477	75.19
261.71	97.19
261.942	93.19
262.175	114.19
262.407	72.19
262.64	89.19
262.872	87.19
263.105	95.19
263.337	95.19
263.57	84.19
263.802	87.19
264.035	83.19
264.267	77.19
264.499	96.19
264.732	96.19
264.964	85.19
265.197	80.19
265.429	82.19
265.661	90.19
265.894	82.19
266.126	81.19
266.358	86.19
266.591	81.19
266.823	84.19
267.055	84.19
267.287	86.19
267.52	83.19
267.752	90.19
267.984	78.19
268.216	82.19
268.448	84.19
268.681	85.19
268.913	81.19
269.145	80.19
269.377	86.19
269.609	87.19
269.841	80.19
270.073	78.19
270.306	79.19
270.538	82.19
270.77	78.19
271.002	76.19
271.234	87.19
271.466	80.19
271.698	97.19
271.93	73.19
272.162	88.19
272.394	78.19
272.626	83.19
272.858	90.19
273.09	86.19
273.322	77.19
273.553	77.19
273.785	82.19
274.017	92.19
274.249	82.19
274.481	84.19
274.713	75.19
274.945	89.19
275.176	85.19
275.408	89.19
275.64	90.19
275.872	81.19
276.104	85.19
276.335	90.19
276.567	97.19
276.799	112.19
277.031	102.19
277.262	83.19
277.494	95.19
277.726	84.19
277.957	85.19
278.189	88.19
278.421	70.19
278.652	90.19
278.884	101.19
279.115	82.19
279.347	82.19
279.579	75.19
279.81	88.19
280.042	96.19
280.273	79.19
280.505	77.19
280.736	78.19
280.968	89.19
281.199	77.19
281.431	80.19
281.662	83.19
281.894	83.19
282.125	110.19
282.356	120.19
282.588	131.19
282.819	110.19
283.051	97.19
283.282	97.19
283.513	91.19
283.745	82.19
283.976	81.19
284.207	91.19
284.439	90.19
284.67	95.19
284.901	82.19
285.132	86.19
285.364	83.19
285.595	95.19
285.826	83.19
286.057	99.19
286.288	82.19
286.52	97.19
286.751	91.19
286.982	78.19
287.213	89.19
287.444	83.19
287.675	97.19
287.906	70.19
288.138	84.19
288.369	103.19
288.6	101.19
288.831	80.19
289.062	90.19
289.293	90.19
289.524	86.19
289.755	90.19
289.986	99.19
290.217	87.19
290.448	92.19
290.679	86.19
290.91	104.19
291.141	93.19
291.371	94.19
291.602	92.19
291.833	98.19
292.064	77.19
292.295	91.19
292.526	89.19
292.757	100.19
292.987	90.19
293.218	89.19
293.449	95.19
293.68	82.19
293.91	84.19
294.141	85.19
294.372	88.19
294.603	109.19
294.833	111.19
295.064	82.19
295.295	95.19
295.525	85.19
295.756	86.19
295.987	118.19
296.217	151.19
296.448	121.19
296.679	86.19
296.909	96.19
297.14	88.19
297.37	90.19
297.601	97.19
297.831	91.19
298.062	90.19
298.292	83.19
298.523	90.19
298.753	92.19
298.984	76.19
299.214	76.19
299.445	85.19
299.675	97.19
299.905	91.19
300.136	86.19
300.366	78.19
300.597	84.19
300.827	98.19
301.057	117.19
301.288	103.19
301.518	105.19
301.748	100.19
301.979	104.19
302.209	98.19
302.439	99.19
302.669	96.19
302.9	98.19
303.13	96.19
303.36	98.19
303.59	88.19
303.82	106.19
304.051	103.19
304.281	84.19
304.511	93.19
304.741	87.19
304.971	91.19
305.201	81.19
305.431	91.19
305.661	85.19
305.891	87.19
306.121	98.19
306.352	104.19
306.582	109.19
306.812	86.19
307.042	88.19
307.272	95.19
307.502	102.19
307.731	82.19
307.961	92.19
308.191	79.19
308.421	93.19
308.651	92.19
308.881	92.19
309.111	101.19
309.341	92.19
309.571	106.19
309.8	94.19
310.03	84.19
310.26	91.19
310.49	106.19
310.72	91.19
310.949	92.19
311.179	111.19
311.409	102.19
311.639	95.19
311.868	90.19
312.098	94.19
312.328	87.19
312.557	97.19
312.787	101.19
313.017	99.19
313.246	95.19
313.476	94.19
313.706	87.19
313.935	95.19
314.165	104.19
314.394	105.19
314.624	101.19
314.853	92.19
315.083	98.19
315.312	90.19
315.542	84.19
315.771	97.19
316.001	91.19
316.23	80.19
316.46	96.19
316.689	91.19
316.919	96.19
317.148	91.19
317.377	88.19
317.607	96.19
317.836	93.19
318.065	94.19
318.295	86.19
318.524	103.19
318.753	94.19
318.983	108.19
319.212	99.19
319.441	105.19
319.67	115.19
319.9	97.19
320.129	81.19
320.358	86.19
320.587	98.19
320.816	104.19
321.046	114.19
321.275	102.19
321.504	103.19
321.733	106.19
321.962	105.19
322.191	91.19
322.42	98.19
322.649	116.19
322.878	107.19
323.108	118.19
323.337	125.19
323.566	127.19
323.795	160.19
324.024	204.19
324.253	394.19
324.482	811.19
324.71	1672.19
324.939	2101.19
325.168	774.19
325.397	250.19
325.626	149.19
325.855	131.19
326.084	116.19
326.313	104.19
326.542	166.19
326.77	224.19
326.999	433.19
327.228	898.19
327.457	1679.19
327.686	1285.19
327.914	349.19
328.143	180.19
328.372	139.19
328.6	129.19
328.829	125.19
329.058	118.19
329.287	130.19
329.515	115.19
329.744	102.19
329.972	108.19
330.201	106.19
330.43	101.19
330.658	118.19
330.887	156.19
331.115	126.19
331.344	96.19
331.572	96.19
331.801	98.19
332.03	97.19
332.258	102.19
332.486	94.19
332.715	94.19
332.943	101.19
333.172	100.19
333.4	96.19
333.629	105.19
333.857	107.19
334.085	107.19
334.314	102.19
334.542	112.19
334.771	94.19
334.999	101.19
335.227	98.19
335.455	107.19
335.684	97.19
335.912	97.19
336.14	96.19
336.369	101.19
336.597	84.19
336.825	94.19
337.053	90.19
337.281	99.19
337.51	86.19
337.738	88.19
337.966	103.19
338.194	93.19
338.422	95.19
338.65	100.19
338.878	97.19
339.106	102.19
339.334	93.19
339.562	99.19
339.79	80.19
340.018	95.19
340.246	101.19
340.474	89.19
340.702	96.19
340.93	97.19
341.158	91.19
341.386	94.19
341.614	88.19
341.842	106.19
342.07	97.19
342.298	91.19
342.526	91.19
342.754	100.19
342.981	85.19
343.209	93.19
343.437	101.19
343.665	91.19
343.893	89.19
344.12	90.19
344.348	103.19
344.576	90.19
344.804	86.19
345.031	90.19
345.259	99.19
345.487	97.19
345.714	95.19
345.942	94.19
346.17	100.19
346.397	94.19
346.625	104.19
346.853	104.19
347.08	100.19
347.308	113.19
347.535	95.19
347.763	108.19
347.99	100.19
348.218	85.19
348.445	86.19
348.673	101.19
348.9	105.19
349.128	100.19
349.355	96.19
349.583	103.19
349.81	97.19
350.037	82.19
350.265	102.19
350.492	78.19
350.72	103.19
350.947	110.19
351.174	114.19
351.402	112.19
351.629	107.19
351.856	104.19
352.083	98.19
352.311	115.19
352.538	114.19
352.765	109.19
352.992	113.19
353.22	122.19
353.447	98.19
353.674	101.19
353.901	95.19
354.128	110.19
354.355	96.19
354.583	88.19
354.81	96.19
355.037	85.19
355.264	112.19
355.491	106.19
355.718	91.19
355.945	94.19
356.172	83.19
356.399	101.19
356.626	95.19
356.853	109.19
357.08	89.19
357.307	92.19
357.534	91.19
357.761	97.19
357.988	91.19
358.215	101.19
358.441	102.19
358.668	91.19
358.895	85.19
359.122	89.19
359.349	89.19
359.576	82.19
359.802	94.19
360.029	104.19
360.256	103.19
360.483	104.19
360.709	92.19
360.936	102.19
361.163	93.19
361.39	80.19
361.616	93.19
361.843	95.19
362.07	90.19
362.296	101.19
362.523	89.19
362.749	72.19
362.976	92.19
363.203	103.19
363.429	90.19
363.656	94.19
363.882	91.19
364.109	83.19
364.335	106.19
364.562	93.19
364.788	96.19
365.015	97.19
365.241	102.19
365.468	95.19
365.694	110.19
365.92	102.19
366.147	82.19
366.373	101.19
366.599	94.19
366.826	98.19
367.052	97.19
367.278	92.19
367.505	82.19
367.731	86.19
367.957	83.19
368.184	95.19
368.41	103.19
368.636	105.19
368.862	116.19
369.089	105.19
369.315	107.19
369.541	99.19
369.767	97.19
369.993	90.19
370.219	96.19
370.445	103.19
370.672	80.19
370.898	88.19
371.124	90.19
371.35	90.19
371.576	83.19
371.802	95.19
372.028	91.19
372.254	86.19
372.48	77.19
372.706	98.19
372.932	93.19
373.158	93.19
373.384	84.19
373.61	91.19
373.835	96.19
374.061	87.19
374.287	93.19
374.513	89.19
374.739	102.19
374.965	96.19
375.191	82.19
375.416	95.19
375.642	89.19
375.868	96.19
376.094	113.19
376.319	95.19
376.545	87.19
376.771	102.19
376.997	89.19
377.222	89.19
377.448	96.19
377.674	97.19
377.899	83.19
378.125	86.19
378.35	90.19
378.576	94.19
378.802	94.19
379.027	94.19
379.253	96.19
379.478	96.19
379.704	87.19
379.929	105.19
380.155	98.19
380.38	96.19
380.606	103.19
380.831	112.19
381.057	109.19
381.282	81.19
381.507	81.19
381.733	99.19
381.958	96.19
382.184	103.19
382.409	97.19
382.634	102.19
382.86	90.19
383.085	103.19
383.31	105.19
383.535	97.19
383.761	94.19
383.986	101.19
384.211	94.19
384.436	104.19
384.662	89.19
384.887	98.19
385.112	101.19
385.337	112.19
385.562	101.19
385.787	98.19
386.013	109.19
386.238	128.19
386.463	105.19
386.688	108.19
386.913	111.19
387.138	112.19
387.363	98.19
387.588	94.19
387.813	114.19
388.038	117.19
388.263	109.19
388.488	106.19
388.713	100.19
388.938	90.19
389.163	91.19
389.387	102.19
389.612	93.19
389.837	97.19
390.062	91.19
390.287	86.19
390.512	89.19
390.736	83.19
390.961	80.19
391.186	90.19
391.411	83.19
391.636	75.19
391.86	94.19
392.085	92.19
392.31	82.19
392.534	84.19
392.759	86.19
392.984	91.19
393.208	94.19
393.433	95.19
393.658	90.19
393.882	88.19
394.107	82.19
394.331	92.19
394.556	99.19
394.78	82.19
395.005	92.19
395.229	86.19
395.454	90.19
395.678	95.19
395.903	82.19
396.127	97.19
396.352	73.19
396.576	85.19
396.801	81.19
397.025	74.19
397.249	88.19
397.474	93.19
397.698	81.19
397.922	85.19
398.147	96.19
398.371	80.19
398.595	91.19
398.82	81.19
399.044	70.19
399.268	84.19
399.492	98.19
399.717	79.19
399.941	96.19
400.165	85.19
400.389	97.19
400.613	95.19
400.837	85.19
401.062	81.19
401.286	98.19
401.51	87.19
401.734	83.19
401.958	90.19
402.182	128.19
402.406	148.19
402.63	117.19
402.854	86.19
403.078	86.19
403.302	91.19
403.526	80.19
403.75	79.19
403.974	95.19
404.198	82.19
404.422	82.19
404.645	86.19
404.869	91.19
405.093	93.19
405.317	84.19
405.541	95.19
405.765	109.19
405.988	112.19
406.212	169.19
406.436	211.19
406.66	133.19
406.883	114.19
407.107	89.19
407.331	107.19
407.555	102.19
407.778	94.19
408.002	90.19
408.226	97.19
408.449	84.19
408.673	95.19
408.896	98.19
409.12	94.19
409.344	81.19
409.567	83.19
409.791	99.19
410.014	97.19
410.238	93.19
410.461	91.19
410.685	103.19
410.908	94.19
411.132	103.19
411.355	94.19
411.578	100.19
411.802	87.19
412.025	74.19
412.249	88.19
412.472	90.19
412.695	90.19
412.919	102.19
413.142	92.19
413.365	90.19
413.589	81.19
413.812	78.19
414.035	99.19
414.258	85.19
414.482	95.19
414.705	100.19
414.928	92.19
415.151	98.19
415.374	96.19
415.597	98.19
415.821	98.19
416.044	85.19
416.267	93.19
416.49	90.19
416.713	74.19
416.936	94.19
417.159	100.19
417.382	86.19
417.605	91.19
417.828	111.19
418.051	88.19
418.274	88.19
418.497	91.19
418.72	94.19
418.943	86.19
419.166	97.19
419.389	80.19
419.611	98.19
419.834	94.19
420.057	84.19
420.28	62.19
420.503	80.19
420.726	93.19
420.948	83.19
421.171	103.19
421.394	97.19
421.617	75.19
421.839	85.19
422.062	85.19
422.285	90.19
422.507	100.19
422.73	103.19
422.953	93.19
423.175	90.19
423.398	88.19
423.621	90.19
423.843	94.19
424.066	82.19
424.288	89.19
424.511	94.19
424.733	94.19
424.956	115.19
425.178	87.19
425.401	94.19
425.623	94.19
425.846	83.19
426.068	112.19
426.291	88.19
426.513	96.19
426.735	100.19
426.958	74.19
427.18	105.19
427.402	137.19
427.625	166.19
427.847	118.19
428.069	97.19
428.292	86.19
428.514	90.19
428.736	99.19
428.958	88.19
429.181	73.19
429.403	85.19
429.625	87.19
429.847	81.19
430.069	97.19
430.292	95.19
430.514	86.19
430.736	93.19
430.958	75.19
431.18	82.19
431.402	94.19
431.624	106.19
431.846	88.19
432.068	98.19
432.29	100.19
432.512	101.19
432.734	87.19
432.956	105.19
433.178	97.19
433.4	95.19
433.622	81.19
433.844	98.19
434.066	90.19
434.287	102.19
434.509	95.19
434.731	90.19
434.953	93.19
435.175	97.19
435.397	96.19
435.618	97.19
435.84	111.19
436.062	125.19
436.284	116.19
436.505	101.19
436.727	95.19
436.949	101.19
437.17	90.19
437.392	84.19
437.614	87.19
437.835	101.19
438.057	106.19
438.278	120.19
438.5	101.19
438.721	121.19
438.943	121.19
439.165	86.19
439.386	75.19
439.608	90.19
439.829	117.19
440.05	122.19
440.272	135.19
440.493	91.19
440.715	88.19
440.936	80.19
441.158	89.19
441.379	85.19
441.6	107.19
441.822	97.19
442.043	100.19
442.264	100.19
442.486	94.19
442.707	102.19
442.928	112.19
443.149	112.19
443.371	131.19
443.592	90.19
443.813	105.19
444.034	111.19
444.255	86.19
444.476	89.19
444.698	80.19
444.919	96.19
445.14	117.19
445.361	117.19
445.582	118.19
445.803	130.19
446.024	144.19
446.245	133.19
446.466	118.19
446.687	89.19
446.908	96.19
447.129	98.19
447.35	83.19
447.571	95.19
447.792	99.19
448.013	94.19
448.234	104.19
448.455	100.19
448.675	108.19
448.896	112.19
449.117	103.19
449.338	104.19
449.559	115.19
449.779	131.19
450	99.19
450.221	95.19
450.442	98.19
450.662	95.19
450.883	103.19
451.104	118.19
451.324	93.19
451.545	89.19
451.766	86.19
451.986	90.19
452.207	99.19
452.428	98.19
452.648	105.19
452.869	106.19
453.089	104.19
453.31	103.19
453.53	84.19
453.751	100.19
453.971	116.19
454.192	113.19
454.412	98.19
454.633	86.19
454.853	90.19
455.073	106.19
455.294	83.19
455.514	87.19
455.734	83.19
455.955	82.19
456.175	86.19
456.395	70.19
456.616	90.19
456.836	101.19
457.056	86.19
457.276	90.19
457.497	102.19
457.717	90.19
457.937	81.19
458.157	90.19
458.377	90.19
458.598	109.19
458.818	147.19
459.038	151.19
459.258	110.19
459.478	110.19
459.698	89.19
459.918	86.19
460.138	84.19
460.358	94.19
460.578	86.19
460.798	103.19
461.018	97.19
461.238	89.19
461.458	95.19
461.678	85.19
461.898	83.19
462.118	100.19
462.338	92.19
462.558	81.19
462.777	84.19
462.997	82.19
463.217	84.19
463.437	90.19
463.657	79.19
463.876	82.19
464.096	90.19
464.316	89.19
464.536	78.19
464.755	95.19
464.975	111.19
465.195	164.19
465.414	149.19
465.634	98.19
465.854	81.19
466.073	89.19
466.293	75.19
466.512	93.19
466.732	90.19
466.951	95.19
467.171	101.19
467.391	107.19
467.61	98.19
467.829	85.19
468.049	97.19
468.268	85.19
468.488	89.19
468.707	84.19
468.927	90.19
469.146	75.19
469.365	90.19
469.585	94.19
469.804	98.19
470.023	100.19
470.243	103.19
470.462	93.19
470.681	92.19
470.901	83.19
471.12	101.19
471.339	85.19
471.558	90.19
471.777	104.19
471.997	92.19
472.216	96.19
472.435	102.19
472.654	87.19
472.873	86.19
473.092	98.19
473.311	81.19
473.53	86.19
473.749	85.19
473.968	104.19
474.187	102.19
474.406	99.19
474.625	81.19
474.844	86.19
475.063	99.19
475.282	71.19
475.501	81.19
475.72	81.19
475.939	103.19
476.158	87.19
476.377	90.19
476.596	94.19
476.814	102.19
477.033	90.19
477.252	87.19
477.471	101.19
477.69	91.19
477.908	95.19
478.127	89.19
478.346	82.19
478.564	93.19
478.783	106.19
479.002	85.19
479.22	96.19
479.439	105.19
479.658	84.19
479.876	96.19
480.095	90.19
480.313	102.19
480.532	83.19
480.751	91.19
480.969	99.19
481.188	127.19
481.406	114.19
481.624	90.19
481.843	93.19
482.061	93.19
482.28	86.19
482.498	65.19
482.717	88.19
482.935	92.19
483.153	90.19
483.372	95.19
483.59	82.19
483.808	93.19
484.027	99.19
484.245	103.19
484.463	102.19
484.681	92.19
484.9	83.19
485.118	83.19
485.336	99.19
485.554	95.19
485.772	103.19
485.99	105.19
486.209	107.19
486.427	104.19
486.645	102.19
486.863	104.19
487.081	89.19
487.299	96.19
487.517	93.19
487.735	97.19
487.953	97.19
488.171	105.19
488.389	103.19
488.607	101.19
488.825	92.19
489.043	82.19
489.261	105.19
489.479	89.19
489.696	91.19
489.914	94.19
490.132	93.19
490.35	95.19
490.568	101.19
490.786	89.19
491.003	87.19
491.221	103.19
491.439	103.19
491.657	92.19
491.874	89.19
492.092	93.19
492.31	93.19
492.527	82.19
492.745	91.19
492.963	79.19
493.18	93.19
493.398	99.19
493.615	93.19
493.833	104.19
494.05	94.19
494.268	100.19
494.485	97.19
494.703	99.19
494.92	93.19
495.138	81.19
495.355	97.19
495.573	100.19
495.79	90.19
496.008	80.19
496.225	105.19
496.442	94.19
496.66	106.19
496.877	91.19
497.094	88.19
497.312	90.19
497.529	87.19
497.746	83.19
497.963	95.19
498.181	95.19
498.398	104.19
498.615	111.19
498.832	99.19
499.049	98.19
499.267	86.19
499.484	89.19
499.701	87.19
499.918	100.19
500.135	98.19
500.352	100.19
500.569	98.19
500.786	97.19
501.003	82.19
501.22	91.19
501.437	86.19
501.654	93.19
501.871	98.19
502.088	90.19
502.305	93.19
502.522	91.19
502.739	89.19
502.956	95.19
503.172	89.19
503.389	93.19
503.606	110.19
503.823	103.19
504.04	106.19
504.256	92.19
504.473	101.19
504.69	101.19
504.907	100.19
505.123	92.19
505.34	93.19
505.557	94.19
505.773	91.19
505.99	102.19
506.207	100.19
506.423	91.19
506.64	100.19
506.856	92.19
507.073	108.19
507.289	90.19
507.506	98.19
507.722	97.19
507.939	110.19
508.155	97.19
508.372	101.19
508.588	93.19
508.805	104.19
509.021	87.19
509.238	96.19
509.454	118.19
509.67	101.19
509.887	105.19
510.103	134.19
510.319	243.19
510.536	791.19
510.752	2494.19
510.968	686.19
511.184	162.19
511.401	114.19
511.617	92.19
511.833	83.19
512.049	94.19
512.265	94.19
512.481	102.19
512.698	103.19
512.914	88.19
513.13	96.19
513.346	105.19
513.562	95.19
513.778	98.19
513.994	99.19
514.21	115.19
514.426	107.19
514.642	141.19
514.858	146.19
515.074	170.19
515.29	432.19
515.506	1500.19
515.721	573.19
515.937	152.19
516.153	106.19
516.369	104.19
516.585	102.19
516.801	95.19
517.016	81.19
517.232	86.19
517.448	97.19
517.664	96.19
517.879	98.19
518.095	89.19
518.311	94.19
518.527	87.19
518.742	87.19
518.958	93.19
519.173	98.19
519.389	101.19
519.605	102.19
519.82	101.19
520.036	112.19
520.251	111.19
520.467	112.19
520.682	109.19
520.898	100.19
521.113	117.19
521.329	141.19
521.544	201.19
521.76	566.19
521.975	2434.19
522.19	1465.19
522.406	317.19
522.621	127.19
522.836	116.19
523.052	110.19
523.267	94.19
523.482	105.19
523.698	95.19
523.913	119.19
524.128	104.19
524.343	101.19
524.559	86.19
524.774	95.19
524.989	114.19
525.204	107.19
525.419	97.19
525.634	88.19
525.849	89.19
526.064	90.19
526.28	88.19
526.495	96.19
526.71	81.19
526.925	89.19
527.14	93.19
527.355	96.19
527.57	90.19
527.785	91.19
527.999	111.19
528.214	89.19
528.429	90.19
528.644	92.19
528.859	77.19
529.074	100.19
529.289	134.19
529.503	170.19
529.718	102.19
529.933	91.19
530.148	93.19
530.363	82.19
530.577	91.19
530.792	97.19
531.007	97.19
531.221	97.19
531.436	80.19
531.651	109.19
531.865	89.19
532.08	91.19
532.295	96.19
532.509	88.19
532.724	99.19
532.938	97.19
533.153	92.19
533.367	99.19
533.582	101.19
533.796	93.19
534.011	105.19
534.225	85.19
534.44	98.19
534.654	97.19
534.868	91.19
535.083	96.19
535.297	108.19
535.511	115.19
535.726	109.19
535.94	105.19
536.154	110.19
536.369	90.19
536.583	89.19
536.797	90.19
537.011	88.19
537.225	90.19
537.44	90.19
537.654	88.19
537.868	86.19
538.082	105.19
538.296	84.19
538.51	105.19
538.724	86.19
538.938	101.19
539.153	96.19
539.367	86.19
539.581	94.19
539.795	96.19
540.009	103.19
540.222	97.19
540.436	94.19
540.65	90.19
540.864	90.19
541.078	102.19
541.292	107.19
541.506	93.19
541.72	89.19
541.934	94.19
542.147	80.19
542.361	89.19
542.575	97.19
542.789	90.19
543.002	85.19
543.216	87.19
543.43	106.19
543.644	102.19
543.857	106.19
544.071	83.19
544.285	93.19
544.498	95.19
544.712	79.19
544.925	90.19
545.139	81.19
545.352	94.19
545.566	92.19
545.779	96.19
545.993	82.19
546.206	103.19
546.42	75.19
546.633	94.19
546.847	86.19
547.06	95.19
547.274	88.19
547.487	94.19
547.7	81.19
547.914	92.19
548.127	100.19
548.34	87.19
548.554	80.19
548.767	91.19
548.98	82.19
549.193	91.19
549.407	91.19
549.62	88.19
549.833	94.19
550.046	71.19
550.259	93.19
550.473	106.19
550.686	102.19
550.899	102.19
551.112	91.19
551.325	88.19
551.538	98.19
551.751	99.19
551.964	78.19
552.177	93.19
552.39	87.19
552.603	86.19
552.816	91.19
553.029	103.19
553.242	91.19
553.455	104.19
553.667	105.19
553.88	98.19
554.093	105.19
554.306	85.19
554.519	94.19
554.732	91.19
554.944	90.19
555.157	91.19
555.37	84.19
555.583	93.19
555.795	92.19
556.008	85.19
556.221	99.19
556.433	85.19
556.646	105.19
556.859	91.19
557.071	105.19
557.284	101.19
557.496	79.19
557.709	91.19
557.921	91.19
558.134	84.19
558.346	105.19
558.559	88.19
558.771	85.19
558.984	95.19
559.196	84.19
559.409	104.19
559.621	90.19
559.833	80.19
560.046	82.19
560.258	79.19
560.47	87.19
560.683	89.19
560.895	101.19
561.107	101.19
561.32	86.19
561.532	89.19
561.744	87.19
561.956	77.19
562.168	92.19
562.381	97.19
562.593	114.19
562.805	86.19
563.017	101.19
563.229	93.19
563.441	86.19
563.653	101.19
563.865	95.19
564.077	97.19
564.289	89.19
564.501	85.19
564.713	96.19
564.925	88.19
565.137	98.19
565.349	87.19
565.561	95.19
565.773	85.19
565.985	104.19
566.197	102.19
566.408	100.19
566.62	92.19
566.832	75.19
567.044	103.19
567.255	92.19
567.467	81.19
567.679	72.19
567.891	89.19
568.102	94.19
568.314	100.19
568.526	90.19
568.737	79.19
568.949	83.19
569.161	79.19
569.372	78.19
569.584	85.19
569.795	93.19
570.007	135.19
570.218	260.19
570.43	137.19
570.641	97.19
570.853	85.19
571.064	84.19
571.276	99.19
571.487	78.19
571.698	84.19
571.91	86.19
572.121	95.19
572.333	86.19
572.544	82.19
572.755	88.19
572.966	93.19
573.178	103.19
573.389	95.19
573.6	92.19
573.811	76.19
574.023	94.19
574.234	96.19
574.445	85.19
574.656	88.19
574.867	104.19
575.078	89.19
575.289	95.19
575.501	91.19
575.712	82.19
575.923	79.19
576.134	90.19
576.345	101.19
576.556	88.19
576.767	81.19
576.978	91.19
577.188	84.19
577.399	109.19
577.61	97.19
577.821	102.19
578.032	130.19
578.243	293.19
578.454	825.19
578.665	242.19
578.875	107.19
579.086	100.19
579.297	109.19
579.508	77.19
579.718	86.19
579.929	93.19
580.14	84.19
580.35	91.19
580.561	118.19
580.772	88.19
580.982	91.19
581.193	98.19
581.403	65.19
581.614	87.19
581.825	80.19
582.035	85.19
582.246	88.19
582.456	78.19
582.667	87.19
582.877	98.19
583.087	77.19
583.298	86.19
583.508	89.19
583.719	89.19
583.929	81.19
584.139	94.19
584.35	89.19
584.56	110.19
584.77	86.19
584.981	85.19
585.191	91.19
585.401	90.19
585.611	103.19
585.821	98.19
586.032	90.19
586.242	82.19
586.452	101.19
586.662	95.19
586.872	81.19
587.082	90.19
587.292	85.19
587.502	102.19
587.713	85.19
587.923	94.19
588.133	96.19
588.343	89.19
588.553	87.19
588.762	85.19
588.972	76.19
589.182	83.19
589.392	71.19
589.602	80.19
589.812	98.19
590.022	85.19
590.232	94.19
590.441	81.19
590.651	82.19
590.861	104.19
591.071	96.19
591.281	87.19
591.49	79.19
591.7	99.19
591.91	109.19
592.119	89.19
592.329	98.19
592.539	75.19
592.748	87.19
592.958	95.19
593.167	87.19
593.377	97.19
593.587	95.19
593.796	87.19
594.006	85.19
594.215	79.19
594.424	82.19
594.634	81.19
594.843	95.19
595.053	80.19
595.262	86.19
595.472	85.19
595.681	80.19
595.89	91.19
596.1	94.19
596.309	90.19
596.518	78.19
596.727	91.19
596.937	90.19
597.146	86.19
597.355	93.19
597.564	77.19
597.774	85.19
597.983	86.19
598.192	81.19
598.401	77.19
598.61	85.19
598.819	89.19
599.028	95.19
599.237	90.19
599.446	84.19
599.655	91.19
599.864	76.19
600.073	80.19
600.282	78.19
600.491	96.19
600.7	90.19
600.909	77.19
601.118	97.19
601.327	78.19
601.536	77.19
601.745	99.19
601.953	90.19
602.162	79.19
602.371	97.19
602.58	93.19
602.789	88.19
602.997	99.19
603.206	89.19
603.415	90.19
603.623	84.19
603.832	91.19
604.041	103.19
604.249	85.19
604.458	90.19
604.666	91.19
604.875	97.19
605.084	87.19
605.292	97.19
605.501	81.19
605.709	81.19
605.918	100.19
606.126	91.19
606.334	92.19
606.543	101.19
606.751	83.19
606.96	71.19
607.168	90.19
607.376	90.19
607.585	92.19
607.793	94.19
608.001	99.19
608.21	95.19
608.418	98.19
608.626	98.19
608.834	95.19
609.043	86.19
609.251	80.19
609.459	91.19
609.667	92.19
609.875	84.19
610.083	83.19
610.291	100.19
610.499	90.19
610.707	97.19
610.916	80.19
611.124	79.19
611.332	81.19
611.54	87.19
611.748	87.19
611.955	84.19
612.163	79.19
612.371	84.19
612.579	80.19
612.787	91.19
612.995	87.19
613.203	75.19
613.411	92.19
613.618	80.19
613.826	92.19
614.034	97.19
614.242	69.19
614.449	84.19
614.657	77.19
614.865	91.19
615.072	91.19
615.28	80.19
615.488	79.19
615.695	102.19
615.903	99.19
616.111	88.19
616.318	94.19
616.526	84.19
616.733	105.19
616.941	89.19
617.148	89.19
617.356	101.19
617.563	94.19
617.771	95.19
617.978	86.19
618.185	82.19
618.393	80.19
618.6	78.19
618.807	88.19
619.015	94.19
619.222	91.19
619.429	78.19
619.637	89.19
619.844	92.19
620.051	89.19
620.258	88.19
620.466	86.19
620.673	94.19
620.88	88.19
621.087	83.19
621.294	83.19
621.501	96.19
621.708	91.19
621.915	86.19
622.122	90.19
622.329	79.19
622.536	91.19
622.743	96.19
622.95	87.19
623.157	81.19
623.364	93.19
623.571	86.19
623.778	73.19
623.985	89.19
624.192	88.19
624.399	77.19
624.606	84.19
624.812	90.19
625.019	95.19
625.226	83.19
625.433	94.19
625.639	74.19
625.846	74.19
626.053	82.19
626.259	75.19
626.466	86.19
626.673	77.19
626.879	81.19
627.086	74.19
627.293	99.19
627.499	104.19
627.706	91.19
627.912	91.19
628.119	93.19
628.325	99.19
628.532	89.19
628.738	97.19
628.945	82.19
629.151	84.19
629.357	93.19
629.564	85.19
629.77	80.19
629.976	75.19
630.183	88.19
630.389	86.19
630.595	73.19
630.802	80.19
631.008	90.19
631.214	68.19
631.42	89.19
631.627	79.19
631.833	79.19
632.039	79.19
632.245	82.19
632.451	92.19
632.657	80.19
632.863	98.19
633.069	96.19
633.275	95.19
633.481	94.19
633.688	82.19
633.893	82.19
634.099	69.19
634.305	90.19
634.511	94.19
634.717	88.19
634.923	96.19
635.129	91.19
635.335	78.19
635.541	99.19
635.747	71.19
635.952	98.19
636.158	76.19
636.364	90.19
636.57	89.19
636.775	93.19
636.981	75.19
637.187	91.19
637.392	89.19
637.598	80.19
637.804	90.19
638.009	99.19
638.215	85.19
638.421	99.19
638.626	84.19
638.832	83.19
639.037	74.19
639.243	86.19
639.448	84.19
639.654	81.19
639.859	87.19
640.065	89.19
640.27	87.19
640.475	95.19
640.681	83.19
640.886	98.19
641.091	76.19
641.297	77.19
641.502	79.19
641.707	90.19
641.913	81.19
642.118	82.19
642.323	88.19
642.528	82.19
642.733	86.19
642.939	96.19
643.144	88.19
643.349	82.19
643.554	101.19
643.759	93.19
643.964	97.19
644.169	84.19
644.374	81.19
644.579	72.19
644.784	81.19
644.989	99.19
645.194	70.19
645.399	90.19
645.604	72.19
645.809	93.19
646.014	95.19
646.219	88.19
646.423	84.19
646.628	83.19
646.833	81.19
647.038	104.19
647.243	89.19
647.447	90.19
647.652	93.19
647.857	96.19
648.062	87.19
648.266	74.19
648.471	101.19
648.676	99.19
648.88	80.19
649.085	106.19
649.289	92.19
649.494	101.19
649.698	130.19
649.903	104.19
650.107	81.19
650.312	85.19
650.516	94.19
650.721	91.19
650.925	91.19
651.13	90.19
651.334	85.19
651.539	72.19
651.743	85.19
651.947	99.19
652.152	90.19
652.356	87.19
652.56	86.19
652.764	85.19
652.969	77.19
653.173	77.19
653.377	83.19
653.581	78.19
653.785	78.19
653.99	97.19
654.194	91.19
654.398	93.19
654.602	74.19
654.806	97.19
655.01	108.19
655.214	97.19
655.418	89.19
655.622	88.19
655.826	85.19
656.03	96.19
656.234	79.19
656.438	92.19
656.642	87.19
656.846	91.19
657.049	81.19
657.253	94.19
657.457	86.19
657.661	90.19
657.865	90.19
658.068	83.19
658.272	81.19
658.476	91.19
658.68	78.19
658.883	90.19
659.087	87.19
659.291	74.19
659.494	78.19
659.698	74.19
659.901	80.19
660.105	94.19
660.309	74.19
660.512	92.19
660.716	74.19
660.919	89.19
661.123	80.19
661.326	84.19
661.53	93.19
661.733	84.19
661.936	88.19
662.14	82.19
662.343	69.19
662.546	80.19
662.75	81.19
662.953	85.19
663.156	83.19
663.36	75.19
663.563	91.19
663.766	85.19
663.969	78.19
664.173	87.19
664.376	95.19
664.579	94.19
664.782	88.19
664.985	88.19
665.188	76.19
665.391	86.19
665.594	72.19
665.797	72.19
666	69.19
666.203	81.19
666.406	79.19
666.609	74.19
666.812	78.19
667.015	72.19
667.218	89.19
667.421	88.19
667.624	71.19
667.827	89.19
668.03	74.19
668.232	82.19
668.435	92.19
668.638	66.19
668.841	82.19
669.043	88.19
669.246	86.19
669.449	93.19
669.651	69.19
669.854	77.19
670.057	71.19
670.259	81.19
670.462	91.19
670.665	83.19
670.867	79.19
671.07	86.19
671.272	81.19
671.475	90.19
671.677	78.19
671.88	87.19
672.082	72.19
672.284	86.19
672.487	73.19
672.689	73.19
672.892	75.19
