Data from Uncirc_2004_H10_HRD10591_00050.txt Node
Date: Wed Jan 03 10:32:22 EST 2024
User: Yrep
Spectrometer: HR+D1059
Trigger mode: 1
Integration Time (sec): 1.000000E-1
Scans to average: 1
Electric dark correction enabled: true
Nonlinearity correction enabled: false
Boxcar width: 0
XAxis mode: Wavelengths
Number of Pixels in Spectrum: 2048
>>>>>Begin Spectral Data<<<<<
223.165	-21
223.4	-21
223.635	-21
223.869	-13
224.104	-17
224.338	-13
224.573	-1
224.808	0
225.042	-13
225.277	-15
225.511	-8
225.746	5
225.98	22
226.215	6
226.449	11
226.683	8
226.918	25
227.152	24
227.387	35
227.621	33
227.856	49
228.09	58
228.324	55
228.559	52
228.793	51
229.027	79
229.262	71
229.496	76
229.73	86
229.964	89
230.199	80
230.433	89
230.667	78
230.901	79
231.136	80
231.37	74
231.604	84
231.838	76
232.072	72
232.306	85
232.541	106
232.775	86
233.009	68
233.243	88
233.477	71
233.711	80
233.945	87
234.179	78
234.413	75
234.647	83
234.881	91
235.115	79
235.349	84
235.583	91
235.817	81
236.051	72
236.285	75
236.519	74
236.753	83
236.987	72
237.221	82
237.455	80
237.689	93
237.922	83
238.156	63
238.39	63
238.624	74
238.858	66
239.091	81
239.325	86
239.559	85
239.793	92
240.027	76
240.26	75
240.494	90
240.728	82
240.961	82
241.195	73
241.429	77
241.662	65
241.896	88
242.13	71
242.363	77
242.597	73
242.83	84
243.064	83
243.298	80
243.531	76
243.765	74
243.998	98
244.232	87
244.465	89
244.699	84
244.932	74
245.166	74
245.399	90
245.633	87
245.866	87
246.099	81
246.333	95
246.566	70
246.8	74
247.033	68
247.266	89
247.5	94
247.733	86
247.966	92
248.2	84
248.433	92
248.666	92
248.899	91
249.133	95
249.366	98
249.599	99
249.832	77
250.066	84
250.299	78
250.532	91
250.765	92
250.998	79
251.231	97
251.465	76
251.698	83
251.931	80
252.164	91
252.397	81
252.63	81
252.863	87
253.096	66
253.329	84
253.562	83
253.795	80
254.028	84
254.261	97
254.494	78
254.727	69
254.96	80
255.193	62
255.426	67
255.659	88
255.892	82
256.124	71
256.357	89
256.59	85
256.823	88
257.056	81
257.289	82
257.521	81
257.754	88
257.987	74
258.22	83
258.452	91
258.685	91
258.918	90
259.151	77
259.383	78
259.616	84
259.849	74
260.081	90
260.314	76
260.547	81
260.779	84
261.012	84
261.244	97
261.477	97
261.71	103
261.942	120
262.175	111
262.407	85
262.64	85
262.872	91
263.105	86
263.337	91
263.57	81
263.802	96
264.035	85
264.267	98
264.499	76
264.732	85
264.964	78
265.197	83
265.429	86
265.661	86
265.894	96
266.126	79
266.358	80
266.591	83
266.823	78
267.055	69
267.287	73
267.52	81
267.752	90
267.984	75
268.216	80
268.448	82
268.681	88
268.913	84
269.145	83
269.377	86
269.609	82
269.841	79
270.073	95
270.306	84
270.538	96
270.77	80
271.002	76
271.234	80
271.466	73
271.698	72
271.93	94
272.162	90
272.394	79
272.626	97
272.858	81
273.09	87
273.322	85
273.553	81
273.785	71
274.017	84
274.249	93
274.481	89
274.713	91
274.945	80
275.176	82
275.408	94
275.64	84
275.872	90
276.104	98
276.335	103
276.567	96
276.799	103
277.031	90
277.262	75
277.494	91
277.726	97
277.957	91
278.189	88
278.421	94
278.652	88
278.884	86
279.115	97
279.347	78
279.579	85
279.81	92
280.042	94
280.273	90
280.505	87
280.736	91
280.968	83
281.199	86
281.431	80
281.662	89
281.894	87
282.125	90
282.356	104
282.588	119
282.819	129
283.051	79
283.282	82
283.513	96
283.745	94
283.976	95
284.207	86
284.439	80
284.67	92
284.901	79
285.132	75
285.364	91
285.595	83
285.826	88
286.057	92
286.288	91
286.52	81
286.751	87
286.982	82
287.213	75
287.444	77
287.675	89
287.906	101
288.138	69
288.369	96
288.6	91
288.831	88
289.062	91
289.293	77
289.524	89
289.755	85
289.986	93
290.217	97
290.448	94
290.679	98
290.91	90
291.141	91
291.371	80
291.602	81
291.833	90
292.064	75
292.295	80
292.526	89
292.757	89
292.987	79
293.218	69
293.449	90
293.68	83
293.91	84
294.141	102
294.372	86
294.603	87
294.833	96
295.064	96
295.295	79
295.525	89
295.756	95
295.987	102
296.217	123
296.448	123
296.679	90
296.909	91
297.14	86
297.37	90
297.601	89
297.831	82
298.062	106
298.292	90
298.523	94
298.753	89
298.984	77
299.214	92
299.445	101
299.675	86
299.905	104
300.136	92
300.366	96
300.597	96
300.827	100
301.057	89
301.288	92
301.518	98
301.748	94
301.979	98
302.209	93
302.439	96
302.669	84
302.9	92
303.13	106
303.36	97
303.59	90
303.82	106
304.051	96
304.281	106
304.511	100
304.741	94
304.971	99
305.201	87
305.431	85
305.661	89
305.891	97
306.121	86
306.352	107
306.582	102
306.812	81
307.042	93
307.272	89
307.502	88
307.731	102
307.961	105
308.191	96
308.421	87
308.651	91
308.881	87
309.111	95
309.341	91
309.571	89
309.8	99
310.03	97
310.26	88
310.49	100
310.72	94
310.949	96
311.179	95
311.409	90
311.639	84
311.868	93
312.098	111
312.328	89
312.557	100
312.787	116
313.017	105
313.246	78
313.476	81
313.706	87
313.935	89
314.165	82
314.394	104
314.624	97
314.853	99
315.083	102
315.312	96
315.542	84
315.771	106
316.001	100
316.23	82
316.46	85
316.689	78
316.919	97
317.148	86
317.377	98
317.607	84
317.836	84
318.065	98
318.295	79
318.524	95
318.753	88
318.983	104
319.212	108
319.441	112
319.67	91
319.9	84
320.129	92
320.358	87
320.587	100
320.816	102
321.046	97
321.275	111
321.504	90
321.733	99
321.962	94
322.191	102
322.42	105
322.649	108
322.878	110
323.108	108
323.337	114
323.566	132
323.795	142
324.024	203
324.253	393
324.482	795
324.71	1594
324.939	2052
325.168	743
325.397	222
325.626	136
325.855	105
326.084	119
326.313	135
326.542	139
326.77	215
326.999	458
327.228	936
327.457	1610
327.686	1270
327.914	359
328.143	176
328.372	140
328.6	117
328.829	133
329.058	134
329.287	113
329.515	110
329.744	106
329.972	84
330.201	96
330.43	121
330.658	113
330.887	127
331.115	112
331.344	105
331.572	99
331.801	99
332.03	101
332.258	98
332.486	98
332.715	104
332.943	91
333.172	86
333.4	87
333.629	108
333.857	117
334.085	96
334.314	89
334.542	102
334.771	98
334.999	98
335.227	105
335.455	99
335.684	85
335.912	86
336.14	98
336.369	100
336.597	106
336.825	77
337.053	82
337.281	85
337.51	91
337.738	93
337.966	96
338.194	111
338.422	100
338.65	96
338.878	98
339.106	107
339.334	112
339.562	100
339.79	98
340.018	107
340.246	102
340.474	90
340.702	91
340.93	106
341.158	86
341.386	102
341.614	80
341.842	99
342.07	84
342.298	88
342.526	90
342.754	87
342.981	100
343.209	95
343.437	99
343.665	96
343.893	97
344.12	96
344.348	102
344.576	98
344.804	95
345.031	94
345.259	105
345.487	102
345.714	92
345.942	91
346.17	98
346.397	88
346.625	86
346.853	84
347.08	92
347.308	108
347.535	88
347.763	93
347.99	87
348.218	99
348.445	105
348.673	93
348.9	99
349.128	92
349.355	97
349.583	92
349.81	86
350.037	94
350.265	94
350.492	90
350.72	88
350.947	91
351.174	113
351.402	93
351.629	106
351.856	94
352.083	107
352.311	103
352.538	119
352.765	108
352.992	116
353.22	111
353.447	111
353.674	112
353.901	99
354.128	92
354.355	102
354.583	104
354.81	112
355.037	103
355.264	102
355.491	103
355.718	104
355.945	88
356.172	102
356.399	86
356.626	97
356.853	84
357.08	91
357.307	96
357.534	97
357.761	104
357.988	94
358.215	98
358.441	102
358.668	97
358.895	107
359.122	102
359.349	86
359.576	86
359.802	106
360.029	119
360.256	107
360.483	91
360.709	75
360.936	92
361.163	79
361.39	98
361.616	100
361.843	98
362.07	96
362.296	102
362.523	97
362.749	96
362.976	99
363.203	95
363.429	91
363.656	80
363.882	94
364.109	99
364.335	94
364.562	94
364.788	95
365.015	114
365.241	104
365.468	89
365.694	102
365.92	102
366.147	97
366.373	78
366.599	98
366.826	102
367.052	93
367.278	98
367.505	104
367.731	92
367.957	86
368.184	88
368.41	112
368.636	107
368.862	117
369.089	99
369.315	93
369.541	103
369.767	91
369.993	102
370.219	96
370.445	84
370.672	94
370.898	97
371.124	89
371.35	82
371.576	92
371.802	94
372.028	92
372.254	109
372.48	91
372.706	92
372.932	85
373.158	87
373.384	96
373.61	96
373.835	98
374.061	86
374.287	88
374.513	79
374.739	87
374.965	89
375.191	92
375.416	83
375.642	87
375.868	106
376.094	90
376.319	92
376.545	89
376.771	90
376.997	91
377.222	109
377.448	85
377.674	103
377.899	98
378.125	89
378.35	83
378.576	84
378.802	97
379.027	100
379.253	103
379.478	96
379.704	102
379.929	97
380.155	84
380.38	93
380.606	96
380.831	98
381.057	97
381.282	99
381.507	97
381.733	99
381.958	98
382.184	108
382.409	92
382.634	108
382.86	105
383.085	104
383.31	91
383.535	89
383.761	97
383.986	95
384.211	91
384.436	99
384.662	94
384.887	112
385.112	98
385.337	104
385.562	117
385.787	94
386.013	120
386.238	109
386.463	117
386.688	102
386.913	104
387.138	91
387.363	107
387.588	90
387.813	99
388.038	98
388.263	114
388.488	100
388.713	97
388.938	87
389.163	90
389.387	92
389.612	99
389.837	87
390.062	82
390.287	82
390.512	89
390.736	100
390.961	92
391.186	95
391.411	98
391.636	99
391.86	91
392.085	73
392.31	86
392.534	78
392.759	79
392.984	91
393.208	84
393.433	92
393.658	89
393.882	91
394.107	80
394.331	83
394.556	98
394.78	102
395.005	87
395.229	84
395.454	90
395.678	77
395.903	93
396.127	94
396.352	104
396.576	102
396.801	92
397.025	97
397.249	110
397.474	107
397.698	93
397.922	90
398.147	92
398.371	95
398.595	92
398.82	85
399.044	96
399.268	81
399.492	92
399.717	104
399.941	92
400.165	80
400.389	96
400.613	87
400.837	84
401.062	105
401.286	89
401.51	76
401.734	87
401.958	107
402.182	113
402.406	155
402.63	100
402.854	93
403.078	92
403.302	87
403.526	75
403.75	86
403.974	84
404.198	97
404.422	100
404.645	108
404.869	80
405.093	111
405.317	91
405.541	93
405.765	102
405.988	118
406.212	161
406.436	199
406.66	122
406.883	99
407.107	73
407.331	103
407.555	95
407.778	79
408.002	108
408.226	98
408.449	83
408.673	82
408.896	87
409.12	95
409.344	97
409.567	91
409.791	102
410.014	92
410.238	102
410.461	86
410.685	83
410.908	94
411.132	82
411.355	101
411.578	91
411.802	75
412.025	101
412.249	85
412.472	93
412.695	86
412.919	78
413.142	96
413.365	91
413.589	87
413.812	89
414.035	102
414.258	97
414.482	91
414.705	82
414.928	86
415.151	110
415.374	100
415.597	89
415.821	85
416.044	85
416.267	91
416.49	85
416.713	83
416.936	82
417.159	88
417.382	82
417.605	91
417.828	101
418.051	92
418.274	92
418.497	89
418.72	73
418.943	82
419.166	91
419.389	86
419.611	90
419.834	90
420.057	89
420.28	100
420.503	82
420.726	91
420.948	85
421.171	83
421.394	100
421.617	100
421.839	97
422.062	95
422.285	85
422.507	108
422.73	109
422.953	92
423.175	87
423.398	92
423.621	85
423.843	86
424.066	86
424.288	79
424.511	103
424.733	112
424.956	96
425.178	94
425.401	91
425.623	98
425.846	94
426.068	115
426.291	97
426.513	95
426.735	86
426.958	96
427.18	96
427.402	119
427.625	146
427.847	112
428.069	92
428.292	96
428.514	81
428.736	87
428.958	81
429.181	93
429.403	86
429.625	73
429.847	92
430.069	94
430.292	82
430.514	72
430.736	80
430.958	84
431.18	98
431.402	85
431.624	98
431.846	94
432.068	81
432.29	88
432.512	96
432.734	91
432.956	101
433.178	106
433.4	100
433.622	92
433.844	94
434.066	91
434.287	70
434.509	96
434.731	91
434.953	87
435.175	84
435.397	81
435.618	92
435.84	112
436.062	107
436.284	102
436.505	91
436.727	105
436.949	98
437.17	95
437.392	88
437.614	105
437.835	107
438.057	100
438.278	102
438.5	103
438.721	106
438.943	112
439.165	89
439.386	84
439.608	83
439.829	94
440.05	117
440.272	135
440.493	108
440.715	92
440.936	73
441.158	106
441.379	79
441.6	92
441.822	83
442.043	94
442.264	105
442.486	86
442.707	93
442.928	98
443.149	103
443.371	115
443.592	99
443.813	86
444.034	96
444.255	92
444.476	84
444.698	79
444.919	106
445.14	125
445.361	121
445.582	120
445.803	118
446.024	116
446.245	127
446.466	105
446.687	82
446.908	98
447.129	91
447.35	79
447.571	93
447.792	88
448.013	100
448.234	100
448.455	82
448.675	90
448.896	97
449.117	94
449.338	111
449.559	112
449.779	115
450	97
450.221	90
450.442	102
450.662	98
450.883	100
451.104	102
451.324	111
451.545	97
451.766	92
451.986	77
452.207	86
452.428	98
452.648	94
452.869	112
453.089	109
453.31	104
453.53	89
453.751	91
453.971	99
454.192	104
454.412	101
454.633	89
454.853	99
455.073	90
455.294	79
455.514	97
455.734	83
455.955	104
456.175	92
456.395	97
456.616	75
456.836	75
457.056	91
457.276	88
457.497	84
457.717	100
457.937	87
458.157	86
458.377	100
458.598	98
458.818	127
459.038	150
459.258	112
459.478	87
459.698	89
459.918	87
460.138	82
460.358	93
460.578	96
460.798	98
461.018	90
461.238	96
461.458	70
461.678	84
461.898	107
462.118	82
462.338	87
462.558	93
462.777	87
462.997	78
463.217	94
463.437	81
463.657	85
463.876	104
464.096	82
464.316	104
464.536	94
464.755	94
464.975	104
465.195	147
465.414	148
465.634	104
465.854	108
466.073	82
466.293	101
466.512	88
466.732	87
466.951	83
467.171	104
467.391	116
467.61	94
467.829	91
468.049	91
468.268	88
468.488	77
468.707	68
468.927	85
469.146	88
469.365	89
469.585	96
469.804	102
470.023	95
470.243	72
470.462	90
470.681	118
470.901	89
471.12	88
471.339	87
471.558	88
471.777	78
471.997	100
472.216	107
472.435	111
472.654	94
472.873	108
473.092	84
473.311	81
473.53	87
473.749	98
473.968	96
474.187	99
474.406	85
474.625	85
474.844	78
475.063	85
475.282	95
475.501	90
475.72	87
475.939	107
476.158	87
476.377	84
476.596	98
476.814	85
477.033	110
477.252	98
477.471	95
477.69	85
477.908	94
478.127	95
478.346	94
478.564	89
478.783	89
479.002	81
479.22	96
479.439	103
479.658	104
479.876	87
480.095	84
480.313	84
480.532	92
480.751	90
480.969	89
481.188	110
481.406	100
481.624	99
481.843	85
482.061	77
482.28	80
482.498	91
482.717	92
482.935	90
483.153	86
483.372	94
483.59	86
483.808	105
484.027	85
484.245	88
484.463	84
484.681	94
484.9	87
485.118	101
485.336	100
485.554	105
485.772	98
485.99	90
486.209	89
486.427	94
486.645	96
486.863	108
487.081	109
487.299	98
487.517	101
487.735	86
487.953	94
488.171	103
488.389	112
488.607	104
488.825	95
489.043	87
489.261	84
489.479	84
489.696	94
489.914	83
490.132	91
490.35	91
490.568	98
490.786	83
491.003	76
491.221	79
491.439	84
491.657	90
491.874	95
492.092	95
492.31	97
492.527	91
492.745	83
492.963	81
493.18	107
493.398	89
493.615	104
493.833	91
494.05	89
494.268	79
494.485	105
494.703	87
494.92	86
495.138	81
495.355	87
495.573	86
495.79	89
496.008	88
496.225	89
496.442	90
496.66	81
496.877	79
497.094	81
497.312	98
497.529	98
497.746	96
497.963	94
498.181	81
498.398	90
498.615	115
498.832	99
499.049	85
499.267	93
499.484	83
499.701	91
499.918	88
500.135	83
500.352	84
500.569	98
500.786	103
501.003	82
501.22	81
501.437	94
501.654	90
501.871	109
502.088	110
502.305	88
502.522	85
502.739	93
502.956	75
503.172	86
503.389	94
503.606	96
503.823	103
504.04	102
504.256	87
504.473	94
504.69	83
504.907	88
505.123	84
505.34	94
505.557	82
505.773	85
505.99	109
506.207	79
506.423	87
506.64	83
506.856	79
507.073	102
507.289	90
507.506	90
507.722	99
507.939	104
508.155	95
508.372	91
508.588	89
508.805	74
509.021	100
509.238	103
509.454	109
509.67	108
509.887	112
510.103	128
510.319	212
510.536	724
510.752	2286
510.968	646
511.184	163
511.401	129
511.617	94
511.833	103
512.049	88
512.265	90
512.481	80
512.698	84
512.914	94
513.13	93
513.346	108
513.562	82
513.778	93
513.994	96
514.21	103
514.426	105
514.642	136
514.858	121
515.074	162
515.29	432
515.506	1371
515.721	504
515.937	145
516.153	100
516.369	107
516.585	100
516.801	108
517.016	97
517.232	84
517.448	95
517.664	87
517.879	103
518.095	86
518.311	84
518.527	98
518.742	90
518.958	95
519.173	105
519.389	83
519.605	84
519.82	113
520.036	113
520.251	119
520.467	123
520.682	102
520.898	100
521.113	111
521.329	150
521.544	184
521.76	542
521.975	2224
522.19	1367
522.406	280
522.621	120
522.836	103
523.052	90
523.267	85
523.482	94
523.698	119
523.913	107
524.128	105
524.343	106
524.559	111
524.774	86
524.989	86
525.204	87
525.419	100
525.634	83
525.849	91
526.064	105
526.28	102
526.495	85
526.71	91
526.925	74
527.14	90
527.355	96
527.57	85
527.785	79
527.999	92
528.214	107
528.429	89
528.644	87
528.859	81
529.074	97
529.289	109
529.503	174
529.718	114
529.933	88
530.148	87
530.363	87
530.577	76
530.792	99
531.007	86
531.221	95
531.436	98
531.651	101
531.865	91
532.08	98
532.295	82
532.509	88
532.724	89
532.938	89
533.153	96
533.367	88
533.582	94
533.796	88
534.011	88
534.225	94
534.44	97
534.654	92
534.868	83
535.083	92
535.297	114
535.511	102
535.726	98
535.94	93
536.154	98
536.369	91
536.583	91
536.797	106
537.011	89
537.225	102
537.44	98
537.654	95
537.868	90
538.082	96
538.296	90
538.51	93
538.724	98
538.938	95
539.153	94
539.367	103
539.581	102
539.795	96
540.009	86
540.222	94
540.436	100
540.65	91
540.864	86
541.078	95
541.292	94
541.506	92
541.72	98
541.934	105
542.147	99
542.361	86
542.575	96
542.789	90
543.002	88
543.216	95
543.43	98
543.644	88
543.857	102
544.071	92
544.285	89
544.498	109
544.712	102
544.925	101
545.139	91
545.352	85
545.566	87
545.779	98
545.993	92
546.206	89
546.42	97
546.633	91
546.847	91
547.06	83
547.274	72
547.487	91
547.7	83
547.914	91
548.127	88
548.34	94
548.554	80
548.767	87
548.98	97
549.193	86
549.407	85
549.62	88
549.833	92
550.046	86
550.259	79
550.473	90
550.686	83
550.899	85
551.112	100
551.325	93
551.538	89
551.751	86
551.964	74
552.177	101
552.39	88
552.603	89
552.816	81
553.029	78
553.242	100
553.455	90
553.667	99
553.88	100
554.093	95
554.306	84
554.519	90
554.732	80
554.944	83
555.157	91
555.37	96
555.583	91
555.795	109
556.008	92
556.221	102
556.433	90
556.646	84
556.859	91
557.071	91
557.284	92
557.496	83
557.709	98
557.921	89
558.134	80
558.346	94
558.559	95
558.771	92
558.984	91
559.196	86
559.409	90
559.621	99
559.833	100
560.046	91
560.258	97
560.47	86
560.683	86
560.895	99
561.107	100
561.32	105
561.532	104
561.744	103
561.956	95
562.168	89
562.381	81
562.593	99
562.805	104
563.017	100
563.229	86
563.441	88
563.653	102
563.865	83
564.077	89
564.289	84
564.501	110
564.713	91
564.925	94
565.137	105
565.349	87
565.561	104
565.773	87
565.985	102
566.197	86
566.408	73
566.62	92
566.832	90
567.044	85
567.255	72
567.467	84
567.679	86
567.891	87
568.102	72
568.314	95
568.526	104
568.737	87
568.949	80
569.161	89
569.372	94
569.584	93
569.795	101
570.007	114
570.218	238
570.43	145
570.641	94
570.853	85
571.064	90
571.276	84
571.487	111
571.698	96
571.91	92
572.121	84
572.333	99
572.544	92
572.755	86
572.966	87
573.178	100
573.389	88
573.6	110
573.811	94
574.023	75
574.234	84
574.445	89
574.656	88
574.867	90
575.078	85
575.289	83
575.501	93
575.712	94
575.923	88
576.134	103
576.345	86
576.556	103
576.767	86
576.978	105
577.188	100
577.399	91
577.61	103
577.821	106
578.032	121
578.243	274
578.454	756
578.665	209
578.875	105
579.086	83
579.297	78
579.508	99
579.718	96
579.929	91
580.14	76
580.35	88
580.561	88
580.772	97
580.982	94
581.193	83
581.403	93
581.614	96
581.825	89
582.035	85
582.246	83
582.456	80
582.667	88
582.877	88
583.087	85
583.298	91
583.508	89
583.719	93
583.929	94
584.139	87
584.35	87
584.56	82
584.77	90
584.981	97
585.191	84
585.401	84
585.611	99
585.821	89
586.032	84
586.242	89
586.452	87
586.662	101
586.872	90
587.082	79
587.292	90
587.502	67
587.713	89
587.923	104
588.133	100
588.343	80
588.553	90
588.762	92
588.972	88
589.182	103
589.392	83
589.602	95
589.812	94
590.022	98
590.232	85
590.441	83
590.651	105
590.861	79
591.071	100
591.281	76
591.49	80
591.7	90
591.91	95
592.119	86
592.329	83
592.539	79
592.748	89
592.958	89
593.167	91
593.377	89
593.587	79
593.796	90
594.006	84
594.215	86
594.424	90
594.634	96
594.843	84
595.053	80
595.262	74
595.472	96
595.681	95
595.89	82
596.1	89
596.309	85
596.518	103
596.727	66
596.937	94
597.146	83
597.355	89
597.564	83
597.774	83
597.983	89
598.192	92
598.401	102
598.61	81
598.819	86
599.028	89
599.237	96
599.446	90
599.655	89
599.864	92
600.073	92
600.282	98
600.491	93
600.7	77
600.909	83
601.118	93
601.327	101
601.536	96
601.745	107
601.953	85
602.162	91
602.371	93
602.58	84
602.789	94
602.997	90
603.206	100
603.415	86
603.623	75
603.832	84
604.041	74
604.249	82
604.458	101
604.666	83
604.875	85
605.084	84
605.292	94
605.501	87
605.709	94
605.918	77
606.126	93
606.334	73
606.543	85
606.751	108
606.96	85
607.168	84
607.376	89
607.585	76
607.793	88
608.001	71
608.21	93
608.418	88
608.626	81
608.834	73
609.043	85
609.251	82
609.459	83
609.667	86
609.875	89
610.083	84
610.291	86
610.499	73
610.707	83
610.916	82
611.124	84
611.332	79
611.54	85
611.748	83
611.955	81
612.163	84
612.371	82
612.579	89
612.787	96
612.995	92
613.203	85
613.411	72
613.618	96
613.826	86
614.034	70
614.242	90
614.449	84
614.657	90
614.865	84
615.072	104
615.28	92
615.488	82
615.695	79
615.903	95
616.111	105
616.318	101
616.526	97
616.733	99
616.941	86
617.148	78
617.356	88
617.563	101
617.771	98
617.978	82
618.185	81
618.393	87
618.6	95
618.807	95
619.015	67
619.222	95
619.429	91
619.637	84
619.844	82
620.051	85
620.258	87
620.466	77
620.673	89
620.88	87
621.087	104
621.294	84
621.501	85
621.708	83
621.915	98
622.122	90
622.329	80
622.536	91
622.743	60
622.95	94
623.157	97
623.364	88
623.571	93
623.778	84
623.985	90
624.192	88
624.399	85
624.606	89
624.812	90
625.019	89
625.226	89
625.433	91
625.639	68
625.846	82
626.053	83
626.259	71
626.466	91
626.673	104
626.879	81
627.086	82
627.293	79
627.499	85
627.706	91
627.912	92
628.119	90
628.325	88
628.532	96
628.738	97
628.945	87
629.151	83
629.357	72
629.564	82
629.77	79
629.976	85
630.183	90
630.389	80
630.595	83
630.802	89
631.008	91
631.214	79
631.42	75
631.627	64
631.833	73
632.039	75
632.245	90
632.451	94
632.657	88
632.863	74
633.069	86
633.275	74
633.481	79
633.688	90
633.893	99
634.099	79
634.305	74
634.511	79
634.717	72
634.923	90
635.129	83
635.335	88
635.541	76
635.747	88
635.952	92
636.158	88
636.364	75
636.57	82
636.775	74
636.981	86
637.187	88
637.392	85
637.598	82
637.804	92
638.009	95
638.215	87
638.421	94
638.626	81
638.832	79
639.037	80
639.243	72
639.448	83
639.654	89
639.859	82
640.065	78
640.27	91
640.475	75
640.681	84
640.886	91
641.091	84
641.297	102
641.502	75
641.707	89
641.913	92
642.118	87
642.323	87
642.528	95
642.733	82
642.939	77
643.144	91
643.349	79
643.554	92
643.759	75
643.964	89
644.169	79
644.374	79
644.579	89
644.784	70
644.989	83
645.194	82
645.399	87
645.604	89
645.809	82
646.014	78
646.219	83
646.423	86
646.628	71
646.833	87
647.038	78
647.243	101
647.447	91
647.652	88
647.857	96
648.062	110
648.266	84
648.471	94
648.676	94
648.88	86
649.085	89
649.289	86
649.494	107
649.698	148
649.903	98
650.107	92
650.312	78
650.516	74
650.721	97
650.925	86
651.13	86
651.334	80
651.539	90
651.743	90
651.947	87
652.152	73
652.356	81
652.56	100
652.764	77
652.969	72
653.173	86
653.377	86
653.581	68
653.785	66
653.99	81
654.194	84
654.398	76
654.602	87
654.806	93
655.01	96
655.214	83
655.418	87
655.622	76
655.826	86
656.03	94
656.234	88
656.438	88
656.642	82
656.846	87
657.049	95
657.253	85
657.457	98
657.661	84
657.865	90
658.068	89
658.272	87
658.476	83
658.68	87
658.883	75
659.087	98
659.291	82
659.494	86
659.698	71
659.901	83
660.105	90
660.309	89
660.512	75
660.716	93
660.919	84
661.123	89
661.326	80
661.53	84
661.733	72
661.936	73
662.14	75
662.343	73
662.546	79
662.75	70
662.953	82
663.156	91
663.36	93
663.563	86
663.766	80
663.969	98
664.173	83
664.376	73
664.579	91
664.782	78
664.985	83
665.188	69
665.391	79
665.594	87
665.797	81
666	79
666.203	81
666.406	82
666.609	84
666.812	94
667.015	86
667.218	79
667.421	81
667.624	76
667.827	85
668.03	78
668.232	78
668.435	82
668.638	86
668.841	81
669.043	81
669.246	68
669.449	76
669.651	82
669.854	77
670.057	86
670.259	90
670.462	89
670.665	84
670.867	84
671.07	82
671.272	86
671.475	93
671.677	68
671.88	80
672.082	84
672.284	84
672.487	82
672.689	87
672.892	79
