Data from HP_3_HRD10591_00022.txt Node
Date: Mon Jan 19 14:17:11 EST 2026
User: Yrep
Spectrometer: HR+D1059
Trigger mode: 1
Integration Time (sec): 1.000000E-1
Scans to average: 1
Electric dark correction enabled: true
Nonlinearity correction enabled: false
Boxcar width: 0
XAxis mode: Wavelengths
Number of Pixels in Spectrum: 2048
>>>>>Begin Spectral Data<<<<<
223.165	-20.94
223.4	-20.94
223.635	-20.94
223.869	-25.94
224.104	-11.94
224.338	-17.94
224.573	-6.94
224.808	-12.94
225.042	0.06
225.277	-7.94
225.511	-4.94
225.746	6.06
225.98	14.06
226.215	9.06
226.449	9.06
226.683	19.06
226.918	27.06
227.152	25.06
227.387	36.06
227.621	15.06
227.856	48.06
228.09	30.06
228.324	50.06
228.559	52.06
228.793	59.06
229.027	62.06
229.262	61.06
229.496	79.06
229.73	65.06
229.964	62.06
230.199	63.06
230.433	65.06
230.667	74.06
230.901	79.06
231.136	73.06
231.37	84.06
231.604	78.06
231.838	66.06
232.072	70.06
232.306	71.06
232.541	63.06
232.775	85.06
233.009	80.06
233.243	74.06
233.477	68.06
233.711	72.06
233.945	77.06
234.179	73.06
234.413	83.06
234.647	78.06
234.881	86.06
235.115	82.06
235.349	77.06
235.583	66.06
235.817	79.06
236.051	75.06
236.285	86.06
236.519	72.06
236.753	77.06
236.987	87.06
237.221	69.06
237.455	60.06
237.689	84.06
237.922	75.06
238.156	72.06
238.39	74.06
238.624	73.06
238.858	73.06
239.091	82.06
239.325	82.06
239.559	67.06
239.793	62.06
240.027	74.06
240.26	68.06
240.494	73.06
240.728	79.06
240.961	68.06
241.195	63.06
241.429	71.06
241.662	79.06
241.896	78.06
242.13	70.06
242.363	69.06
242.597	78.06
242.83	60.06
243.064	86.06
243.298	76.06
243.531	88.06
243.765	67.06
243.998	86.06
244.232	86.06
244.465	71.06
244.699	69.06
244.932	73.06
245.166	84.06
245.399	76.06
245.633	86.06
245.866	60.06
246.099	67.06
246.333	75.06
246.566	72.06
246.8	84.06
247.033	86.06
247.266	73.06
247.5	76.06
247.733	79.06
247.966	84.06
248.2	81.06
248.433	72.06
248.666	74.06
248.899	90.06
249.133	74.06
249.366	74.06
249.599	85.06
249.832	77.06
250.066	82.06
250.299	78.06
250.532	79.06
250.765	72.06
250.998	78.06
251.231	68.06
251.465	90.06
251.698	76.06
251.931	79.06
252.164	91.06
252.397	74.06
252.63	77.06
252.863	90.06
253.096	70.06
253.329	74.06
253.562	77.06
253.795	81.06
254.028	66.06
254.261	81.06
254.494	74.06
254.727	89.06
254.96	91.06
255.193	82.06
255.426	70.06
255.659	70.06
255.892	81.06
256.124	80.06
256.357	77.06
256.59	68.06
256.823	73.06
257.056	82.06
257.289	72.06
257.521	79.06
257.754	88.06
257.987	92.06
258.22	80.06
258.452	79.06
258.685	78.06
258.918	87.06
259.151	71.06
259.383	70.06
259.616	81.06
259.849	67.06
260.081	77.06
260.314	80.06
260.547	83.06
260.779	78.06
261.012	64.06
261.244	82.06
261.477	78.06
261.71	76.06
261.942	76.06
262.175	67.06
262.407	80.06
262.64	78.06
262.872	85.06
263.105	74.06
263.337	88.06
263.57	86.06
263.802	65.06
264.035	71.06
264.267	70.06
264.499	79.06
264.732	87.06
264.964	88.06
265.197	75.06
265.429	84.06
265.661	78.06
265.894	79.06
266.126	90.06
266.358	69.06
266.591	82.06
266.823	82.06
267.055	81.06
267.287	84.06
267.52	76.06
267.752	92.06
267.984	74.06
268.216	70.06
268.448	72.06
268.681	83.06
268.913	90.06
269.145	70.06
269.377	64.06
269.609	84.06
269.841	87.06
270.073	77.06
270.306	86.06
270.538	101.06
270.77	88.06
271.002	86.06
271.234	86.06
271.466	82.06
271.698	82.06
271.93	83.06
272.162	77.06
272.394	74.06
272.626	73.06
272.858	87.06
273.09	77.06
273.322	76.06
273.553	81.06
273.785	89.06
274.017	86.06
274.249	83.06
274.481	89.06
274.713	75.06
274.945	83.06
275.176	96.06
275.408	87.06
275.64	71.06
275.872	85.06
276.104	69.06
276.335	75.06
276.567	82.06
276.799	82.06
277.031	80.06
277.262	92.06
277.494	79.06
277.726	82.06
277.957	64.06
278.189	80.06
278.421	76.06
278.652	76.06
278.884	77.06
279.115	71.06
279.347	75.06
279.579	87.06
279.81	67.06
280.042	99.06
280.273	71.06
280.505	67.06
280.736	77.06
280.968	71.06
281.199	81.06
281.431	76.06
281.662	88.06
281.894	88.06
282.125	87.06
282.356	81.06
282.588	74.06
282.819	77.06
283.051	87.06
283.282	84.06
283.513	90.06
283.745	86.06
283.976	79.06
284.207	83.06
284.439	63.06
284.67	88.06
284.901	82.06
285.132	76.06
285.364	94.06
285.595	86.06
285.826	73.06
286.057	89.06
286.288	88.06
286.52	87.06
286.751	81.06
286.982	104.06
287.213	72.06
287.444	86.06
287.675	80.06
287.906	88.06
288.138	96.06
288.369	86.06
288.6	83.06
288.831	90.06
289.062	89.06
289.293	97.06
289.524	82.06
289.755	82.06
289.986	79.06
290.217	82.06
290.448	90.06
290.679	76.06
290.91	76.06
291.141	91.06
291.371	76.06
291.602	95.06
291.833	90.06
292.064	99.06
292.295	89.06
292.526	91.06
292.757	79.06
292.987	76.06
293.218	77.06
293.449	75.06
293.68	60.06
293.91	85.06
294.141	82.06
294.372	87.06
294.603	75.06
294.833	90.06
295.064	98.06
295.295	68.06
295.525	81.06
295.756	93.06
295.987	84.06
296.217	75.06
296.448	66.06
296.679	77.06
296.909	79.06
297.14	76.06
297.37	84.06
297.601	87.06
297.831	78.06
298.062	84.06
298.292	88.06
298.523	91.06
298.753	82.06
298.984	83.06
299.214	79.06
299.445	81.06
299.675	80.06
299.905	87.06
300.136	76.06
300.366	82.06
300.597	90.06
300.827	85.06
301.057	87.06
301.288	75.06
301.518	80.06
301.748	86.06
301.979	80.06
302.209	81.06
302.439	95.06
302.669	72.06
302.9	82.06
303.13	79.06
303.36	82.06
303.59	76.06
303.82	81.06
304.051	75.06
304.281	75.06
304.511	89.06
304.741	80.06
304.971	82.06
305.201	82.06
305.431	84.06
305.661	96.06
305.891	85.06
306.121	83.06
306.352	75.06
306.582	94.06
306.812	83.06
307.042	86.06
307.272	82.06
307.502	88.06
307.731	66.06
307.961	88.06
308.191	78.06
308.421	80.06
308.651	94.06
308.881	81.06
309.111	83.06
309.341	89.06
309.571	100.06
309.8	74.06
310.03	74.06
310.26	84.06
310.49	88.06
310.72	92.06
310.949	85.06
311.179	90.06
311.409	91.06
311.639	90.06
311.868	86.06
312.098	76.06
312.328	91.06
312.557	74.06
312.787	86.06
313.017	78.06
313.246	85.06
313.476	79.06
313.706	92.06
313.935	101.06
314.165	95.06
314.394	75.06
314.624	88.06
314.853	82.06
315.083	90.06
315.312	86.06
315.542	86.06
315.771	85.06
316.001	86.06
316.23	97.06
316.46	86.06
316.689	83.06
316.919	97.06
317.148	77.06
317.377	77.06
317.607	97.06
317.836	80.06
318.065	102.06
318.295	79.06
318.524	93.06
318.753	78.06
318.983	80.06
319.212	76.06
319.441	95.06
319.67	68.06
319.9	88.06
320.129	80.06
320.358	87.06
320.587	75.06
320.816	80.06
321.046	78.06
321.275	93.06
321.504	76.06
321.733	90.06
321.962	70.06
322.191	92.06
322.42	86.06
322.649	67.06
322.878	89.06
323.108	87.06
323.337	65.06
323.566	78.06
323.795	76.06
324.024	77.06
324.253	82.06
324.482	83.06
324.71	75.06
324.939	79.06
325.168	80.06
325.397	87.06
325.626	89.06
325.855	95.06
326.084	74.06
326.313	81.06
326.542	98.06
326.77	90.06
326.999	97.06
327.228	89.06
327.457	88.06
327.686	82.06
327.914	80.06
328.143	83.06
328.372	79.06
328.6	89.06
328.829	75.06
329.058	77.06
329.287	75.06
329.515	90.06
329.744	84.06
329.972	85.06
330.201	73.06
330.43	94.06
330.658	86.06
330.887	75.06
331.115	75.06
331.344	90.06
331.572	82.06
331.801	87.06
332.03	76.06
332.258	74.06
332.486	85.06
332.715	82.06
332.943	82.06
333.172	100.06
333.4	96.06
333.629	78.06
333.857	69.06
334.085	94.06
334.314	84.06
334.542	84.06
334.771	77.06
334.999	93.06
335.227	86.06
335.455	90.06
335.684	92.06
335.912	75.06
336.14	86.06
336.369	78.06
336.597	73.06
336.825	90.06
337.053	77.06
337.281	90.06
337.51	78.06
337.738	85.06
337.966	89.06
338.194	75.06
338.422	88.06
338.65	79.06
338.878	88.06
339.106	86.06
339.334	85.06
339.562	79.06
339.79	68.06
340.018	87.06
340.246	91.06
340.474	84.06
340.702	86.06
340.93	101.06
341.158	87.06
341.386	86.06
341.614	71.06
341.842	66.06
342.07	82.06
342.298	85.06
342.526	88.06
342.754	76.06
342.981	82.06
343.209	80.06
343.437	80.06
343.665	88.06
343.893	71.06
344.12	90.06
344.348	91.06
344.576	81.06
344.804	72.06
345.031	78.06
345.259	81.06
345.487	68.06
345.714	88.06
345.942	80.06
346.17	77.06
346.397	75.06
346.625	90.06
346.853	74.06
347.08	88.06
347.308	99.06
347.535	83.06
347.763	82.06
347.99	79.06
348.218	95.06
348.445	93.06
348.673	79.06
348.9	89.06
349.128	91.06
349.355	71.06
349.583	87.06
349.81	86.06
350.037	74.06
350.265	72.06
350.492	88.06
350.72	84.06
350.947	79.06
351.174	83.06
351.402	80.06
351.629	87.06
351.856	82.06
352.083	77.06
352.311	83.06
352.538	66.06
352.765	85.06
352.992	94.06
353.22	92.06
353.447	99.06
353.674	85.06
353.901	94.06
354.128	76.06
354.355	91.06
354.583	85.06
354.81	73.06
355.037	98.06
355.264	82.06
355.491	80.06
355.718	82.06
355.945	78.06
356.172	92.06
356.399	92.06
356.626	82.06
356.853	94.06
357.08	91.06
357.307	75.06
357.534	79.06
357.761	101.06
357.988	82.06
358.215	82.06
358.441	80.06
358.668	79.06
358.895	86.06
359.122	90.06
359.349	84.06
359.576	72.06
359.802	80.06
360.029	72.06
360.256	77.06
360.483	75.06
360.709	88.06
360.936	87.06
361.163	83.06
361.39	95.06
361.616	86.06
361.843	92.06
362.07	86.06
362.296	75.06
362.523	82.06
362.749	71.06
362.976	94.06
363.203	88.06
363.429	76.06
363.656	68.06
363.882	87.06
364.109	82.06
364.335	89.06
364.562	91.06
364.788	97.06
365.015	99.06
365.241	80.06
365.468	95.06
365.694	93.06
365.92	73.06
366.147	81.06
366.373	82.06
366.599	79.06
366.826	90.06
367.052	75.06
367.278	98.06
367.505	73.06
367.731	86.06
367.957	89.06
368.184	82.06
368.41	84.06
368.636	82.06
368.862	78.06
369.089	78.06
369.315	77.06
369.541	90.06
369.767	88.06
369.993	99.06
370.219	75.06
370.445	84.06
370.672	67.06
370.898	90.06
371.124	80.06
371.35	76.06
371.576	74.06
371.802	90.06
372.028	82.06
372.254	88.06
372.48	94.06
372.706	84.06
372.932	65.06
373.158	71.06
373.384	90.06
373.61	101.06
373.835	97.06
374.061	85.06
374.287	94.06
374.513	101.06
374.739	84.06
374.965	84.06
375.191	85.06
375.416	92.06
375.642	83.06
375.868	100.06
376.094	80.06
376.319	90.06
376.545	86.06
376.771	94.06
376.997	76.06
377.222	79.06
377.448	86.06
377.674	87.06
377.899	80.06
378.125	81.06
378.35	101.06
378.576	91.06
378.802	85.06
379.027	84.06
379.253	97.06
379.478	78.06
379.704	84.06
379.929	88.06
380.155	91.06
380.38	89.06
380.606	83.06
380.831	76.06
381.057	94.06
381.282	90.06
381.507	91.06
381.733	100.06
381.958	104.06
382.184	79.06
382.409	83.06
382.634	106.06
382.86	85.06
383.085	86.06
383.31	80.06
383.535	87.06
383.761	78.06
383.986	99.06
384.211	89.06
384.436	94.06
384.662	83.06
384.887	79.06
385.112	76.06
385.337	87.06
385.562	80.06
385.787	96.06
386.013	96.06
386.238	74.06
386.463	68.06
386.688	98.06
386.913	83.06
387.138	91.06
387.363	86.06
387.588	92.06
387.813	79.06
388.038	71.06
388.263	83.06
388.488	98.06
388.713	78.06
388.938	76.06
389.163	82.06
389.387	91.06
389.612	80.06
389.837	84.06
390.062	86.06
390.287	81.06
390.512	91.06
390.736	76.06
390.961	93.06
391.186	70.06
391.411	78.06
391.636	86.06
391.86	76.06
392.085	80.06
392.31	73.06
392.534	77.06
392.759	94.06
392.984	115.06
393.208	152.06
393.433	194.06
393.658	150.06
393.882	99.06
394.107	101.06
394.331	95.06
394.556	99.06
394.78	88.06
395.005	99.06
395.229	90.06
395.454	94.06
395.678	102.06
395.903	90.06
396.127	112.06
396.352	105.06
396.576	116.06
396.801	161.06
397.025	175.06
397.249	122.06
397.474	88.06
397.698	105.06
397.922	87.06
398.147	78.06
398.371	82.06
398.595	76.06
398.82	84.06
399.044	90.06
399.268	88.06
399.492	73.06
399.717	71.06
399.941	84.06
400.165	83.06
400.389	95.06
400.613	83.06
400.837	85.06
401.062	79.06
401.286	87.06
401.51	85.06
401.734	90.06
401.958	74.06
402.182	69.06
402.406	75.06
402.63	92.06
402.854	88.06
403.078	91.06
403.302	87.06
403.526	70.06
403.75	83.06
403.974	75.06
404.198	75.06
404.422	83.06
404.645	77.06
404.869	70.06
405.093	83.06
405.317	71.06
405.541	79.06
405.765	90.06
405.988	84.06
406.212	88.06
406.436	81.06
406.66	90.06
406.883	83.06
407.107	86.06
407.331	61.06
407.555	84.06
407.778	84.06
408.002	93.06
408.226	82.06
408.449	91.06
408.673	88.06
408.896	88.06
409.12	73.06
409.344	76.06
409.567	78.06
409.791	75.06
410.014	94.06
410.238	84.06
410.461	75.06
410.685	78.06
410.908	77.06
411.132	94.06
411.355	74.06
411.578	75.06
411.802	83.06
412.025	88.06
412.249	76.06
412.472	84.06
412.695	80.06
412.919	84.06
413.142	78.06
413.365	84.06
413.589	89.06
413.812	79.06
414.035	104.06
414.258	76.06
414.482	84.06
414.705	86.06
414.928	87.06
415.151	71.06
415.374	81.06
415.597	75.06
415.821	89.06
416.044	68.06
416.267	82.06
416.49	76.06
416.713	72.06
416.936	90.06
417.159	72.06
417.382	75.06
417.605	68.06
417.828	71.06
418.051	73.06
418.274	76.06
418.497	76.06
418.72	87.06
418.943	83.06
419.166	82.06
419.389	88.06
419.611	88.06
419.834	87.06
420.057	86.06
420.28	85.06
420.503	87.06
420.726	87.06
420.948	99.06
421.171	90.06
421.394	94.06
421.617	95.06
421.839	85.06
422.062	96.06
422.285	98.06
422.507	138.06
422.73	202.06
422.953	205.06
423.175	107.06
423.398	94.06
423.621	82.06
423.843	82.06
424.066	85.06
424.288	86.06
424.511	80.06
424.733	102.06
424.956	82.06
425.178	82.06
425.401	76.06
425.623	84.06
425.846	78.06
426.068	86.06
426.291	85.06
426.513	80.06
426.735	80.06
426.958	76.06
427.18	86.06
427.402	86.06
427.625	94.06
427.847	92.06
428.069	74.06
428.292	98.06
428.514	98.06
428.736	85.06
428.958	83.06
429.181	90.06
429.403	76.06
429.625	88.06
429.847	90.06
430.069	99.06
430.292	110.06
430.514	98.06
430.736	92.06
430.958	104.06
431.18	91.06
431.402	74.06
431.624	92.06
431.846	92.06
432.068	90.06
432.29	90.06
432.512	92.06
432.734	77.06
432.956	78.06
433.178	79.06
433.4	76.06
433.622	77.06
433.844	94.06
434.066	84.06
434.287	64.06
434.509	76.06
434.731	74.06
434.953	82.06
435.175	83.06
435.397	94.06
435.618	80.06
435.84	84.06
436.062	83.06
436.284	79.06
436.505	75.06
436.727	88.06
436.949	68.06
437.17	82.06
437.392	66.06
437.614	94.06
437.835	84.06
438.057	80.06
438.278	80.06
438.5	95.06
438.721	91.06
438.943	80.06
439.165	84.06
439.386	73.06
439.608	80.06
439.829	94.06
440.05	75.06
440.272	62.06
440.493	88.06
440.715	95.06
440.936	86.06
441.158	88.06
441.379	97.06
441.6	86.06
441.822	96.06
442.043	91.06
442.264	84.06
442.486	96.06
442.707	98.06
442.928	92.06
443.149	72.06
443.371	90.06
443.592	137.06
443.813	105.06
444.034	91.06
444.255	76.06
444.476	77.06
444.698	79.06
444.919	91.06
445.14	175.06
445.361	129.06
445.582	144.06
445.803	117.06
446.024	88.06
446.245	86.06
446.466	76.06
446.687	88.06
446.908	83.06
447.129	84.06
447.35	60.06
447.571	82.06
447.792	80.06
448.013	62.06
448.234	89.06
448.455	90.06
448.675	81.06
448.896	83.06
449.117	86.06
449.338	80.06
449.559	90.06
449.779	88.06
450	80.06
450.221	70.06
450.442	74.06
450.662	83.06
450.883	60.06
451.104	90.06
451.324	82.06
451.545	75.06
451.766	82.06
451.986	91.06
452.207	77.06
452.428	80.06
452.648	70.06
452.869	92.06
453.089	75.06
453.31	90.06
453.53	73.06
453.751	105.06
453.971	60.06
454.192	66.06
454.412	78.06
454.633	73.06
454.853	88.06
455.073	76.06
455.294	82.06
455.514	76.06
455.734	74.06
455.955	87.06
456.175	94.06
456.395	91.06
456.616	80.06
456.836	86.06
457.056	86.06
457.276	89.06
457.497	84.06
457.717	82.06
457.937	95.06
458.157	86.06
458.377	84.06
458.598	87.06
458.818	93.06
459.038	76.06
459.258	83.06
459.478	90.06
459.698	74.06
459.918	95.06
460.138	91.06
460.358	98.06
460.578	86.06
460.798	91.06
461.018	103.06
461.238	99.06
461.458	83.06
461.678	72.06
461.898	90.06
462.118	93.06
462.338	81.06
462.558	71.06
462.777	80.06
462.997	79.06
463.217	76.06
463.437	86.06
463.657	94.06
463.876	77.06
464.096	62.06
464.316	87.06
464.536	85.06
464.755	73.06
464.975	82.06
465.195	84.06
465.414	83.06
465.634	68.06
465.854	72.06
466.073	86.06
466.293	83.06
466.512	73.06
466.732	86.06
466.951	80.06
467.171	83.06
467.391	89.06
467.61	92.06
467.829	92.06
468.049	79.06
468.268	91.06
468.488	67.06
468.707	75.06
468.927	82.06
469.146	88.06
469.365	91.06
469.585	77.06
469.804	75.06
470.023	84.06
470.243	84.06
470.462	77.06
470.681	89.06
470.901	88.06
471.12	88.06
471.339	78.06
471.558	76.06
471.777	76.06
471.997	76.06
472.216	74.06
472.435	68.06
472.654	87.06
472.873	82.06
473.092	88.06
473.311	83.06
473.53	82.06
473.749	80.06
473.968	83.06
474.187	84.06
474.406	76.06
474.625	90.06
474.844	83.06
475.063	80.06
475.282	85.06
475.501	82.06
475.72	82.06
475.939	82.06
476.158	75.06
476.377	83.06
476.596	92.06
476.814	94.06
477.033	81.06
477.252	84.06
477.471	79.06
477.69	81.06
477.908	80.06
478.127	87.06
478.346	84.06
478.564	77.06
478.783	78.06
479.002	80.06
479.22	86.06
479.439	95.06
479.658	93.06
479.876	87.06
480.095	83.06
480.313	74.06
480.532	87.06
480.751	88.06
480.969	89.06
481.188	88.06
481.406	74.06
481.624	83.06
481.843	86.06
482.061	87.06
482.28	79.06
482.498	75.06
482.717	82.06
482.935	70.06
483.153	74.06
483.372	74.06
483.59	88.06
483.808	96.06
484.027	68.06
484.245	79.06
484.463	79.06
484.681	97.06
484.9	79.06
485.118	84.06
485.336	93.06
485.554	94.06
485.772	84.06
485.99	94.06
486.209	84.06
486.427	83.06
486.645	93.06
486.863	73.06
487.081	82.06
487.299	79.06
487.517	72.06
487.735	77.06
487.953	98.06
488.171	97.06
488.389	76.06
488.607	75.06
488.825	81.06
489.043	80.06
489.261	84.06
489.479	77.06
489.696	86.06
489.914	72.06
490.132	90.06
490.35	82.06
490.568	89.06
490.786	73.06
491.003	81.06
491.221	83.06
491.439	81.06
491.657	88.06
491.874	78.06
492.092	87.06
492.31	96.06
492.527	75.06
492.745	86.06
492.963	86.06
493.18	83.06
493.398	104.06
493.615	84.06
493.833	81.06
494.05	86.06
494.268	75.06
494.485	82.06
494.703	85.06
494.92	86.06
495.138	81.06
495.355	93.06
495.573	90.06
495.79	86.06
496.008	74.06
496.225	74.06
496.442	78.06
496.66	98.06
496.877	80.06
497.094	78.06
497.312	85.06
497.529	76.06
497.746	74.06
497.963	85.06
498.181	71.06
498.398	97.06
498.615	88.06
498.832	67.06
499.049	84.06
499.267	75.06
499.484	80.06
499.701	71.06
499.918	84.06
500.135	86.06
500.352	77.06
500.569	78.06
500.786	88.06
501.003	86.06
501.22	86.06
501.437	84.06
501.654	84.06
501.871	76.06
502.088	91.06
502.305	76.06
502.522	81.06
502.739	64.06
502.956	82.06
503.172	86.06
503.389	88.06
503.606	75.06
503.823	97.06
504.04	86.06
504.256	91.06
504.473	101.06
504.69	88.06
504.907	76.06
505.123	87.06
505.34	70.06
505.557	82.06
505.773	91.06
505.99	82.06
506.207	92.06
506.423	87.06
506.64	81.06
506.856	74.06
507.073	92.06
507.289	82.06
507.506	81.06
507.722	85.06
507.939	75.06
508.155	82.06
508.372	87.06
508.588	91.06
508.805	82.06
509.021	92.06
509.238	86.06
509.454	86.06
509.67	83.06
509.887	74.06
510.103	78.06
510.319	75.06
510.536	76.06
510.752	90.06
510.968	80.06
511.184	73.06
511.401	67.06
511.617	79.06
511.833	75.06
512.049	95.06
512.265	74.06
512.481	65.06
512.698	74.06
512.914	95.06
513.13	92.06
513.346	79.06
513.562	80.06
513.778	88.06
513.994	88.06
514.21	87.06
514.426	78.06
514.642	72.06
514.858	79.06
515.074	86.06
515.29	86.06
515.506	74.06
515.721	79.06
515.937	92.06
516.153	80.06
516.369	80.06
516.585	110.06
516.801	82.06
517.016	81.06
517.232	82.06
517.448	78.06
517.664	80.06
517.879	88.06
518.095	95.06
518.311	76.06
518.527	73.06
518.742	82.06
518.958	85.06
519.173	116.06
519.389	99.06
519.605	86.06
519.82	82.06
520.036	84.06
520.251	62.06
520.467	77.06
520.682	99.06
520.898	85.06
521.113	84.06
521.329	81.06
521.544	87.06
521.76	88.06
521.975	100.06
522.19	81.06
522.406	82.06
522.621	90.06
522.836	89.06
523.052	87.06
523.267	91.06
523.482	86.06
523.698	83.06
523.913	84.06
524.128	89.06
524.343	80.06
524.559	89.06
524.774	89.06
524.989	78.06
525.204	82.06
525.419	85.06
525.634	71.06
525.849	90.06
526.064	92.06
526.28	102.06
526.495	118.06
526.71	118.06
526.925	106.06
527.14	127.06
527.355	132.06
527.57	81.06
527.785	82.06
527.999	84.06
528.214	96.06
528.429	79.06
528.644	95.06
528.859	84.06
529.074	86.06
529.289	76.06
529.503	80.06
529.718	85.06
529.933	76.06
530.148	87.06
530.363	89.06
530.577	90.06
530.792	74.06
531.007	88.06
531.221	93.06
531.436	96.06
531.651	92.06
531.865	98.06
532.08	94.06
532.295	95.06
532.509	90.06
532.724	93.06
532.938	77.06
533.153	89.06
533.367	76.06
533.582	74.06
533.796	95.06
534.011	82.06
534.225	81.06
534.44	93.06
534.654	86.06
534.868	93.06
535.083	82.06
535.297	92.06
535.511	83.06
535.726	90.06
535.94	88.06
536.154	76.06
536.369	86.06
536.583	72.06
536.797	82.06
537.011	84.06
537.225	99.06
537.44	92.06
537.654	102.06
537.868	83.06
538.082	74.06
538.296	92.06
538.51	83.06
538.724	89.06
538.938	93.06
539.153	87.06
539.367	87.06
539.581	81.06
539.795	70.06
540.009	77.06
540.222	86.06
540.436	83.06
540.65	93.06
540.864	89.06
541.078	84.06
541.292	84.06
541.506	86.06
541.72	88.06
541.934	78.06
542.147	83.06
542.361	86.06
542.575	90.06
542.789	83.06
543.002	73.06
543.216	87.06
543.43	80.06
543.644	83.06
543.857	80.06
544.071	89.06
544.285	88.06
544.498	72.06
544.712	82.06
544.925	99.06
545.139	95.06
545.352	92.06
545.566	96.06
545.779	87.06
545.993	92.06
546.206	91.06
546.42	96.06
546.633	100.06
546.847	110.06
547.06	101.06
547.274	105.06
547.487	115.06
547.7	103.06
547.914	110.06
548.127	103.06
548.34	114.06
548.554	115.06
548.767	119.06
548.98	100.06
549.193	108.06
549.407	108.06
549.62	130.06
549.833	109.06
550.046	137.06
550.259	127.06
550.473	130.06
550.686	126.06
550.899	140.06
551.112	143.06
551.325	154.06
551.538	159.06
551.751	137.06
551.964	135.06
552.177	135.06
552.39	134.06
552.603	122.06
552.816	139.06
553.029	144.06
553.242	145.06
553.455	130.06
553.667	129.06
553.88	147.06
554.093	144.06
554.306	149.06
554.519	149.06
554.732	150.06
554.944	152.06
555.157	140.06
555.37	139.06
555.583	156.06
555.795	131.06
556.008	126.06
556.221	117.06
556.433	112.06
556.646	113.06
556.859	126.06
557.071	102.06
557.284	88.06
557.496	114.06
557.709	124.06
557.921	105.06
558.134	90.06
558.346	121.06
558.559	108.06
558.771	95.06
558.984	146.06
559.196	175.06
559.409	117.06
559.621	152.06
559.833	116.06
560.046	124.06
560.258	129.06
560.47	103.06
560.683	95.06
560.895	83.06
561.107	89.06
561.32	96.06
561.532	86.06
561.744	88.06
561.956	84.06
562.168	102.06
562.381	89.06
562.593	97.06
562.805	83.06
563.017	76.06
563.229	83.06
563.441	84.06
563.653	92.06
563.865	88.06
564.077	100.06
564.289	98.06
564.501	101.06
564.713	85.06
564.925	91.06
565.137	78.06
565.349	84.06
565.561	85.06
565.773	97.06
565.985	86.06
566.197	100.06
566.408	98.06
566.62	101.06
566.832	86.06
567.044	84.06
567.255	79.06
567.467	78.06
567.679	84.06
567.891	94.06
568.102	84.06
568.314	97.06
568.526	88.06
568.737	95.06
568.949	91.06
569.161	77.06
569.372	77.06
569.584	94.06
569.795	84.06
570.007	72.06
570.218	80.06
570.43	86.06
570.641	98.06
570.853	85.06
571.064	80.06
571.276	96.06
571.487	95.06
571.698	89.06
571.91	92.06
572.121	75.06
572.333	82.06
572.544	100.06
572.755	71.06
572.966	74.06
573.178	75.06
573.389	84.06
573.6	84.06
573.811	95.06
574.023	79.06
574.234	82.06
574.445	79.06
574.656	89.06
574.867	78.06
575.078	86.06
575.289	81.06
575.501	79.06
575.712	82.06
575.923	90.06
576.134	97.06
576.345	102.06
576.556	87.06
576.767	97.06
576.978	96.06
577.188	84.06
577.399	93.06
577.61	97.06
577.821	91.06
578.032	94.06
578.243	88.06
578.454	92.06
578.665	81.06
578.875	83.06
579.086	74.06
579.297	73.06
579.508	96.06
579.718	84.06
579.929	82.06
580.14	89.06
580.35	88.06
580.561	100.06
580.772	107.06
580.982	97.06
581.193	86.06
581.403	81.06
581.614	76.06
581.825	74.06
582.035	90.06
582.246	88.06
582.456	85.06
582.667	95.06
582.877	95.06
583.087	86.06
583.298	94.06
583.508	84.06
583.719	82.06
583.929	97.06
584.139	99.06
584.35	72.06
584.56	86.06
584.77	88.06
584.981	85.06
585.191	91.06
585.401	99.06
585.611	72.06
585.821	94.06
586.032	118.06
586.242	88.06
586.452	91.06
586.662	80.06
586.872	72.06
587.082	97.06
587.292	84.06
587.502	91.06
587.713	99.06
587.923	94.06
588.133	88.06
588.343	106.06
588.553	92.06
588.762	118.06
588.972	175.06
589.182	374.06
589.392	258.06
589.602	163.06
589.812	318.06
590.022	178.06
590.232	102.06
590.441	91.06
590.651	86.06
590.861	88.06
591.071	87.06
591.281	94.06
591.49	117.06
591.7	94.06
591.91	97.06
592.119	98.06
592.329	96.06
592.539	84.06
592.748	103.06
592.958	91.06
593.167	96.06
593.377	100.06
593.587	98.06
593.796	95.06
594.006	89.06
594.215	89.06
594.424	86.06
594.634	98.06
594.843	109.06
595.053	101.06
595.262	103.06
595.472	106.06
595.681	106.06
595.89	105.06
596.1	87.06
596.309	115.06
596.518	103.06
596.727	98.06
596.937	91.06
597.146	104.06
597.355	104.06
597.564	114.06
597.774	106.06
597.983	106.06
598.192	95.06
598.401	122.06
598.61	119.06
598.819	118.06
599.028	125.06
599.237	117.06
599.446	131.06
599.655	114.06
599.864	108.06
600.073	110.06
600.282	108.06
600.491	107.06
600.7	107.06
600.909	115.06
601.118	106.06
601.327	95.06
601.536	98.06
601.745	99.06
601.953	112.06
602.162	118.06
602.371	107.06
602.58	120.06
602.789	120.06
602.997	114.06
603.206	117.06
603.415	102.06
603.623	100.06
603.832	113.06
604.041	114.06
604.249	124.06
604.458	123.06
604.666	115.06
604.875	117.06
605.084	114.06
605.292	113.06
605.501	119.06
605.709	122.06
605.918	130.06
606.126	130.06
606.334	132.06
606.543	139.06
606.751	133.06
606.96	130.06
607.168	120.06
607.376	115.06
607.585	124.06
607.793	113.06
608.001	113.06
608.21	123.06
608.418	94.06
608.626	102.06
608.834	106.06
609.043	130.06
609.251	128.06
609.459	112.06
609.667	121.06
609.875	126.06
610.083	121.06
610.291	119.06
610.499	132.06
610.707	144.06
610.916	115.06
611.124	126.06
611.332	121.06
611.54	107.06
611.748	115.06
611.955	154.06
612.163	134.06
612.371	180.06
612.579	170.06
612.787	129.06
612.995	150.06
613.203	130.06
613.411	119.06
613.618	132.06
613.826	133.06
614.034	127.06
614.242	127.06
614.449	128.06
614.657	137.06
614.865	136.06
615.072	135.06
615.28	131.06
615.488	137.06
615.695	140.06
615.903	125.06
616.111	146.06
616.318	213.06
616.526	201.06
616.733	161.06
616.941	145.06
617.148	143.06
617.356	150.06
617.563	138.06
617.771	123.06
617.978	125.06
618.185	128.06
618.393	124.06
618.6	121.06
618.807	129.06
619.015	119.06
619.222	131.06
619.429	130.06
619.637	112.06
619.844	126.06
620.051	112.06
620.258	133.06
620.466	134.06
620.673	110.06
620.88	119.06
621.087	124.06
621.294	127.06
621.501	138.06
621.708	134.06
621.915	126.06
622.122	129.06
622.329	124.06
622.536	124.06
622.743	130.06
622.95	124.06
623.157	138.06
623.364	132.06
623.571	121.06
623.778	123.06
623.985	115.06
624.192	124.06
624.399	135.06
624.606	128.06
624.812	131.06
625.019	138.06
625.226	135.06
625.433	134.06
625.639	128.06
625.846	132.06
626.053	112.06
626.259	122.06
626.466	117.06
626.673	118.06
626.879	111.06
627.086	97.06
627.293	103.06
627.499	108.06
627.706	115.06
627.912	97.06
628.119	98.06
628.325	101.06
628.532	92.06
628.738	105.06
628.945	92.06
629.151	94.06
629.357	91.06
629.564	97.06
629.77	95.06
629.976	99.06
630.183	77.06
630.389	75.06
630.595	83.06
630.802	84.06
631.008	107.06
631.214	94.06
631.42	88.06
631.627	107.06
631.833	85.06
632.039	80.06
632.245	74.06
632.451	91.06
632.657	76.06
632.863	88.06
633.069	72.06
633.275	94.06
633.481	80.06
633.688	94.06
633.893	83.06
634.099	88.06
634.305	78.06
634.511	96.06
634.717	93.06
634.923	95.06
635.129	89.06
635.335	89.06
635.541	91.06
635.747	84.06
635.952	95.06
636.158	89.06
636.364	94.06
636.57	82.06
636.775	90.06
636.981	91.06
637.187	88.06
637.392	88.06
637.598	96.06
637.804	76.06
638.009	78.06
638.215	98.06
638.421	82.06
638.626	79.06
638.832	83.06
639.037	90.06
639.243	92.06
639.448	87.06
639.654	82.06
639.859	78.06
640.065	95.06
640.27	78.06
640.475	80.06
640.681	80.06
640.886	96.06
641.091	99.06
641.297	86.06
641.502	85.06
641.707	92.06
641.913	80.06
642.118	86.06
642.323	84.06
642.528	90.06
642.733	79.06
642.939	91.06
643.144	91.06
643.349	86.06
643.554	86.06
643.759	90.06
643.964	96.06
644.169	100.06
644.374	92.06
644.579	86.06
644.784	94.06
644.989	99.06
645.194	110.06
645.399	98.06
645.604	87.06
645.809	98.06
646.014	86.06
646.219	98.06
646.423	86.06
646.628	84.06
646.833	86.06
647.038	85.06
647.243	79.06
647.447	90.06
647.652	94.06
647.857	66.06
648.062	88.06
648.266	94.06
648.471	94.06
648.676	88.06
648.88	83.06
649.085	85.06
649.289	83.06
649.494	87.06
649.698	88.06
649.903	90.06
650.107	88.06
650.312	77.06
650.516	85.06
650.721	79.06
650.925	87.06
651.13	85.06
651.334	80.06
651.539	80.06
651.743	83.06
651.947	91.06
652.152	91.06
652.356	78.06
652.56	88.06
652.764	77.06
652.969	85.06
653.173	66.06
653.377	82.06
653.581	71.06
653.785	86.06
653.99	78.06
654.194	85.06
654.398	77.06
654.602	60.06
654.806	74.06
655.01	83.06
655.214	71.06
655.418	88.06
655.622	86.06
655.826	94.06
656.03	86.06
656.234	100.06
656.438	64.06
656.642	75.06
656.846	76.06
657.049	92.06
657.253	96.06
657.457	77.06
657.661	92.06
657.865	80.06
658.068	81.06
658.272	76.06
658.476	80.06
658.68	76.06
658.883	82.06
659.087	75.06
659.291	78.06
659.494	84.06
659.698	77.06
659.901	79.06
660.105	68.06
660.309	77.06
660.512	80.06
660.716	98.06
660.919	92.06
661.123	90.06
661.326	79.06
661.53	73.06
661.733	98.06
661.936	80.06
662.14	86.06
662.343	65.06
662.546	87.06
662.75	99.06
662.953	79.06
663.156	84.06
663.36	85.06
663.563	67.06
663.766	84.06
663.969	81.06
664.173	82.06
664.376	64.06
664.579	76.06
664.782	78.06
664.985	82.06
665.188	82.06
665.391	81.06
665.594	77.06
665.797	86.06
666	72.06
666.203	89.06
666.406	87.06
666.609	86.06
666.812	80.06
667.015	85.06
667.218	74.06
667.421	76.06
667.624	89.06
667.827	84.06
668.03	69.06
668.232	78.06
668.435	68.06
668.638	87.06
668.841	77.06
669.043	97.06
669.246	84.06
669.449	97.06
669.651	88.06
669.854	90.06
670.057	77.06
670.259	64.06
670.462	76.06
670.665	84.06
670.867	78.06
671.07	83.06
671.272	76.06
671.475	75.06
671.677	81.06
671.88	77.06
672.082	72.06
672.284	94.06
672.487	69.06
672.689	76.06
672.892	92.06
