Data from Uncirc_1988_H10_HRD10591_00073.txt Node
Date: Wed Jan 03 12:04:19 EST 2024
User: Yrep
Spectrometer: HR+D1059
Trigger mode: 1
Integration Time (sec): 1.000000E-1
Scans to average: 1
Electric dark correction enabled: true
Nonlinearity correction enabled: false
Boxcar width: 0
XAxis mode: Wavelengths
Number of Pixels in Spectrum: 2048
>>>>>Begin Spectral Data<<<<<
223.165	-9.06
223.4	-9.06
223.635	-9.06
223.869	-36.06
224.104	-21.06
224.338	-25.06
224.573	-27.06
224.808	-16.06
225.042	-4.06
225.277	-2.06
225.511	-7.06
225.746	24.94
225.98	4.94
226.215	18.94
226.449	20.94
226.683	25.94
226.918	17.94
227.152	33.94
227.387	48.94
227.621	33.94
227.856	36.94
228.09	42.94
228.324	50.94
228.559	63.94
228.793	55.94
229.027	58.94
229.262	66.94
229.496	81.94
229.73	78.94
229.964	79.94
230.199	76.94
230.433	74.94
230.667	74.94
230.901	78.94
231.136	71.94
231.37	90.94
231.604	84.94
231.838	77.94
232.072	67.94
232.306	83.94
232.541	72.94
232.775	93.94
233.009	79.94
233.243	90.94
233.477	89.94
233.711	75.94
233.945	87.94
234.179	78.94
234.413	84.94
234.647	64.94
234.881	90.94
235.115	71.94
235.349	64.94
235.583	78.94
235.817	77.94
236.051	83.94
236.285	72.94
236.519	66.94
236.753	62.94
236.987	75.94
237.221	83.94
237.455	89.94
237.689	82.94
237.922	77.94
238.156	66.94
238.39	81.94
238.624	84.94
238.858	70.94
239.091	74.94
239.325	69.94
239.559	88.94
239.793	86.94
240.027	76.94
240.26	78.94
240.494	77.94
240.728	66.94
240.961	79.94
241.195	80.94
241.429	71.94
241.662	76.94
241.896	80.94
242.13	64.94
242.363	75.94
242.597	70.94
242.83	71.94
243.064	58.94
243.298	84.94
243.531	79.94
243.765	81.94
243.998	97.94
244.232	75.94
244.465	92.94
244.699	93.94
244.932	80.94
245.166	59.94
245.399	75.94
245.633	81.94
245.866	82.94
246.099	77.94
246.333	83.94
246.566	71.94
246.8	65.94
247.033	85.94
247.266	69.94
247.5	77.94
247.733	77.94
247.966	61.94
248.2	89.94
248.433	61.94
248.666	77.94
248.899	84.94
249.133	86.94
249.366	89.94
249.599	95.94
249.832	68.94
250.066	82.94
250.299	80.94
250.532	72.94
250.765	74.94
250.998	76.94
251.231	83.94
251.465	88.94
251.698	82.94
251.931	83.94
252.164	72.94
252.397	77.94
252.63	84.94
252.863	71.94
253.096	90.94
253.329	88.94
253.562	85.94
253.795	82.94
254.028	85.94
254.261	74.94
254.494	75.94
254.727	86.94
254.96	74.94
255.193	74.94
255.426	80.94
255.659	90.94
255.892	69.94
256.124	82.94
256.357	86.94
256.59	86.94
256.823	71.94
257.056	78.94
257.289	79.94
257.521	81.94
257.754	83.94
257.987	74.94
258.22	82.94
258.452	69.94
258.685	92.94
258.918	85.94
259.151	71.94
259.383	82.94
259.616	79.94
259.849	90.94
260.081	71.94
260.314	78.94
260.547	89.94
260.779	70.94
261.012	91.94
261.244	81.94
261.477	76.94
261.71	100.94
261.942	92.94
262.175	121.94
262.407	90.94
262.64	96.94
262.872	70.94
263.105	85.94
263.337	87.94
263.57	79.94
263.802	74.94
264.035	76.94
264.267	71.94
264.499	78.94
264.732	71.94
264.964	80.94
265.197	91.94
265.429	95.94
265.661	80.94
265.894	74.94
266.126	92.94
266.358	78.94
266.591	82.94
266.823	76.94
267.055	83.94
267.287	96.94
267.52	85.94
267.752	87.94
267.984	94.94
268.216	81.94
268.448	84.94
268.681	80.94
268.913	84.94
269.145	87.94
269.377	87.94
269.609	76.94
269.841	79.94
270.073	70.94
270.306	82.94
270.538	71.94
270.77	82.94
271.002	97.94
271.234	86.94
271.466	86.94
271.698	74.94
271.93	71.94
272.162	90.94
272.394	76.94
272.626	98.94
272.858	97.94
273.09	89.94
273.322	79.94
273.553	74.94
273.785	79.94
274.017	83.94
274.249	81.94
274.481	90.94
274.713	96.94
274.945	78.94
275.176	85.94
275.408	85.94
275.64	92.94
275.872	84.94
276.104	90.94
276.335	88.94
276.567	90.94
276.799	107.94
277.031	98.94
277.262	93.94
277.494	99.94
277.726	80.94
277.957	106.94
278.189	99.94
278.421	69.94
278.652	95.94
278.884	88.94
279.115	74.94
279.347	84.94
279.579	82.94
279.81	83.94
280.042	90.94
280.273	72.94
280.505	92.94
280.736	93.94
280.968	78.94
281.199	104.94
281.431	77.94
281.662	81.94
281.894	88.94
282.125	97.94
282.356	101.94
282.588	147.94
282.819	112.94
283.051	80.94
283.282	90.94
283.513	71.94
283.745	84.94
283.976	91.94
284.207	74.94
284.439	91.94
284.67	104.94
284.901	80.94
285.132	77.94
285.364	76.94
285.595	95.94
285.826	84.94
286.057	95.94
286.288	93.94
286.52	85.94
286.751	80.94
286.982	78.94
287.213	81.94
287.444	63.94
287.675	94.94
287.906	94.94
288.138	91.94
288.369	94.94
288.6	91.94
288.831	87.94
289.062	75.94
289.293	87.94
289.524	84.94
289.755	66.94
289.986	75.94
290.217	95.94
290.448	75.94
290.679	83.94
290.91	83.94
291.141	73.94
291.371	88.94
291.602	84.94
291.833	80.94
292.064	80.94
292.295	83.94
292.526	97.94
292.757	81.94
292.987	85.94
293.218	85.94
293.449	85.94
293.68	90.94
293.91	79.94
294.141	82.94
294.372	84.94
294.603	87.94
294.833	86.94
295.064	87.94
295.295	92.94
295.525	101.94
295.756	104.94
295.987	111.94
296.217	131.94
296.448	117.94
296.679	79.94
296.909	85.94
297.14	96.94
297.37	98.94
297.601	100.94
297.831	83.94
298.062	89.94
298.292	80.94
298.523	80.94
298.753	97.94
298.984	100.94
299.214	98.94
299.445	76.94
299.675	91.94
299.905	104.94
300.136	80.94
300.366	95.94
300.597	95.94
300.827	100.94
301.057	100.94
301.288	101.94
301.518	95.94
301.748	100.94
301.979	100.94
302.209	90.94
302.439	78.94
302.669	85.94
302.9	84.94
303.13	97.94
303.36	91.94
303.59	96.94
303.82	101.94
304.051	86.94
304.281	90.94
304.511	86.94
304.741	72.94
304.971	87.94
305.201	84.94
305.431	94.94
305.661	74.94
305.891	82.94
306.121	90.94
306.352	104.94
306.582	100.94
306.812	92.94
307.042	97.94
307.272	88.94
307.502	87.94
307.731	94.94
307.961	88.94
308.191	74.94
308.421	107.94
308.651	84.94
308.881	100.94
309.111	108.94
309.341	91.94
309.571	93.94
309.8	86.94
310.03	109.94
310.26	100.94
310.49	99.94
310.72	93.94
310.949	96.94
311.179	99.94
311.409	100.94
311.639	100.94
311.868	74.94
312.098	90.94
312.328	106.94
312.557	102.94
312.787	89.94
313.017	95.94
313.246	94.94
313.476	86.94
313.706	96.94
313.935	90.94
314.165	78.94
314.394	107.94
314.624	96.94
314.853	90.94
315.083	86.94
315.312	97.94
315.542	99.94
315.771	77.94
316.001	72.94
316.23	71.94
316.46	83.94
316.689	93.94
316.919	91.94
317.148	80.94
317.377	109.94
317.607	100.94
317.836	78.94
318.065	96.94
318.295	79.94
318.524	80.94
318.753	90.94
318.983	80.94
319.212	97.94
319.441	112.94
319.67	110.94
319.9	96.94
320.129	101.94
320.358	82.94
320.587	104.94
320.816	98.94
321.046	101.94
321.275	94.94
321.504	95.94
321.733	94.94
321.962	98.94
322.191	83.94
322.42	93.94
322.649	95.94
322.878	111.94
323.108	109.94
323.337	105.94
323.566	132.94
323.795	168.94
324.024	197.94
324.253	406.94
324.482	878.94
324.71	1840.94
324.939	2449.94
325.168	898.94
325.397	244.94
325.626	160.94
325.855	135.94
326.084	117.94
326.313	125.94
326.542	164.94
326.77	232.94
326.999	486.94
327.228	1031.94
327.457	1888.94
327.686	1507.94
327.914	400.94
328.143	219.94
328.372	148.94
328.6	120.94
328.829	117.94
329.058	127.94
329.287	127.94
329.515	116.94
329.744	110.94
329.972	104.94
330.201	110.94
330.43	149.94
330.658	124.94
330.887	146.94
331.115	122.94
331.344	91.94
331.572	88.94
331.801	100.94
332.03	102.94
332.258	91.94
332.486	99.94
332.715	88.94
332.943	95.94
333.172	100.94
333.4	95.94
333.629	105.94
333.857	121.94
334.085	108.94
334.314	103.94
334.542	120.94
334.771	132.94
334.999	97.94
335.227	83.94
335.455	87.94
335.684	84.94
335.912	98.94
336.14	82.94
336.369	99.94
336.597	103.94
336.825	87.94
337.053	95.94
337.281	116.94
337.51	89.94
337.738	90.94
337.966	94.94
338.194	95.94
338.422	94.94
338.65	88.94
338.878	97.94
339.106	74.94
339.334	104.94
339.562	94.94
339.79	86.94
340.018	90.94
340.246	93.94
340.474	77.94
340.702	98.94
340.93	78.94
341.158	97.94
341.386	84.94
341.614	116.94
341.842	99.94
342.07	92.94
342.298	86.94
342.526	88.94
342.754	83.94
342.981	92.94
343.209	85.94
343.437	92.94
343.665	87.94
343.893	76.94
344.12	86.94
344.348	88.94
344.576	90.94
344.804	92.94
345.031	85.94
345.259	95.94
345.487	94.94
345.714	98.94
345.942	97.94
346.17	79.94
346.397	77.94
346.625	87.94
346.853	89.94
347.08	83.94
347.308	88.94
347.535	87.94
347.763	87.94
347.99	84.94
348.218	114.94
348.445	100.94
348.673	98.94
348.9	104.94
349.128	93.94
349.355	89.94
349.583	89.94
349.81	103.94
350.037	108.94
350.265	92.94
350.492	93.94
350.72	87.94
350.947	91.94
351.174	113.94
351.402	108.94
351.629	90.94
351.856	104.94
352.083	98.94
352.311	105.94
352.538	111.94
352.765	111.94
352.992	116.94
353.22	101.94
353.447	94.94
353.674	102.94
353.901	99.94
354.128	98.94
354.355	96.94
354.583	99.94
354.81	86.94
355.037	91.94
355.264	89.94
355.491	104.94
355.718	98.94
355.945	84.94
356.172	83.94
356.399	86.94
356.626	95.94
356.853	94.94
357.08	96.94
357.307	80.94
357.534	92.94
357.761	104.94
357.988	108.94
358.215	105.94
358.441	75.94
358.668	84.94
358.895	88.94
359.122	79.94
359.349	87.94
359.576	93.94
359.802	98.94
360.029	107.94
360.256	114.94
360.483	107.94
360.709	91.94
360.936	99.94
361.163	91.94
361.39	101.94
361.616	98.94
361.843	83.94
362.07	102.94
362.296	87.94
362.523	88.94
362.749	97.94
362.976	98.94
363.203	103.94
363.429	85.94
363.656	90.94
363.882	90.94
364.109	75.94
364.335	88.94
364.562	80.94
364.788	85.94
365.015	98.94
365.241	92.94
365.468	104.94
365.694	108.94
365.92	109.94
366.147	98.94
366.373	86.94
366.599	85.94
366.826	89.94
367.052	87.94
367.278	96.94
367.505	80.94
367.731	87.94
367.957	95.94
368.184	78.94
368.41	109.94
368.636	110.94
368.862	98.94
369.089	114.94
369.315	106.94
369.541	94.94
369.767	83.94
369.993	88.94
370.219	85.94
370.445	87.94
370.672	92.94
370.898	84.94
371.124	94.94
371.35	85.94
371.576	90.94
371.802	96.94
372.028	96.94
372.254	78.94
372.48	78.94
372.706	86.94
372.932	64.94
373.158	96.94
373.384	86.94
373.61	97.94
373.835	99.94
374.061	96.94
374.287	87.94
374.513	86.94
374.739	75.94
374.965	76.94
375.191	85.94
375.416	93.94
375.642	74.94
375.868	96.94
376.094	87.94
376.319	82.94
376.545	86.94
376.771	88.94
376.997	82.94
377.222	91.94
377.448	104.94
377.674	96.94
377.899	79.94
378.125	86.94
378.35	71.94
378.576	87.94
378.802	88.94
379.027	86.94
379.253	100.94
379.478	93.94
379.704	98.94
379.929	94.94
380.155	100.94
380.38	87.94
380.606	91.94
380.831	100.94
381.057	101.94
381.282	73.94
381.507	81.94
381.733	71.94
381.958	97.94
382.184	93.94
382.409	96.94
382.634	95.94
382.86	77.94
383.085	96.94
383.31	103.94
383.535	98.94
383.761	92.94
383.986	92.94
384.211	96.94
384.436	79.94
384.662	93.94
384.887	110.94
385.112	87.94
385.337	108.94
385.562	116.94
385.787	92.94
386.013	91.94
386.238	107.94
386.463	123.94
386.688	111.94
386.913	107.94
387.138	92.94
387.363	110.94
387.588	111.94
387.813	97.94
388.038	106.94
388.263	110.94
388.488	93.94
388.713	89.94
388.938	101.94
389.163	86.94
389.387	92.94
389.612	103.94
389.837	86.94
390.062	82.94
390.287	99.94
390.512	91.94
390.736	91.94
390.961	94.94
391.186	90.94
391.411	100.94
391.636	88.94
391.86	87.94
392.085	83.94
392.31	93.94
392.534	89.94
392.759	85.94
392.984	92.94
393.208	99.94
393.433	76.94
393.658	89.94
393.882	96.94
394.107	77.94
394.331	83.94
394.556	83.94
394.78	80.94
395.005	78.94
395.229	87.94
395.454	74.94
395.678	78.94
395.903	94.94
396.127	85.94
396.352	81.94
396.576	97.94
396.801	82.94
397.025	102.94
397.249	101.94
397.474	79.94
397.698	89.94
397.922	77.94
398.147	85.94
398.371	95.94
398.595	100.94
398.82	92.94
399.044	78.94
399.268	87.94
399.492	92.94
399.717	83.94
399.941	98.94
400.165	89.94
400.389	81.94
400.613	94.94
400.837	85.94
401.062	85.94
401.286	86.94
401.51	91.94
401.734	92.94
401.958	98.94
402.182	130.94
402.406	162.94
402.63	107.94
402.854	82.94
403.078	79.94
403.302	95.94
403.526	88.94
403.75	86.94
403.974	78.94
404.198	87.94
404.422	71.94
404.645	88.94
404.869	91.94
405.093	87.94
405.317	112.94
405.541	101.94
405.765	99.94
405.988	111.94
406.212	153.94
406.436	216.94
406.66	144.94
406.883	104.94
407.107	97.94
407.331	100.94
407.555	92.94
407.778	95.94
408.002	86.94
408.226	84.94
408.449	91.94
408.673	90.94
408.896	98.94
409.12	107.94
409.344	88.94
409.567	89.94
409.791	72.94
410.014	91.94
410.238	87.94
410.461	92.94
410.685	79.94
410.908	89.94
411.132	106.94
411.355	101.94
411.578	83.94
411.802	84.94
412.025	101.94
412.249	83.94
412.472	93.94
412.695	92.94
412.919	95.94
413.142	82.94
413.365	74.94
413.589	84.94
413.812	80.94
414.035	82.94
414.258	75.94
414.482	87.94
414.705	83.94
414.928	93.94
415.151	88.94
415.374	102.94
415.597	82.94
415.821	97.94
416.044	90.94
416.267	98.94
416.49	77.94
416.713	69.94
416.936	84.94
417.159	94.94
417.382	77.94
417.605	85.94
417.828	88.94
418.051	80.94
418.274	92.94
418.497	94.94
418.72	96.94
418.943	80.94
419.166	84.94
419.389	83.94
419.611	89.94
419.834	79.94
420.057	91.94
420.28	76.94
420.503	77.94
420.726	78.94
420.948	87.94
421.171	102.94
421.394	99.94
421.617	96.94
421.839	87.94
422.062	84.94
422.285	99.94
422.507	91.94
422.73	97.94
422.953	88.94
423.175	82.94
423.398	98.94
423.621	86.94
423.843	99.94
424.066	79.94
424.288	70.94
424.511	102.94
424.733	93.94
424.956	97.94
425.178	99.94
425.401	103.94
425.623	93.94
425.846	85.94
426.068	93.94
426.291	98.94
426.513	90.94
426.735	84.94
426.958	99.94
427.18	106.94
427.402	155.94
427.625	170.94
427.847	134.94
428.069	129.94
428.292	112.94
428.514	74.94
428.736	86.94
428.958	96.94
429.181	91.94
429.403	91.94
429.625	94.94
429.847	86.94
430.069	100.94
430.292	92.94
430.514	96.94
430.736	88.94
430.958	93.94
431.18	84.94
431.402	81.94
431.624	88.94
431.846	77.94
432.068	89.94
432.29	81.94
432.512	99.94
432.734	90.94
432.956	98.94
433.178	85.94
433.4	98.94
433.622	92.94
433.844	85.94
434.066	88.94
434.287	96.94
434.509	94.94
434.731	95.94
434.953	101.94
435.175	86.94
435.397	94.94
435.618	83.94
435.84	99.94
436.062	111.94
436.284	115.94
436.505	86.94
436.727	98.94
436.949	104.94
437.17	96.94
437.392	74.94
437.614	101.94
437.835	97.94
438.057	117.94
438.278	116.94
438.5	111.94
438.721	118.94
438.943	106.94
439.165	94.94
439.386	91.94
439.608	91.94
439.829	90.94
440.05	105.94
440.272	137.94
440.493	99.94
440.715	74.94
440.936	83.94
441.158	88.94
441.379	80.94
441.6	100.94
441.822	91.94
442.043	89.94
442.264	109.94
442.486	102.94
442.707	86.94
442.928	114.94
443.149	135.94
443.371	119.94
443.592	103.94
443.813	116.94
444.034	97.94
444.255	91.94
444.476	87.94
444.698	84.94
444.919	83.94
445.14	108.94
445.361	130.94
445.582	125.94
445.803	147.94
446.024	144.94
446.245	123.94
446.466	125.94
446.687	101.94
446.908	80.94
447.129	86.94
447.35	99.94
447.571	91.94
447.792	101.94
448.013	96.94
448.234	93.94
448.455	90.94
448.675	128.94
448.896	117.94
449.117	98.94
449.338	113.94
449.559	117.94
449.779	136.94
450	95.94
450.221	80.94
450.442	85.94
450.662	79.94
450.883	101.94
451.104	114.94
451.324	88.94
451.545	85.94
451.766	79.94
451.986	89.94
452.207	83.94
452.428	79.94
452.648	95.94
452.869	106.94
453.089	116.94
453.31	112.94
453.53	104.94
453.751	92.94
453.971	92.94
454.192	117.94
454.412	97.94
454.633	84.94
454.853	99.94
455.073	90.94
455.294	96.94
455.514	102.94
455.734	93.94
455.955	74.94
456.175	82.94
456.395	79.94
456.616	97.94
456.836	90.94
457.056	91.94
457.276	87.94
457.497	97.94
457.717	78.94
457.937	80.94
458.157	87.94
458.377	82.94
458.598	102.94
458.818	140.94
459.038	160.94
459.258	107.94
459.478	93.94
459.698	91.94
459.918	81.94
460.138	77.94
460.358	69.94
460.578	78.94
460.798	87.94
461.018	87.94
461.238	98.94
461.458	84.94
461.678	85.94
461.898	75.94
462.118	86.94
462.338	92.94
462.558	86.94
462.777	86.94
462.997	83.94
463.217	76.94
463.437	75.94
463.657	81.94
463.876	90.94
464.096	79.94
464.316	100.94
464.536	84.94
464.755	96.94
464.975	115.94
465.195	155.94
465.414	155.94
465.634	93.94
465.854	97.94
466.073	80.94
466.293	88.94
466.512	92.94
466.732	78.94
466.951	80.94
467.171	74.94
467.391	93.94
467.61	111.94
467.829	87.94
468.049	90.94
468.268	98.94
468.488	86.94
468.707	79.94
468.927	93.94
469.146	79.94
469.365	90.94
469.585	76.94
469.804	92.94
470.023	99.94
470.243	84.94
470.462	84.94
470.681	103.94
470.901	100.94
471.12	89.94
471.339	84.94
471.558	84.94
471.777	94.94
471.997	88.94
472.216	105.94
472.435	145.94
472.654	96.94
472.873	87.94
473.092	70.94
473.311	101.94
473.53	89.94
473.749	85.94
473.968	82.94
474.187	108.94
474.406	84.94
474.625	91.94
474.844	87.94
475.063	92.94
475.282	86.94
475.501	76.94
475.72	84.94
475.939	76.94
476.158	89.94
476.377	89.94
476.596	95.94
476.814	90.94
477.033	94.94
477.252	99.94
477.471	83.94
477.69	99.94
477.908	88.94
478.127	99.94
478.346	77.94
478.564	88.94
478.783	109.94
479.002	110.94
479.22	92.94
479.439	93.94
479.658	108.94
479.876	101.94
480.095	72.94
480.313	93.94
480.532	93.94
480.751	91.94
480.969	92.94
481.188	212.94
481.406	152.94
481.624	92.94
481.843	79.94
482.061	82.94
482.28	89.94
482.498	86.94
482.717	95.94
482.935	95.94
483.153	75.94
483.372	88.94
483.59	88.94
483.808	77.94
484.027	101.94
484.245	96.94
484.463	97.94
484.681	90.94
484.9	80.94
485.118	92.94
485.336	92.94
485.554	91.94
485.772	100.94
485.99	114.94
486.209	102.94
486.427	88.94
486.645	104.94
486.863	107.94
487.081	106.94
487.299	102.94
487.517	85.94
487.735	92.94
487.953	91.94
488.171	93.94
488.389	100.94
488.607	104.94
488.825	92.94
489.043	100.94
489.261	90.94
489.479	91.94
489.696	107.94
489.914	86.94
490.132	82.94
490.35	86.94
490.568	90.94
490.786	92.94
491.003	84.94
491.221	94.94
491.439	102.94
491.657	86.94
491.874	93.94
492.092	88.94
492.31	76.94
492.527	91.94
492.745	96.94
492.963	98.94
493.18	83.94
493.398	100.94
493.615	104.94
493.833	88.94
494.05	90.94
494.268	86.94
494.485	98.94
494.703	95.94
494.92	85.94
495.138	97.94
495.355	91.94
495.573	89.94
495.79	88.94
496.008	90.94
496.225	100.94
496.442	81.94
496.66	88.94
496.877	78.94
497.094	93.94
497.312	95.94
497.529	85.94
497.746	90.94
497.963	69.94
498.181	82.94
498.398	93.94
498.615	108.94
498.832	116.94
499.049	85.94
499.267	86.94
499.484	91.94
499.701	97.94
499.918	108.94
500.135	95.94
500.352	88.94
500.569	87.94
500.786	81.94
501.003	97.94
501.22	95.94
501.437	93.94
501.654	99.94
501.871	120.94
502.088	93.94
502.305	98.94
502.522	94.94
502.739	73.94
502.956	91.94
503.172	99.94
503.389	100.94
503.606	100.94
503.823	100.94
504.04	84.94
504.256	91.94
504.473	93.94
504.69	88.94
504.907	99.94
505.123	86.94
505.34	93.94
505.557	95.94
505.773	102.94
505.99	91.94
506.207	81.94
506.423	89.94
506.64	90.94
506.856	84.94
507.073	97.94
507.289	95.94
507.506	87.94
507.722	107.94
507.939	114.94
508.155	85.94
508.372	94.94
508.588	100.94
508.805	95.94
509.021	102.94
509.238	98.94
509.454	95.94
509.67	99.94
509.887	113.94
510.103	131.94
510.319	192.94
510.536	767.94
510.752	2362.94
510.968	650.94
511.184	159.94
511.401	111.94
511.617	109.94
511.833	95.94
512.049	91.94
512.265	100.94
512.481	99.94
512.698	87.94
512.914	90.94
513.13	108.94
513.346	92.94
513.562	104.94
513.778	93.94
513.994	85.94
514.21	100.94
514.426	109.94
514.642	130.94
514.858	131.94
515.074	171.94
515.29	462.94
515.506	1504.94
515.721	541.94
515.937	150.94
516.153	116.94
516.369	93.94
516.585	98.94
516.801	102.94
517.016	90.94
517.232	100.94
517.448	100.94
517.664	91.94
517.879	82.94
518.095	91.94
518.311	82.94
518.527	100.94
518.742	75.94
518.958	103.94
519.173	99.94
519.389	88.94
519.605	100.94
519.82	96.94
520.036	101.94
520.251	119.94
520.467	118.94
520.682	108.94
520.898	104.94
521.113	118.94
521.329	150.94
521.544	208.94
521.76	531.94
521.975	2491.94
522.19	1462.94
522.406	306.94
522.621	127.94
522.836	101.94
523.052	102.94
523.267	101.94
523.482	101.94
523.698	104.94
523.913	117.94
524.128	95.94
524.343	99.94
524.559	100.94
524.774	91.94
524.989	86.94
525.204	103.94
525.419	104.94
525.634	83.94
525.849	90.94
526.064	93.94
526.28	96.94
526.495	77.94
526.71	82.94
526.925	72.94
527.14	94.94
527.355	97.94
527.57	87.94
527.785	94.94
527.999	92.94
528.214	106.94
528.429	78.94
528.644	94.94
528.859	79.94
529.074	98.94
529.289	138.94
529.503	181.94
529.718	95.94
529.933	100.94
530.148	82.94
530.363	98.94
530.577	89.94
530.792	96.94
531.007	97.94
531.221	90.94
531.436	90.94
531.651	88.94
531.865	103.94
532.08	78.94
532.295	88.94
532.509	93.94
532.724	94.94
532.938	89.94
533.153	105.94
533.367	90.94
533.582	92.94
533.796	96.94
534.011	91.94
534.225	93.94
534.44	94.94
534.654	78.94
534.868	83.94
535.083	84.94
535.297	85.94
535.511	112.94
535.726	107.94
535.94	90.94
536.154	81.94
536.369	91.94
536.583	95.94
536.797	86.94
537.011	88.94
537.225	81.94
537.44	97.94
537.654	101.94
537.868	94.94
538.082	79.94
538.296	80.94
538.51	93.94
538.724	80.94
538.938	110.94
539.153	103.94
539.367	111.94
539.581	80.94
539.795	102.94
540.009	100.94
540.222	96.94
540.436	82.94
540.65	80.94
540.864	84.94
541.078	91.94
541.292	101.94
541.506	85.94
541.72	94.94
541.934	84.94
542.147	93.94
542.361	91.94
542.575	68.94
542.789	76.94
543.002	89.94
543.216	95.94
543.43	101.94
543.644	85.94
543.857	81.94
544.071	111.94
544.285	90.94
544.498	79.94
544.712	83.94
544.925	103.94
545.139	91.94
545.352	82.94
545.566	97.94
545.779	86.94
545.993	93.94
546.206	75.94
546.42	70.94
546.633	84.94
546.847	90.94
547.06	92.94
547.274	90.94
547.487	88.94
547.7	91.94
547.914	87.94
548.127	86.94
548.34	88.94
548.554	91.94
548.767	84.94
548.98	98.94
549.193	83.94
549.407	100.94
549.62	92.94
549.833	90.94
550.046	92.94
550.259	83.94
550.473	84.94
550.686	88.94
550.899	94.94
551.112	86.94
551.325	94.94
551.538	90.94
551.751	93.94
551.964	81.94
552.177	94.94
552.39	94.94
552.603	92.94
552.816	75.94
553.029	87.94
553.242	85.94
553.455	88.94
553.667	115.94
553.88	96.94
554.093	86.94
554.306	95.94
554.519	103.94
554.732	86.94
554.944	98.94
555.157	88.94
555.37	82.94
555.583	89.94
555.795	101.94
556.008	75.94
556.221	82.94
556.433	93.94
556.646	83.94
556.859	84.94
557.071	91.94
557.284	90.94
557.496	83.94
557.709	96.94
557.921	90.94
558.134	108.94
558.346	81.94
558.559	98.94
558.771	90.94
558.984	85.94
559.196	96.94
559.409	80.94
559.621	92.94
559.833	87.94
560.046	101.94
560.258	89.94
560.47	91.94
560.683	89.94
560.895	86.94
561.107	96.94
561.32	97.94
561.532	78.94
561.744	98.94
561.956	90.94
562.168	104.94
562.381	93.94
562.593	88.94
562.805	91.94
563.017	92.94
563.229	96.94
563.441	91.94
563.653	88.94
563.865	90.94
564.077	94.94
564.289	93.94
564.501	86.94
564.713	95.94
564.925	95.94
565.137	100.94
565.349	100.94
565.561	103.94
565.773	90.94
565.985	79.94
566.197	81.94
566.408	90.94
566.62	93.94
566.832	83.94
567.044	91.94
567.255	97.94
567.467	83.94
567.679	82.94
567.891	84.94
568.102	91.94
568.314	79.94
568.526	65.94
568.737	79.94
568.949	84.94
569.161	90.94
569.372	81.94
569.584	78.94
569.795	81.94
570.007	112.94
570.218	241.94
570.43	146.94
570.641	78.94
570.853	77.94
571.064	83.94
571.276	83.94
571.487	88.94
571.698	83.94
571.91	97.94
572.121	71.94
572.333	87.94
572.544	86.94
572.755	86.94
572.966	92.94
573.178	92.94
573.389	85.94
573.6	92.94
573.811	78.94
574.023	100.94
574.234	91.94
574.445	86.94
574.656	88.94
574.867	100.94
575.078	83.94
575.289	75.94
575.501	74.94
575.712	94.94
575.923	79.94
576.134	67.94
576.345	83.94
576.556	90.94
576.767	97.94
576.978	100.94
577.188	84.94
577.399	77.94
577.61	71.94
577.821	109.94
578.032	111.94
578.243	277.94
578.454	759.94
578.665	212.94
578.875	104.94
579.086	102.94
579.297	76.94
579.508	87.94
579.718	87.94
579.929	99.94
580.14	99.94
580.35	85.94
580.561	80.94
580.772	93.94
580.982	96.94
581.193	95.94
581.403	90.94
581.614	90.94
581.825	85.94
582.035	92.94
582.246	96.94
582.456	99.94
582.667	83.94
582.877	91.94
583.087	100.94
583.298	85.94
583.508	90.94
583.719	91.94
583.929	94.94
584.139	94.94
584.35	94.94
584.56	88.94
584.77	73.94
584.981	90.94
585.191	91.94
585.401	91.94
585.611	77.94
585.821	76.94
586.032	94.94
586.242	83.94
586.452	93.94
586.662	81.94
586.872	99.94
587.082	90.94
587.292	90.94
587.502	83.94
587.713	74.94
587.923	91.94
588.133	98.94
588.343	87.94
588.553	79.94
588.762	78.94
588.972	74.94
589.182	84.94
589.392	82.94
589.602	94.94
589.812	80.94
590.022	91.94
590.232	89.94
590.441	84.94
590.651	88.94
590.861	101.94
591.071	80.94
591.281	92.94
591.49	95.94
591.7	95.94
591.91	83.94
592.119	101.94
592.329	86.94
592.539	85.94
592.748	75.94
592.958	91.94
593.167	88.94
593.377	77.94
593.587	94.94
593.796	87.94
594.006	85.94
594.215	83.94
594.424	86.94
594.634	95.94
594.843	68.94
595.053	77.94
595.262	90.94
595.472	90.94
595.681	93.94
595.89	95.94
596.1	90.94
596.309	83.94
596.518	74.94
596.727	94.94
596.937	94.94
597.146	92.94
597.355	90.94
597.564	90.94
597.774	80.94
597.983	100.94
598.192	91.94
598.401	87.94
598.61	72.94
598.819	71.94
599.028	75.94
599.237	76.94
599.446	74.94
599.655	80.94
599.864	90.94
600.073	75.94
600.282	77.94
600.491	83.94
600.7	86.94
600.909	76.94
601.118	72.94
601.327	86.94
601.536	98.94
601.745	87.94
601.953	78.94
602.162	85.94
602.371	81.94
602.58	82.94
602.789	98.94
602.997	88.94
603.206	83.94
603.415	82.94
603.623	95.94
603.832	78.94
604.041	92.94
604.249	83.94
604.458	93.94
604.666	83.94
604.875	94.94
605.084	103.94
605.292	89.94
605.501	85.94
605.709	98.94
605.918	82.94
606.126	91.94
606.334	82.94
606.543	82.94
606.751	94.94
606.96	95.94
607.168	71.94
607.376	77.94
607.585	98.94
607.793	72.94
608.001	94.94
608.21	95.94
608.418	83.94
608.626	84.94
608.834	94.94
609.043	83.94
609.251	84.94
609.459	80.94
609.667	76.94
609.875	75.94
610.083	81.94
610.291	85.94
610.499	99.94
610.707	84.94
610.916	76.94
611.124	98.94
611.332	81.94
611.54	86.94
611.748	82.94
611.955	78.94
612.163	94.94
612.371	88.94
612.579	80.94
612.787	86.94
612.995	68.94
613.203	80.94
613.411	90.94
613.618	92.94
613.826	90.94
614.034	84.94
614.242	83.94
614.449	90.94
614.657	78.94
614.865	79.94
615.072	92.94
615.28	83.94
615.488	94.94
615.695	106.94
615.903	96.94
616.111	95.94
616.318	105.94
616.526	103.94
616.733	92.94
616.941	93.94
617.148	90.94
617.356	86.94
617.563	76.94
617.771	93.94
617.978	87.94
618.185	93.94
618.393	88.94
618.6	85.94
618.807	64.94
619.015	78.94
619.222	99.94
619.429	87.94
619.637	90.94
619.844	80.94
620.051	92.94
620.258	90.94
620.466	81.94
620.673	93.94
620.88	72.94
621.087	87.94
621.294	89.94
621.501	99.94
621.708	76.94
621.915	76.94
622.122	85.94
622.329	78.94
622.536	96.94
622.743	89.94
622.95	82.94
623.157	92.94
623.364	74.94
623.571	93.94
623.778	78.94
623.985	86.94
624.192	96.94
624.399	77.94
624.606	81.94
624.812	92.94
625.019	78.94
625.226	90.94
625.433	81.94
625.639	88.94
625.846	75.94
626.053	92.94
626.259	78.94
626.466	82.94
626.673	77.94
626.879	77.94
627.086	80.94
627.293	74.94
627.499	85.94
627.706	74.94
627.912	85.94
628.119	78.94
628.325	81.94
628.532	93.94
628.738	74.94
628.945	84.94
629.151	81.94
629.357	80.94
629.564	86.94
629.77	88.94
629.976	84.94
630.183	80.94
630.389	82.94
630.595	92.94
630.802	82.94
631.008	84.94
631.214	88.94
631.42	91.94
631.627	89.94
631.833	75.94
632.039	100.94
632.245	88.94
632.451	91.94
632.657	86.94
632.863	80.94
633.069	78.94
633.275	87.94
633.481	92.94
633.688	80.94
633.893	74.94
634.099	83.94
634.305	80.94
634.511	81.94
634.717	98.94
634.923	82.94
635.129	90.94
635.335	95.94
635.541	78.94
635.747	79.94
635.952	90.94
636.158	96.94
636.364	82.94
636.57	77.94
636.775	88.94
636.981	78.94
637.187	94.94
637.392	88.94
637.598	82.94
637.804	77.94
638.009	82.94
638.215	93.94
638.421	76.94
638.626	86.94
638.832	86.94
639.037	80.94
639.243	90.94
639.448	90.94
639.654	90.94
639.859	78.94
640.065	78.94
640.27	78.94
640.475	83.94
640.681	78.94
640.886	94.94
641.091	74.94
641.297	88.94
641.502	94.94
641.707	81.94
641.913	98.94
642.118	87.94
642.323	90.94
642.528	79.94
642.733	82.94
642.939	72.94
643.144	75.94
643.349	76.94
643.554	67.94
643.759	75.94
643.964	62.94
644.169	84.94
644.374	75.94
644.579	79.94
644.784	93.94
644.989	67.94
645.194	71.94
645.399	85.94
645.604	67.94
645.809	91.94
646.014	80.94
646.219	70.94
646.423	79.94
646.628	81.94
646.833	93.94
647.038	92.94
647.243	74.94
647.447	81.94
647.652	101.94
647.857	92.94
648.062	87.94
648.266	86.94
648.471	82.94
648.676	92.94
648.88	81.94
649.085	77.94
649.289	82.94
649.494	104.94
649.698	132.94
649.903	102.94
650.107	93.94
650.312	88.94
650.516	89.94
650.721	90.94
650.925	86.94
651.13	75.94
651.334	75.94
651.539	84.94
651.743	78.94
651.947	91.94
652.152	88.94
652.356	88.94
652.56	81.94
652.764	87.94
652.969	76.94
653.173	80.94
653.377	83.94
653.581	85.94
653.785	88.94
653.99	86.94
654.194	77.94
654.398	80.94
654.602	100.94
654.806	87.94
655.01	111.94
655.214	100.94
655.418	60.94
655.622	74.94
655.826	85.94
656.03	76.94
656.234	95.94
656.438	100.94
656.642	99.94
656.846	72.94
657.049	93.94
657.253	84.94
657.457	84.94
657.661	75.94
657.865	93.94
658.068	88.94
658.272	78.94
658.476	66.94
658.68	69.94
658.883	78.94
659.087	82.94
659.291	89.94
659.494	79.94
659.698	75.94
659.901	75.94
660.105	82.94
660.309	71.94
660.512	91.94
660.716	87.94
660.919	85.94
661.123	85.94
661.326	80.94
661.53	87.94
661.733	74.94
661.936	82.94
662.14	76.94
662.343	87.94
662.546	76.94
662.75	80.94
662.953	85.94
663.156	77.94
663.36	75.94
663.563	81.94
663.766	80.94
663.969	83.94
664.173	74.94
664.376	83.94
664.579	80.94
664.782	79.94
664.985	90.94
665.188	89.94
665.391	81.94
665.594	76.94
665.797	89.94
666	77.94
666.203	70.94
666.406	63.94
666.609	86.94
666.812	72.94
667.015	74.94
667.218	86.94
667.421	82.94
667.624	94.94
667.827	79.94
668.03	75.94
668.232	78.94
668.435	74.94
668.638	81.94
668.841	82.94
669.043	78.94
669.246	86.94
669.449	76.94
669.651	80.94
669.854	64.94
670.057	82.94
670.259	74.94
670.462	69.94
670.665	79.94
670.867	69.94
671.07	81.94
671.272	83.94
671.475	76.94
671.677	74.94
671.88	76.94
672.082	86.94
672.284	84.94
672.487	84.94
672.689	64.94
672.892	87.94
