Data from BG_HRD10591_004.txt Node
Date: Fri May 16 15:26:49 EDT 2025
User: Yrep
Spectrometer: HR+D1059
Trigger mode: 1
Integration Time (sec): 1.000000E-1
Scans to average: 1
Electric dark correction enabled: true
Nonlinearity correction enabled: false
Boxcar width: 0
XAxis mode: Wavelengths
Number of Pixels in Spectrum: 2048
>>>>>Begin Spectral Data<<<<<
223.165	-23.38
223.4	-23.38
223.635	-23.38
223.869	-12.38
224.104	-23.38
224.338	-8.38
224.573	-18.38
224.808	-13.38
225.042	-6.38
225.277	-2.38
225.511	-4.38
225.746	2.62
225.98	6.62
226.215	14.62
226.449	9.62
226.683	28.62
226.918	28.62
227.152	21.62
227.387	31.62
227.621	43.62
227.856	46.62
228.09	46.62
228.324	58.62
228.559	55.62
228.793	74.62
229.027	68.62
229.262	60.62
229.496	55.62
229.73	68.62
229.964	87.62
230.199	75.62
230.433	75.62
230.667	84.62
230.901	82.62
231.136	82.62
231.37	70.62
231.604	72.62
231.838	77.62
232.072	76.62
232.306	87.62
232.541	80.62
232.775	74.62
233.009	75.62
233.243	75.62
233.477	79.62
233.711	85.62
233.945	74.62
234.179	70.62
234.413	76.62
234.647	76.62
234.881	86.62
235.115	71.62
235.349	85.62
235.583	76.62
235.817	74.62
236.051	68.62
236.285	79.62
236.519	81.62
236.753	75.62
236.987	82.62
237.221	89.62
237.455	78.62
237.689	72.62
237.922	77.62
238.156	77.62
238.39	77.62
238.624	72.62
238.858	73.62
239.091	72.62
239.325	77.62
239.559	79.62
239.793	70.62
240.027	89.62
240.26	70.62
240.494	74.62
240.728	80.62
240.961	77.62
241.195	77.62
241.429	77.62
241.662	78.62
241.896	59.62
242.13	67.62
242.363	72.62
242.597	78.62
242.83	72.62
243.064	72.62
243.298	79.62
243.531	81.62
243.765	84.62
243.998	73.62
244.232	66.62
244.465	87.62
244.699	92.62
244.932	69.62
245.166	72.62
245.399	72.62
245.633	80.62
245.866	81.62
246.099	92.62
246.333	77.62
246.566	85.62
246.8	66.62
247.033	77.62
247.266	68.62
247.5	83.62
247.733	77.62
247.966	90.62
248.2	75.62
248.433	73.62
248.666	77.62
248.899	85.62
249.133	76.62
249.366	87.62
249.599	78.62
249.832	73.62
250.066	70.62
250.299	70.62
250.532	68.62
250.765	75.62
250.998	64.62
251.231	71.62
251.465	68.62
251.698	74.62
251.931	72.62
252.164	75.62
252.397	74.62
252.63	76.62
252.863	78.62
253.096	75.62
253.329	84.62
253.562	88.62
253.795	75.62
254.028	80.62
254.261	73.62
254.494	79.62
254.727	67.62
254.96	75.62
255.193	80.62
255.426	89.62
255.659	73.62
255.892	87.62
256.124	74.62
256.357	79.62
256.59	86.62
256.823	84.62
257.056	66.62
257.289	73.62
257.521	92.62
257.754	73.62
257.987	93.62
258.22	73.62
258.452	90.62
258.685	88.62
258.918	78.62
259.151	74.62
259.383	84.62
259.616	83.62
259.849	87.62
260.081	66.62
260.314	90.62
260.547	77.62
260.779	78.62
261.012	81.62
261.244	84.62
261.477	82.62
261.71	94.62
261.942	87.62
262.175	86.62
262.407	76.62
262.64	86.62
262.872	75.62
263.105	78.62
263.337	74.62
263.57	99.62
263.802	95.62
264.035	84.62
264.267	77.62
264.499	92.62
264.732	77.62
264.964	71.62
265.197	85.62
265.429	75.62
265.661	84.62
265.894	93.62
266.126	77.62
266.358	94.62
266.591	72.62
266.823	62.62
267.055	64.62
267.287	85.62
267.52	86.62
267.752	87.62
267.984	88.62
268.216	76.62
268.448	72.62
268.681	74.62
268.913	91.62
269.145	80.62
269.377	86.62
269.609	86.62
269.841	91.62
270.073	82.62
270.306	86.62
270.538	100.62
270.77	85.62
271.002	86.62
271.234	62.62
271.466	85.62
271.698	77.62
271.93	77.62
272.162	80.62
272.394	82.62
272.626	76.62
272.858	85.62
273.09	84.62
273.322	92.62
273.553	82.62
273.785	84.62
274.017	79.62
274.249	87.62
274.481	86.62
274.713	92.62
274.945	86.62
275.176	70.62
275.408	69.62
275.64	87.62
275.872	69.62
276.104	86.62
276.335	94.62
276.567	83.62
276.799	70.62
277.031	90.62
277.262	83.62
277.494	73.62
277.726	74.62
277.957	69.62
278.189	87.62
278.421	90.62
278.652	92.62
278.884	68.62
279.115	89.62
279.347	84.62
279.579	83.62
279.81	82.62
280.042	75.62
280.273	84.62
280.505	84.62
280.736	78.62
280.968	85.62
281.199	81.62
281.431	93.62
281.662	84.62
281.894	68.62
282.125	84.62
282.356	79.62
282.588	92.62
282.819	82.62
283.051	72.62
283.282	100.62
283.513	84.62
283.745	87.62
283.976	84.62
284.207	82.62
284.439	92.62
284.67	83.62
284.901	87.62
285.132	86.62
285.364	84.62
285.595	84.62
285.826	83.62
286.057	96.62
286.288	86.62
286.52	75.62
286.751	81.62
286.982	72.62
287.213	84.62
287.444	78.62
287.675	96.62
287.906	83.62
288.138	94.62
288.369	94.62
288.6	78.62
288.831	85.62
289.062	83.62
289.293	100.62
289.524	80.62
289.755	74.62
289.986	88.62
290.217	87.62
290.448	80.62
290.679	80.62
290.91	89.62
291.141	74.62
291.371	92.62
291.602	72.62
291.833	85.62
292.064	96.62
292.295	88.62
292.526	87.62
292.757	91.62
292.987	84.62
293.218	87.62
293.449	70.62
293.68	79.62
293.91	78.62
294.141	83.62
294.372	89.62
294.603	83.62
294.833	90.62
295.064	82.62
295.295	101.62
295.525	84.62
295.756	76.62
295.987	87.62
296.217	82.62
296.448	84.62
296.679	90.62
296.909	92.62
297.14	89.62
297.37	78.62
297.601	66.62
297.831	73.62
298.062	86.62
298.292	94.62
298.523	84.62
298.753	90.62
298.984	88.62
299.214	93.62
299.445	91.62
299.675	86.62
299.905	75.62
300.136	60.62
300.366	86.62
300.597	66.62
300.827	81.62
301.057	79.62
301.288	77.62
301.518	85.62
301.748	69.62
301.979	81.62
302.209	88.62
302.439	70.62
302.669	94.62
302.9	102.62
303.13	79.62
303.36	74.62
303.59	94.62
303.82	96.62
304.051	92.62
304.281	100.62
304.511	87.62
304.741	88.62
304.971	79.62
305.201	80.62
305.431	85.62
305.661	80.62
305.891	66.62
306.121	93.62
306.352	89.62
306.582	88.62
306.812	80.62
307.042	73.62
307.272	84.62
307.502	88.62
307.731	73.62
307.961	82.62
308.191	92.62
308.421	84.62
308.651	91.62
308.881	89.62
309.111	79.62
309.341	86.62
309.571	82.62
309.8	81.62
310.03	95.62
310.26	78.62
310.49	87.62
310.72	80.62
310.949	95.62
311.179	78.62
311.409	92.62
311.639	101.62
311.868	92.62
312.098	87.62
312.328	77.62
312.557	81.62
312.787	104.62
313.017	98.62
313.246	87.62
313.476	84.62
313.706	79.62
313.935	98.62
314.165	87.62
314.394	73.62
314.624	84.62
314.853	97.62
315.083	88.62
315.312	85.62
315.542	82.62
315.771	84.62
316.001	93.62
316.23	73.62
316.46	82.62
316.689	89.62
316.919	84.62
317.148	91.62
317.377	86.62
317.607	78.62
317.836	75.62
318.065	83.62
318.295	84.62
318.524	77.62
318.753	85.62
318.983	85.62
319.212	99.62
319.441	87.62
319.67	91.62
319.9	101.62
320.129	94.62
320.358	89.62
320.587	87.62
320.816	94.62
321.046	87.62
321.275	78.62
321.504	91.62
321.733	102.62
321.962	100.62
322.191	82.62
322.42	78.62
322.649	91.62
322.878	98.62
323.108	80.62
323.337	94.62
323.566	98.62
323.795	107.62
324.024	87.62
324.253	79.62
324.482	84.62
324.71	89.62
324.939	79.62
325.168	94.62
325.397	92.62
325.626	86.62
325.855	75.62
326.084	78.62
326.313	94.62
326.542	86.62
326.77	84.62
326.999	84.62
327.228	80.62
327.457	91.62
327.686	83.62
327.914	80.62
328.143	93.62
328.372	86.62
328.6	89.62
328.829	93.62
329.058	84.62
329.287	92.62
329.515	85.62
329.744	98.62
329.972	82.62
330.201	73.62
330.43	96.62
330.658	93.62
330.887	83.62
331.115	91.62
331.344	90.62
331.572	82.62
331.801	101.62
332.03	81.62
332.258	79.62
332.486	83.62
332.715	84.62
332.943	87.62
333.172	82.62
333.4	94.62
333.629	88.62
333.857	97.62
334.085	83.62
334.314	70.62
334.542	88.62
334.771	87.62
334.999	99.62
335.227	102.62
335.455	91.62
335.684	85.62
335.912	90.62
336.14	77.62
336.369	72.62
336.597	78.62
336.825	105.62
337.053	92.62
337.281	77.62
337.51	80.62
337.738	78.62
337.966	91.62
338.194	87.62
338.422	78.62
338.65	84.62
338.878	92.62
339.106	91.62
339.334	86.62
339.562	92.62
339.79	93.62
340.018	78.62
340.246	90.62
340.474	68.62
340.702	86.62
340.93	83.62
341.158	99.62
341.386	80.62
341.614	86.62
341.842	90.62
342.07	75.62
342.298	91.62
342.526	77.62
342.754	92.62
342.981	84.62
343.209	90.62
343.437	90.62
343.665	95.62
343.893	89.62
344.12	99.62
344.348	91.62
344.576	77.62
344.804	82.62
345.031	86.62
345.259	96.62
345.487	100.62
345.714	90.62
345.942	85.62
346.17	86.62
346.397	79.62
346.625	84.62
346.853	87.62
347.08	84.62
347.308	90.62
347.535	91.62
347.763	78.62
347.99	84.62
348.218	88.62
348.445	100.62
348.673	75.62
348.9	91.62
349.128	98.62
349.355	90.62
349.583	79.62
349.81	85.62
350.037	85.62
350.265	84.62
350.492	72.62
350.72	78.62
350.947	80.62
351.174	85.62
351.402	78.62
351.629	84.62
351.856	84.62
352.083	85.62
352.311	89.62
352.538	93.62
352.765	84.62
352.992	93.62
353.22	91.62
353.447	101.62
353.674	92.62
353.901	91.62
354.128	74.62
354.355	88.62
354.583	81.62
354.81	77.62
355.037	102.62
355.264	82.62
355.491	89.62
355.718	89.62
355.945	99.62
356.172	89.62
356.399	107.62
356.626	82.62
356.853	85.62
357.08	92.62
357.307	74.62
357.534	85.62
357.761	86.62
357.988	102.62
358.215	92.62
358.441	89.62
358.668	93.62
358.895	99.62
359.122	90.62
359.349	74.62
359.576	78.62
359.802	73.62
360.029	81.62
360.256	74.62
360.483	77.62
360.709	90.62
360.936	102.62
361.163	80.62
361.39	95.62
361.616	75.62
361.843	88.62
362.07	78.62
362.296	81.62
362.523	84.62
362.749	77.62
362.976	95.62
363.203	87.62
363.429	93.62
363.656	91.62
363.882	98.62
364.109	87.62
364.335	85.62
364.562	82.62
364.788	67.62
365.015	102.62
365.241	88.62
365.468	84.62
365.694	85.62
365.92	91.62
366.147	86.62
366.373	78.62
366.599	82.62
366.826	78.62
367.052	85.62
367.278	86.62
367.505	101.62
367.731	86.62
367.957	93.62
368.184	87.62
368.41	96.62
368.636	89.62
368.862	100.62
369.089	84.62
369.315	77.62
369.541	83.62
369.767	92.62
369.993	84.62
370.219	82.62
370.445	86.62
370.672	79.62
370.898	86.62
371.124	96.62
371.35	96.62
371.576	93.62
371.802	88.62
372.028	84.62
372.254	80.62
372.48	104.62
372.706	79.62
372.932	92.62
373.158	81.62
373.384	70.62
373.61	107.62
373.835	83.62
374.061	88.62
374.287	83.62
374.513	101.62
374.739	84.62
374.965	93.62
375.191	79.62
375.416	87.62
375.642	99.62
375.868	94.62
376.094	84.62
376.319	89.62
376.545	80.62
376.771	77.62
376.997	92.62
377.222	86.62
377.448	82.62
377.674	78.62
377.899	80.62
378.125	85.62
378.35	93.62
378.576	80.62
378.802	82.62
379.027	88.62
379.253	85.62
379.478	87.62
379.704	86.62
379.929	85.62
380.155	94.62
380.38	87.62
380.606	70.62
380.831	103.62
381.057	91.62
381.282	84.62
381.507	78.62
381.733	83.62
381.958	83.62
382.184	81.62
382.409	94.62
382.634	73.62
382.86	81.62
383.085	79.62
383.31	84.62
383.535	86.62
383.761	78.62
383.986	76.62
384.211	80.62
384.436	80.62
384.662	80.62
384.887	90.62
385.112	78.62
385.337	87.62
385.562	79.62
385.787	89.62
386.013	87.62
386.238	88.62
386.463	90.62
386.688	95.62
386.913	73.62
387.138	90.62
387.363	77.62
387.588	91.62
387.813	74.62
388.038	92.62
388.263	91.62
388.488	81.62
388.713	90.62
388.938	86.62
389.163	99.62
389.387	77.62
389.612	82.62
389.837	86.62
390.062	94.62
390.287	87.62
390.512	100.62
390.736	80.62
390.961	73.62
391.186	85.62
391.411	86.62
391.636	84.62
391.86	82.62
392.085	91.62
392.31	88.62
392.534	72.62
392.759	83.62
392.984	89.62
393.208	83.62
393.433	80.62
393.658	82.62
393.882	81.62
394.107	98.62
394.331	92.62
394.556	86.62
394.78	96.62
395.005	82.62
395.229	86.62
395.454	91.62
395.678	98.62
395.903	91.62
396.127	97.62
396.352	100.62
396.576	79.62
396.801	84.62
397.025	75.62
397.249	80.62
397.474	83.62
397.698	78.62
397.922	63.62
398.147	79.62
398.371	78.62
398.595	100.62
398.82	88.62
399.044	92.62
399.268	86.62
399.492	93.62
399.717	89.62
399.941	102.62
400.165	104.62
400.389	69.62
400.613	66.62
400.837	94.62
401.062	90.62
401.286	87.62
401.51	90.62
401.734	86.62
401.958	81.62
402.182	83.62
402.406	88.62
402.63	92.62
402.854	80.62
403.078	82.62
403.302	85.62
403.526	104.62
403.75	82.62
403.974	91.62
404.198	93.62
404.422	81.62
404.645	99.62
404.869	72.62
405.093	90.62
405.317	80.62
405.541	99.62
405.765	89.62
405.988	79.62
406.212	85.62
406.436	90.62
406.66	88.62
406.883	87.62
407.107	105.62
407.331	94.62
407.555	90.62
407.778	94.62
408.002	93.62
408.226	88.62
408.449	87.62
408.673	82.62
408.896	91.62
409.12	85.62
409.344	87.62
409.567	80.62
409.791	81.62
410.014	69.62
410.238	89.62
410.461	86.62
410.685	90.62
410.908	90.62
411.132	99.62
411.355	90.62
411.578	84.62
411.802	87.62
412.025	94.62
412.249	74.62
412.472	76.62
412.695	80.62
412.919	83.62
413.142	91.62
413.365	99.62
413.589	90.62
413.812	90.62
414.035	91.62
414.258	85.62
414.482	87.62
414.705	84.62
414.928	90.62
415.151	81.62
415.374	88.62
415.597	95.62
415.821	102.62
416.044	85.62
416.267	88.62
416.49	80.62
416.713	76.62
416.936	91.62
417.159	80.62
417.382	85.62
417.605	88.62
417.828	76.62
418.051	85.62
418.274	88.62
418.497	85.62
418.72	85.62
418.943	89.62
419.166	81.62
419.389	102.62
419.611	87.62
419.834	83.62
420.057	92.62
420.28	89.62
420.503	81.62
420.726	95.62
420.948	80.62
421.171	72.62
421.394	79.62
421.617	85.62
421.839	70.62
422.062	82.62
422.285	86.62
422.507	87.62
422.73	93.62
422.953	102.62
423.175	90.62
423.398	90.62
423.621	93.62
423.843	87.62
424.066	87.62
424.288	90.62
424.511	83.62
424.733	86.62
424.956	70.62
425.178	85.62
425.401	84.62
425.623	82.62
425.846	84.62
426.068	83.62
426.291	75.62
426.513	78.62
426.735	98.62
426.958	86.62
427.18	72.62
427.402	76.62
427.625	86.62
427.847	88.62
428.069	81.62
428.292	92.62
428.514	95.62
428.736	86.62
428.958	103.62
429.181	96.62
429.403	78.62
429.625	89.62
429.847	78.62
430.069	97.62
430.292	88.62
430.514	86.62
430.736	84.62
430.958	90.62
431.18	78.62
431.402	88.62
431.624	70.62
431.846	89.62
432.068	91.62
432.29	74.62
432.512	84.62
432.734	90.62
432.956	94.62
433.178	80.62
433.4	74.62
433.622	92.62
433.844	88.62
434.066	80.62
434.287	78.62
434.509	92.62
434.731	89.62
434.953	77.62
435.175	84.62
435.397	80.62
435.618	77.62
435.84	92.62
436.062	79.62
436.284	89.62
436.505	90.62
436.727	92.62
436.949	91.62
437.17	86.62
437.392	79.62
437.614	82.62
437.835	95.62
438.057	94.62
438.278	86.62
438.5	88.62
438.721	86.62
438.943	100.62
439.165	85.62
439.386	82.62
439.608	100.62
439.829	84.62
440.05	88.62
440.272	95.62
440.493	83.62
440.715	98.62
440.936	84.62
441.158	93.62
441.379	76.62
441.6	89.62
441.822	103.62
442.043	87.62
442.264	72.62
442.486	84.62
442.707	87.62
442.928	79.62
443.149	85.62
443.371	90.62
443.592	94.62
443.813	90.62
444.034	84.62
444.255	95.62
444.476	94.62
444.698	101.62
444.919	76.62
445.14	172.62
445.361	114.62
445.582	98.62
445.803	84.62
446.024	87.62
446.245	95.62
446.466	102.62
446.687	86.62
446.908	86.62
447.129	74.62
447.35	81.62
447.571	86.62
447.792	65.62
448.013	81.62
448.234	82.62
448.455	75.62
448.675	83.62
448.896	82.62
449.117	94.62
449.338	95.62
449.559	86.62
449.779	90.62
450	73.62
450.221	76.62
450.442	80.62
450.662	86.62
450.883	95.62
451.104	86.62
451.324	86.62
451.545	86.62
451.766	96.62
451.986	88.62
452.207	79.62
452.428	76.62
452.648	90.62
452.869	79.62
453.089	80.62
453.31	84.62
453.53	79.62
453.751	88.62
453.971	84.62
454.192	89.62
454.412	83.62
454.633	76.62
454.853	74.62
455.073	90.62
455.294	87.62
455.514	88.62
455.734	88.62
455.955	69.62
456.175	76.62
456.395	72.62
456.616	90.62
456.836	83.62
457.056	97.62
457.276	92.62
457.497	85.62
457.717	82.62
457.937	92.62
458.157	76.62
458.377	79.62
458.598	87.62
458.818	73.62
459.038	82.62
459.258	86.62
459.478	79.62
459.698	87.62
459.918	84.62
460.138	80.62
460.358	82.62
460.578	96.62
460.798	99.62
461.018	85.62
461.238	90.62
461.458	89.62
461.678	86.62
461.898	86.62
462.118	89.62
462.338	93.62
462.558	83.62
462.777	79.62
462.997	81.62
463.217	82.62
463.437	93.62
463.657	89.62
463.876	91.62
464.096	90.62
464.316	85.62
464.536	95.62
464.755	77.62
464.975	80.62
465.195	108.62
465.414	101.62
465.634	84.62
465.854	98.62
466.073	73.62
466.293	87.62
466.512	91.62
466.732	74.62
466.951	86.62
467.171	96.62
467.391	72.62
467.61	77.62
467.829	86.62
468.049	97.62
468.268	90.62
468.488	79.62
468.707	75.62
468.927	79.62
469.146	87.62
469.365	92.62
469.585	98.62
469.804	88.62
470.023	69.62
470.243	82.62
470.462	87.62
470.681	74.62
470.901	86.62
471.12	93.62
471.339	91.62
471.558	86.62
471.777	83.62
471.997	75.62
472.216	91.62
472.435	88.62
472.654	64.62
472.873	85.62
473.092	70.62
473.311	83.62
473.53	95.62
473.749	105.62
473.968	82.62
474.187	97.62
474.406	90.62
474.625	79.62
474.844	84.62
475.063	73.62
475.282	86.62
475.501	85.62
475.72	88.62
475.939	90.62
476.158	81.62
476.377	84.62
476.596	82.62
476.814	90.62
477.033	97.62
477.252	75.62
477.471	89.62
477.69	84.62
477.908	86.62
478.127	84.62
478.346	88.62
478.564	75.62
478.783	68.62
479.002	87.62
479.22	78.62
479.439	99.62
479.658	82.62
479.876	86.62
480.095	79.62
480.313	92.62
480.532	91.62
480.751	99.62
480.969	84.62
481.188	99.62
481.406	100.62
481.624	91.62
481.843	90.62
482.061	87.62
482.28	77.62
482.498	73.62
482.717	85.62
482.935	95.62
483.153	86.62
483.372	82.62
483.59	90.62
483.808	78.62
484.027	88.62
484.245	106.62
484.463	82.62
484.681	80.62
484.9	90.62
485.118	90.62
485.336	89.62
485.554	89.62
485.772	99.62
485.99	82.62
486.209	88.62
486.427	97.62
486.645	98.62
486.863	99.62
487.081	85.62
487.299	91.62
487.517	96.62
487.735	90.62
487.953	84.62
488.171	92.62
488.389	90.62
488.607	86.62
488.825	82.62
489.043	94.62
489.261	89.62
489.479	83.62
489.696	88.62
489.914	83.62
490.132	82.62
490.35	90.62
490.568	96.62
490.786	89.62
491.003	87.62
491.221	81.62
491.439	85.62
491.657	80.62
491.874	92.62
492.092	75.62
492.31	83.62
492.527	74.62
492.745	81.62
492.963	94.62
493.18	93.62
493.398	99.62
493.615	86.62
493.833	93.62
494.05	80.62
494.268	92.62
494.485	90.62
494.703	82.62
494.92	78.62
495.138	95.62
495.355	76.62
495.573	82.62
495.79	84.62
496.008	83.62
496.225	104.62
496.442	86.62
496.66	84.62
496.877	85.62
497.094	87.62
497.312	83.62
497.529	75.62
497.746	95.62
497.963	92.62
498.181	85.62
498.398	95.62
498.615	92.62
498.832	87.62
499.049	86.62
499.267	85.62
499.484	79.62
499.701	109.62
499.918	109.62
500.135	99.62
500.352	111.62
500.569	109.62
500.786	115.62
501.003	117.62
501.22	95.62
501.437	95.62
501.654	105.62
501.871	103.62
502.088	87.62
502.305	84.62
502.522	79.62
502.739	93.62
502.956	86.62
503.172	86.62
503.389	75.62
503.606	93.62
503.823	92.62
504.04	84.62
504.256	85.62
504.473	91.62
504.69	79.62
504.907	80.62
505.123	77.62
505.34	86.62
505.557	80.62
505.773	89.62
505.99	95.62
506.207	87.62
506.423	101.62
506.64	96.62
506.856	76.62
507.073	101.62
507.289	90.62
507.506	84.62
507.722	82.62
507.939	78.62
508.155	104.62
508.372	98.62
508.588	107.62
508.805	103.62
509.021	90.62
509.238	78.62
509.454	94.62
509.67	103.62
509.887	92.62
510.103	96.62
510.319	69.62
510.536	78.62
510.752	76.62
510.968	85.62
511.184	79.62
511.401	89.62
511.617	82.62
511.833	98.62
512.049	94.62
512.265	91.62
512.481	92.62
512.698	83.62
512.914	95.62
513.13	88.62
513.346	74.62
513.562	74.62
513.778	88.62
513.994	94.62
514.21	85.62
514.426	93.62
514.642	80.62
514.858	74.62
515.074	78.62
515.29	87.62
515.506	80.62
515.721	82.62
515.937	90.62
516.153	86.62
516.369	95.62
516.585	86.62
516.801	78.62
517.016	99.62
517.232	99.62
517.448	109.62
517.664	91.62
517.879	86.62
518.095	82.62
518.311	103.62
518.527	91.62
518.742	89.62
518.958	82.62
519.173	100.62
519.389	87.62
519.605	74.62
519.82	95.62
520.036	75.62
520.251	102.62
520.467	84.62
520.682	76.62
520.898	79.62
521.113	72.62
521.329	89.62
521.544	98.62
521.76	86.62
521.975	89.62
522.19	85.62
522.406	90.62
522.621	99.62
522.836	79.62
523.052	90.62
523.267	98.62
523.482	84.62
523.698	95.62
523.913	83.62
524.128	83.62
524.343	88.62
524.559	77.62
524.774	86.62
524.989	95.62
525.204	84.62
525.419	93.62
525.634	106.62
525.849	90.62
526.064	93.62
526.28	86.62
526.495	105.62
526.71	90.62
526.925	101.62
527.14	79.62
527.355	84.62
527.57	80.62
527.785	74.62
527.999	76.62
528.214	90.62
528.429	85.62
528.644	103.62
528.859	87.62
529.074	95.62
529.289	88.62
529.503	82.62
529.718	85.62
529.933	77.62
530.148	84.62
530.363	79.62
530.577	98.62
530.792	88.62
531.007	89.62
531.221	97.62
531.436	88.62
531.651	86.62
531.865	83.62
532.08	93.62
532.295	91.62
532.509	89.62
532.724	91.62
532.938	93.62
533.153	82.62
533.367	84.62
533.582	88.62
533.796	86.62
534.011	83.62
534.225	78.62
534.44	92.62
534.654	114.62
534.868	76.62
535.083	94.62
535.297	86.62
535.511	90.62
535.726	71.62
535.94	84.62
536.154	103.62
536.369	92.62
536.583	88.62
536.797	110.62
537.011	91.62
537.225	79.62
537.44	90.62
537.654	78.62
537.868	91.62
538.082	72.62
538.296	95.62
538.51	84.62
538.724	103.62
538.938	92.62
539.153	100.62
539.367	91.62
539.581	82.62
539.795	92.62
540.009	79.62
540.222	92.62
540.436	91.62
540.65	87.62
540.864	83.62
541.078	87.62
541.292	86.62
541.506	91.62
541.72	82.62
541.934	85.62
542.147	95.62
542.361	91.62
542.575	89.62
542.789	86.62
543.002	81.62
543.216	86.62
543.43	89.62
543.644	83.62
543.857	89.62
544.071	90.62
544.285	93.62
544.498	89.62
544.712	89.62
544.925	83.62
545.139	91.62
545.352	88.62
545.566	86.62
545.779	75.62
545.993	94.62
546.206	86.62
546.42	83.62
546.633	95.62
546.847	76.62
547.06	76.62
547.274	104.62
547.487	90.62
547.7	82.62
547.914	88.62
548.127	93.62
548.34	94.62
548.554	95.62
548.767	86.62
548.98	86.62
549.193	95.62
549.407	87.62
549.62	93.62
549.833	93.62
550.046	90.62
550.259	84.62
550.473	90.62
550.686	92.62
550.899	80.62
551.112	90.62
551.325	88.62
551.538	86.62
551.751	87.62
551.964	76.62
552.177	89.62
552.39	99.62
552.603	92.62
552.816	74.62
553.029	87.62
553.242	90.62
553.455	79.62
553.667	81.62
553.88	93.62
554.093	96.62
554.306	79.62
554.519	74.62
554.732	78.62
554.944	87.62
555.157	82.62
555.37	86.62
555.583	88.62
555.795	91.62
556.008	91.62
556.221	100.62
556.433	87.62
556.646	91.62
556.859	95.62
557.071	82.62
557.284	88.62
557.496	84.62
557.709	87.62
557.921	90.62
558.134	85.62
558.346	89.62
558.559	89.62
558.771	78.62
558.984	84.62
559.196	82.62
559.409	84.62
559.621	90.62
559.833	99.62
560.046	79.62
560.258	88.62
560.47	70.62
560.683	77.62
560.895	98.62
561.107	85.62
561.32	82.62
561.532	90.62
561.744	89.62
561.956	92.62
562.168	85.62
562.381	80.62
562.593	94.62
562.805	79.62
563.017	88.62
563.229	80.62
563.441	94.62
563.653	76.62
563.865	74.62
564.077	90.62
564.289	86.62
564.501	100.62
564.713	83.62
564.925	85.62
565.137	70.62
565.349	90.62
565.561	95.62
565.773	94.62
565.985	94.62
566.197	91.62
566.408	83.62
566.62	84.62
566.832	113.62
567.044	88.62
567.255	84.62
567.467	92.62
567.679	82.62
567.891	93.62
568.102	82.62
568.314	88.62
568.526	92.62
568.737	88.62
568.949	95.62
569.161	100.62
569.372	92.62
569.584	85.62
569.795	106.62
570.007	86.62
570.218	81.62
570.43	79.62
570.641	98.62
570.853	88.62
571.064	95.62
571.276	74.62
571.487	78.62
571.698	90.62
571.91	80.62
572.121	100.62
572.333	82.62
572.544	87.62
572.755	81.62
572.966	76.62
573.178	78.62
573.389	88.62
573.6	72.62
573.811	95.62
574.023	81.62
574.234	71.62
574.445	90.62
574.656	73.62
574.867	86.62
575.078	94.62
575.289	80.62
575.501	91.62
575.712	64.62
575.923	85.62
576.134	86.62
576.345	69.62
576.556	81.62
576.767	88.62
576.978	106.62
577.188	104.62
577.399	93.62
577.61	94.62
577.821	86.62
578.032	89.62
578.243	88.62
578.454	94.62
578.665	80.62
578.875	102.62
579.086	78.62
579.297	79.62
579.508	84.62
579.718	93.62
579.929	82.62
580.14	93.62
580.35	89.62
580.561	95.62
580.772	102.62
580.982	87.62
581.193	75.62
581.403	83.62
581.614	92.62
581.825	104.62
582.035	93.62
582.246	79.62
582.456	87.62
582.667	93.62
582.877	94.62
583.087	74.62
583.298	88.62
583.508	75.62
583.719	74.62
583.929	90.62
584.139	83.62
584.35	87.62
584.56	93.62
584.77	74.62
584.981	90.62
585.191	89.62
585.401	78.62
585.611	90.62
585.821	95.62
586.032	86.62
586.242	84.62
586.452	83.62
586.662	80.62
586.872	79.62
587.082	77.62
587.292	79.62
587.502	88.62
587.713	82.62
587.923	80.62
588.133	91.62
588.343	77.62
588.553	90.62
588.762	104.62
588.972	87.62
589.182	91.62
589.392	83.62
589.602	86.62
589.812	86.62
590.022	92.62
590.232	82.62
590.441	92.62
590.651	84.62
590.861	84.62
591.071	79.62
591.281	89.62
591.49	84.62
591.7	83.62
591.91	91.62
592.119	85.62
592.329	77.62
592.539	86.62
592.748	95.62
592.958	83.62
593.167	78.62
593.377	91.62
593.587	100.62
593.796	87.62
594.006	94.62
594.215	78.62
594.424	89.62
594.634	90.62
594.843	84.62
595.053	95.62
595.262	74.62
595.472	96.62
595.681	80.62
595.89	98.62
596.1	75.62
596.309	75.62
596.518	77.62
596.727	80.62
596.937	78.62
597.146	83.62
597.355	84.62
597.564	93.62
597.774	77.62
597.983	77.62
598.192	73.62
598.401	83.62
598.61	72.62
598.819	94.62
599.028	83.62
599.237	85.62
599.446	82.62
599.655	77.62
599.864	89.62
600.073	98.62
600.282	93.62
600.491	86.62
600.7	83.62
600.909	84.62
601.118	84.62
601.327	95.62
601.536	77.62
601.745	79.62
601.953	84.62
602.162	82.62
602.371	89.62
602.58	86.62
602.789	87.62
602.997	78.62
603.206	80.62
603.415	79.62
603.623	78.62
603.832	88.62
604.041	89.62
604.249	88.62
604.458	84.62
604.666	84.62
604.875	95.62
605.084	86.62
605.292	85.62
605.501	64.62
605.709	72.62
605.918	87.62
606.126	79.62
606.334	97.62
606.543	86.62
606.751	84.62
606.96	88.62
607.168	82.62
607.376	79.62
607.585	91.62
607.793	89.62
608.001	92.62
608.21	75.62
608.418	86.62
608.626	93.62
608.834	94.62
609.043	97.62
609.251	102.62
609.459	94.62
609.667	90.62
609.875	87.62
610.083	102.62
610.291	94.62
610.499	87.62
610.707	83.62
610.916	86.62
611.124	81.62
611.332	80.62
611.54	92.62
611.748	74.62
611.955	93.62
612.163	84.62
612.371	78.62
612.579	91.62
612.787	86.62
612.995	88.62
613.203	90.62
613.411	84.62
613.618	82.62
613.826	90.62
614.034	84.62
614.242	81.62
614.449	88.62
614.657	92.62
614.865	79.62
615.072	77.62
615.28	64.62
615.488	83.62
615.695	79.62
615.903	88.62
616.111	71.62
616.318	93.62
616.526	87.62
616.733	91.62
616.941	84.62
617.148	95.62
617.356	93.62
617.563	78.62
617.771	79.62
617.978	90.62
618.185	80.62
618.393	96.62
618.6	70.62
618.807	97.62
619.015	98.62
619.222	88.62
619.429	82.62
619.637	75.62
619.844	93.62
620.051	83.62
620.258	87.62
620.466	88.62
620.673	74.62
620.88	74.62
621.087	91.62
621.294	95.62
621.501	88.62
621.708	90.62
621.915	92.62
622.122	91.62
622.329	94.62
622.536	78.62
622.743	73.62
622.95	70.62
623.157	84.62
623.364	94.62
623.571	88.62
623.778	76.62
623.985	86.62
624.192	82.62
624.399	84.62
624.606	90.62
624.812	77.62
625.019	88.62
625.226	76.62
625.433	100.62
625.639	79.62
625.846	79.62
626.053	95.62
626.259	88.62
626.466	94.62
626.673	79.62
626.879	85.62
627.086	94.62
627.293	72.62
627.499	84.62
627.706	86.62
627.912	86.62
628.119	82.62
628.325	95.62
628.532	83.62
628.738	82.62
628.945	82.62
629.151	67.62
629.357	85.62
629.564	70.62
629.77	83.62
629.976	77.62
630.183	82.62
630.389	94.62
630.595	85.62
630.802	84.62
631.008	80.62
631.214	83.62
631.42	83.62
631.627	89.62
631.833	84.62
632.039	87.62
632.245	81.62
632.451	66.62
632.657	83.62
632.863	93.62
633.069	80.62
633.275	85.62
633.481	80.62
633.688	81.62
633.893	85.62
634.099	77.62
634.305	72.62
634.511	99.62
634.717	92.62
634.923	82.62
635.129	77.62
635.335	87.62
635.541	83.62
635.747	78.62
635.952	82.62
636.158	98.62
636.364	78.62
636.57	82.62
636.775	82.62
636.981	71.62
637.187	78.62
637.392	77.62
637.598	80.62
637.804	78.62
638.009	76.62
638.215	87.62
638.421	84.62
638.626	74.62
638.832	93.62
639.037	80.62
639.243	85.62
639.448	91.62
639.654	84.62
639.859	82.62
640.065	90.62
640.27	94.62
640.475	77.62
640.681	90.62
640.886	67.62
641.091	78.62
641.297	79.62
641.502	82.62
641.707	73.62
641.913	89.62
642.118	72.62
642.323	77.62
642.528	86.62
642.733	78.62
642.939	80.62
643.144	82.62
643.349	82.62
643.554	74.62
643.759	86.62
643.964	79.62
644.169	64.62
644.374	83.62
644.579	83.62
644.784	84.62
644.989	75.62
645.194	84.62
645.399	90.62
645.604	82.62
645.809	80.62
646.014	66.62
646.219	81.62
646.423	91.62
646.628	88.62
646.833	84.62
647.038	71.62
647.243	79.62
647.447	85.62
647.652	70.62
647.857	80.62
648.062	90.62
648.266	88.62
648.471	76.62
648.676	82.62
648.88	82.62
649.085	85.62
649.289	85.62
649.494	75.62
649.698	66.62
649.903	72.62
650.107	78.62
650.312	91.62
650.516	86.62
650.721	83.62
650.925	86.62
651.13	92.62
651.334	85.62
651.539	86.62
651.743	90.62
651.947	73.62
652.152	84.62
652.356	87.62
652.56	93.62
652.764	77.62
652.969	83.62
653.173	74.62
653.377	71.62
653.581	82.62
653.785	84.62
653.99	75.62
654.194	78.62
654.398	81.62
654.602	80.62
654.806	75.62
655.01	82.62
655.214	79.62
655.418	67.62
655.622	78.62
655.826	87.62
656.03	84.62
656.234	82.62
656.438	74.62
656.642	82.62
656.846	84.62
657.049	77.62
657.253	81.62
657.457	85.62
657.661	74.62
657.865	78.62
658.068	95.62
658.272	86.62
658.476	74.62
658.68	84.62
658.883	75.62
659.087	95.62
659.291	79.62
659.494	67.62
659.698	75.62
659.901	77.62
660.105	65.62
660.309	69.62
660.512	71.62
660.716	62.62
660.919	91.62
661.123	87.62
661.326	68.62
661.53	63.62
661.733	82.62
661.936	82.62
662.14	64.62
662.343	63.62
662.546	63.62
662.75	76.62
662.953	98.62
663.156	84.62
663.36	86.62
663.563	61.62
663.766	73.62
663.969	81.62
664.173	75.62
664.376	77.62
664.579	73.62
664.782	69.62
664.985	62.62
665.188	77.62
665.391	72.62
665.594	76.62
665.797	88.62
666	71.62
666.203	76.62
666.406	74.62
666.609	87.62
666.812	88.62
667.015	80.62
667.218	79.62
667.421	85.62
667.624	75.62
667.827	74.62
668.03	84.62
668.232	88.62
668.435	83.62
668.638	68.62
668.841	84.62
669.043	78.62
669.246	84.62
669.449	75.62
669.651	72.62
669.854	74.62
670.057	80.62
670.259	85.62
670.462	90.62
670.665	72.62
670.867	77.62
671.07	82.62
671.272	78.62
671.475	79.62
671.677	63.62
671.88	79.62
672.082	79.62
672.284	73.62
672.487	84.62
672.689	66.62
672.892	68.62
