Data from BG_HRD10591_070.txt Node
Date: Fri May 16 15:27:22 EDT 2025
User: Yrep
Spectrometer: HR+D1059
Trigger mode: 1
Integration Time (sec): 1.000000E-1
Scans to average: 1
Electric dark correction enabled: true
Nonlinearity correction enabled: false
Boxcar width: 0
XAxis mode: Wavelengths
Number of Pixels in Spectrum: 2048
>>>>>Begin Spectral Data<<<<<
223.165	-19.19
223.4	-19.19
223.635	-19.19
223.869	-21.19
224.104	-21.19
224.338	-16.19
224.573	-22.19
224.808	2.81
225.042	-4.19
225.277	-2.19
225.511	-9.19
225.746	4.81
225.98	-4.19
226.215	15.81
226.449	22.81
226.683	26.81
226.918	15.81
227.152	30.81
227.387	44.81
227.621	39.81
227.856	52.81
228.09	44.81
228.324	45.81
228.559	52.81
228.793	44.81
229.027	51.81
229.262	56.81
229.496	58.81
229.73	87.81
229.964	75.81
230.199	79.81
230.433	70.81
230.667	61.81
230.901	81.81
231.136	82.81
231.37	78.81
231.604	74.81
231.838	66.81
232.072	76.81
232.306	83.81
232.541	77.81
232.775	76.81
233.009	66.81
233.243	91.81
233.477	82.81
233.711	87.81
233.945	94.81
234.179	83.81
234.413	88.81
234.647	88.81
234.881	78.81
235.115	68.81
235.349	61.81
235.583	77.81
235.817	65.81
236.051	68.81
236.285	73.81
236.519	67.81
236.753	67.81
236.987	62.81
237.221	76.81
237.455	83.81
237.689	64.81
237.922	71.81
238.156	66.81
238.39	82.81
238.624	80.81
238.858	59.81
239.091	71.81
239.325	70.81
239.559	70.81
239.793	60.81
240.027	77.81
240.26	75.81
240.494	84.81
240.728	86.81
240.961	69.81
241.195	69.81
241.429	84.81
241.662	67.81
241.896	73.81
242.13	81.81
242.363	74.81
242.597	74.81
242.83	82.81
243.064	68.81
243.298	75.81
243.531	67.81
243.765	58.81
243.998	75.81
244.232	76.81
244.465	81.81
244.699	83.81
244.932	74.81
245.166	75.81
245.399	75.81
245.633	72.81
245.866	82.81
246.099	81.81
246.333	73.81
246.566	77.81
246.8	78.81
247.033	73.81
247.266	77.81
247.5	70.81
247.733	67.81
247.966	71.81
248.2	81.81
248.433	78.81
248.666	87.81
248.899	74.81
249.133	69.81
249.366	87.81
249.599	74.81
249.832	78.81
250.066	82.81
250.299	73.81
250.532	78.81
250.765	79.81
250.998	77.81
251.231	84.81
251.465	83.81
251.698	82.81
251.931	88.81
252.164	73.81
252.397	75.81
252.63	71.81
252.863	69.81
253.096	72.81
253.329	86.81
253.562	75.81
253.795	87.81
254.028	73.81
254.261	87.81
254.494	90.81
254.727	78.81
254.96	84.81
255.193	71.81
255.426	82.81
255.659	71.81
255.892	59.81
256.124	63.81
256.357	87.81
256.59	86.81
256.823	65.81
257.056	75.81
257.289	69.81
257.521	77.81
257.754	79.81
257.987	87.81
258.22	70.81
258.452	69.81
258.685	78.81
258.918	78.81
259.151	65.81
259.383	82.81
259.616	69.81
259.849	63.81
260.081	87.81
260.314	96.81
260.547	89.81
260.779	82.81
261.012	82.81
261.244	85.81
261.477	82.81
261.71	81.81
261.942	74.81
262.175	76.81
262.407	70.81
262.64	59.81
262.872	67.81
263.105	87.81
263.337	86.81
263.57	76.81
263.802	87.81
264.035	81.81
264.267	73.81
264.499	71.81
264.732	70.81
264.964	76.81
265.197	83.81
265.429	81.81
265.661	74.81
265.894	71.81
266.126	67.81
266.358	89.81
266.591	72.81
266.823	74.81
267.055	74.81
267.287	82.81
267.52	82.81
267.752	81.81
267.984	87.81
268.216	91.81
268.448	83.81
268.681	90.81
268.913	81.81
269.145	86.81
269.377	73.81
269.609	78.81
269.841	72.81
270.073	79.81
270.306	70.81
270.538	70.81
270.77	60.81
271.002	89.81
271.234	73.81
271.466	70.81
271.698	79.81
271.93	70.81
272.162	82.81
272.394	82.81
272.626	87.81
272.858	81.81
273.09	88.81
273.322	75.81
273.553	80.81
273.785	73.81
274.017	78.81
274.249	71.81
274.481	83.81
274.713	73.81
274.945	81.81
275.176	81.81
275.408	87.81
275.64	85.81
275.872	78.81
276.104	81.81
276.335	81.81
276.567	76.81
276.799	85.81
277.031	85.81
277.262	81.81
277.494	77.81
277.726	74.81
277.957	85.81
278.189	70.81
278.421	71.81
278.652	64.81
278.884	73.81
279.115	91.81
279.347	87.81
279.579	85.81
279.81	69.81
280.042	84.81
280.273	74.81
280.505	82.81
280.736	79.81
280.968	79.81
281.199	86.81
281.431	82.81
281.662	88.81
281.894	75.81
282.125	93.81
282.356	73.81
282.588	70.81
282.819	84.81
283.051	72.81
283.282	90.81
283.513	100.81
283.745	81.81
283.976	89.81
284.207	75.81
284.439	94.81
284.67	87.81
284.901	81.81
285.132	80.81
285.364	80.81
285.595	72.81
285.826	69.81
286.057	75.81
286.288	90.81
286.52	85.81
286.751	67.81
286.982	85.81
287.213	101.81
287.444	83.81
287.675	73.81
287.906	70.81
288.138	77.81
288.369	89.81
288.6	86.81
288.831	83.81
289.062	89.81
289.293	88.81
289.524	67.81
289.755	82.81
289.986	79.81
290.217	79.81
290.448	77.81
290.679	75.81
290.91	101.81
291.141	86.81
291.371	84.81
291.602	75.81
291.833	83.81
292.064	85.81
292.295	73.81
292.526	81.81
292.757	86.81
292.987	77.81
293.218	66.81
293.449	89.81
293.68	74.81
293.91	73.81
294.141	108.81
294.372	64.81
294.603	67.81
294.833	75.81
295.064	85.81
295.295	97.81
295.525	95.81
295.756	87.81
295.987	89.81
296.217	83.81
296.448	69.81
296.679	77.81
296.909	78.81
297.14	70.81
297.37	92.81
297.601	83.81
297.831	86.81
298.062	85.81
298.292	71.81
298.523	79.81
298.753	81.81
298.984	69.81
299.214	78.81
299.445	87.81
299.675	90.81
299.905	84.81
300.136	83.81
300.366	77.81
300.597	69.81
300.827	83.81
301.057	91.81
301.288	87.81
301.518	87.81
301.748	91.81
301.979	94.81
302.209	81.81
302.439	81.81
302.669	77.81
302.9	83.81
303.13	85.81
303.36	93.81
303.59	91.81
303.82	88.81
304.051	85.81
304.281	86.81
304.511	73.81
304.741	99.81
304.971	85.81
305.201	84.81
305.431	75.81
305.661	62.81
305.891	81.81
306.121	86.81
306.352	86.81
306.582	76.81
306.812	67.81
307.042	75.81
307.272	94.81
307.502	67.81
307.731	79.81
307.961	78.81
308.191	82.81
308.421	83.81
308.651	70.81
308.881	76.81
309.111	72.81
309.341	79.81
309.571	84.81
309.8	66.81
310.03	82.81
310.26	74.81
310.49	69.81
310.72	74.81
310.949	78.81
311.179	75.81
311.409	71.81
311.639	90.81
311.868	86.81
312.098	90.81
312.328	85.81
312.557	85.81
312.787	77.81
313.017	81.81
313.246	61.81
313.476	80.81
313.706	67.81
313.935	86.81
314.165	75.81
314.394	81.81
314.624	98.81
314.853	90.81
315.083	86.81
315.312	88.81
315.542	87.81
315.771	78.81
316.001	79.81
316.23	89.81
316.46	77.81
316.689	92.81
316.919	80.81
317.148	79.81
317.377	90.81
317.607	86.81
317.836	77.81
318.065	72.81
318.295	81.81
318.524	66.81
318.753	86.81
318.983	81.81
319.212	97.81
319.441	81.81
319.67	88.81
319.9	81.81
320.129	89.81
320.358	88.81
320.587	92.81
320.816	69.81
321.046	79.81
321.275	90.81
321.504	83.81
321.733	99.81
321.962	81.81
322.191	77.81
322.42	77.81
322.649	90.81
322.878	77.81
323.108	80.81
323.337	73.81
323.566	78.81
323.795	77.81
324.024	86.81
324.253	91.81
324.482	70.81
324.71	76.81
324.939	73.81
325.168	69.81
325.397	74.81
325.626	73.81
325.855	71.81
326.084	71.81
326.313	87.81
326.542	83.81
326.77	87.81
326.999	70.81
327.228	77.81
327.457	81.81
327.686	83.81
327.914	67.81
328.143	78.81
328.372	74.81
328.6	84.81
328.829	94.81
329.058	84.81
329.287	77.81
329.515	74.81
329.744	67.81
329.972	82.81
330.201	71.81
330.43	73.81
330.658	77.81
330.887	91.81
331.115	72.81
331.344	88.81
331.572	76.81
331.801	85.81
332.03	87.81
332.258	90.81
332.486	77.81
332.715	85.81
332.943	76.81
333.172	82.81
333.4	87.81
333.629	86.81
333.857	78.81
334.085	82.81
334.314	84.81
334.542	89.81
334.771	77.81
334.999	72.81
335.227	75.81
335.455	76.81
335.684	73.81
335.912	56.81
336.14	85.81
336.369	86.81
336.597	77.81
336.825	68.81
337.053	83.81
337.281	82.81
337.51	86.81
337.738	83.81
337.966	75.81
338.194	84.81
338.422	66.81
338.65	83.81
338.878	89.81
339.106	70.81
339.334	77.81
339.562	73.81
339.79	79.81
340.018	83.81
340.246	70.81
340.474	73.81
340.702	92.81
340.93	86.81
341.158	83.81
341.386	85.81
341.614	83.81
341.842	89.81
342.07	74.81
342.298	90.81
342.526	83.81
342.754	93.81
342.981	86.81
343.209	79.81
343.437	79.81
343.665	63.81
343.893	85.81
344.12	85.81
344.348	77.81
344.576	72.81
344.804	62.81
345.031	83.81
345.259	85.81
345.487	79.81
345.714	89.81
345.942	75.81
346.17	79.81
346.397	70.81
346.625	92.81
346.853	78.81
347.08	83.81
347.308	89.81
347.535	90.81
347.763	78.81
347.99	88.81
348.218	72.81
348.445	80.81
348.673	81.81
348.9	90.81
349.128	64.81
349.355	94.81
349.583	85.81
349.81	87.81
350.037	78.81
350.265	77.81
350.492	80.81
350.72	79.81
350.947	83.81
351.174	76.81
351.402	86.81
351.629	78.81
351.856	70.81
352.083	76.81
352.311	77.81
352.538	66.81
352.765	87.81
352.992	77.81
353.22	76.81
353.447	81.81
353.674	82.81
353.901	75.81
354.128	81.81
354.355	87.81
354.583	81.81
354.81	78.81
355.037	93.81
355.264	102.81
355.491	79.81
355.718	81.81
355.945	73.81
356.172	66.81
356.399	67.81
356.626	69.81
356.853	71.81
357.08	70.81
357.307	86.81
357.534	84.81
357.761	87.81
357.988	75.81
358.215	81.81
358.441	90.81
358.668	71.81
358.895	68.81
359.122	73.81
359.349	84.81
359.576	69.81
359.802	77.81
360.029	67.81
360.256	92.81
360.483	74.81
360.709	70.81
360.936	98.81
361.163	84.81
361.39	71.81
361.616	73.81
361.843	84.81
362.07	85.81
362.296	90.81
362.523	91.81
362.749	63.81
362.976	78.81
363.203	89.81
363.429	75.81
363.656	84.81
363.882	76.81
364.109	62.81
364.335	95.81
364.562	78.81
364.788	91.81
365.015	83.81
365.241	85.81
365.468	84.81
365.694	66.81
365.92	80.81
366.147	85.81
366.373	76.81
366.599	81.81
366.826	78.81
367.052	81.81
367.278	86.81
367.505	105.81
367.731	97.81
367.957	89.81
368.184	68.81
368.41	55.81
368.636	74.81
368.862	71.81
369.089	73.81
369.315	72.81
369.541	76.81
369.767	77.81
369.993	75.81
370.219	78.81
370.445	90.81
370.672	80.81
370.898	72.81
371.124	75.81
371.35	89.81
371.576	91.81
371.802	85.81
372.028	81.81
372.254	71.81
372.48	74.81
372.706	89.81
372.932	85.81
373.158	81.81
373.384	94.81
373.61	84.81
373.835	84.81
374.061	88.81
374.287	78.81
374.513	79.81
374.739	67.81
374.965	71.81
375.191	93.81
375.416	80.81
375.642	78.81
375.868	85.81
376.094	83.81
376.319	70.81
376.545	73.81
376.771	92.81
376.997	85.81
377.222	76.81
377.448	86.81
377.674	90.81
377.899	82.81
378.125	69.81
378.35	73.81
378.576	90.81
378.802	87.81
379.027	84.81
379.253	74.81
379.478	68.81
379.704	76.81
379.929	75.81
380.155	69.81
380.38	76.81
380.606	66.81
380.831	84.81
381.057	85.81
381.282	72.81
381.507	75.81
381.733	78.81
381.958	72.81
382.184	77.81
382.409	67.81
382.634	75.81
382.86	87.81
383.085	68.81
383.31	83.81
383.535	77.81
383.761	85.81
383.986	81.81
384.211	91.81
384.436	86.81
384.662	62.81
384.887	73.81
385.112	74.81
385.337	81.81
385.562	88.81
385.787	81.81
386.013	85.81
386.238	84.81
386.463	82.81
386.688	79.81
386.913	65.81
387.138	73.81
387.363	82.81
387.588	86.81
387.813	87.81
388.038	76.81
388.263	77.81
388.488	79.81
388.713	81.81
388.938	76.81
389.163	82.81
389.387	77.81
389.612	81.81
389.837	77.81
390.062	79.81
390.287	84.81
390.512	80.81
390.736	71.81
390.961	71.81
391.186	81.81
391.411	79.81
391.636	88.81
391.86	80.81
392.085	77.81
392.31	81.81
392.534	90.81
392.759	81.81
392.984	77.81
393.208	66.81
393.433	76.81
393.658	78.81
393.882	76.81
394.107	71.81
394.331	79.81
394.556	71.81
394.78	75.81
395.005	72.81
395.229	84.81
395.454	64.81
395.678	77.81
395.903	82.81
396.127	70.81
396.352	72.81
396.576	79.81
396.801	81.81
397.025	90.81
397.249	87.81
397.474	70.81
397.698	69.81
397.922	83.81
398.147	74.81
398.371	81.81
398.595	78.81
398.82	83.81
399.044	85.81
399.268	82.81
399.492	85.81
399.717	69.81
399.941	71.81
400.165	76.81
400.389	73.81
400.613	82.81
400.837	80.81
401.062	81.81
401.286	78.81
401.51	82.81
401.734	78.81
401.958	79.81
402.182	71.81
402.406	77.81
402.63	58.81
402.854	81.81
403.078	85.81
403.302	77.81
403.526	65.81
403.75	87.81
403.974	90.81
404.198	73.81
404.422	87.81
404.645	70.81
404.869	66.81
405.093	86.81
405.317	62.81
405.541	86.81
405.765	68.81
405.988	79.81
406.212	76.81
406.436	62.81
406.66	73.81
406.883	90.81
407.107	70.81
407.331	72.81
407.555	71.81
407.778	82.81
408.002	72.81
408.226	93.81
408.449	82.81
408.673	85.81
408.896	80.81
409.12	63.81
409.344	85.81
409.567	82.81
409.791	70.81
410.014	84.81
410.238	67.81
410.461	70.81
410.685	87.81
410.908	74.81
411.132	83.81
411.355	78.81
411.578	83.81
411.802	74.81
412.025	89.81
412.249	70.81
412.472	76.81
412.695	72.81
412.919	75.81
413.142	74.81
413.365	82.81
413.589	102.81
413.812	74.81
414.035	76.81
414.258	78.81
414.482	73.81
414.705	73.81
414.928	81.81
415.151	83.81
415.374	91.81
415.597	78.81
415.821	92.81
416.044	82.81
416.267	74.81
416.49	82.81
416.713	76.81
416.936	88.81
417.159	81.81
417.382	85.81
417.605	81.81
417.828	86.81
418.051	64.81
418.274	69.81
418.497	53.81
418.72	75.81
418.943	85.81
419.166	75.81
419.389	76.81
419.611	69.81
419.834	92.81
420.057	82.81
420.28	86.81
420.503	72.81
420.726	67.81
420.948	83.81
421.171	86.81
421.394	81.81
421.617	71.81
421.839	63.81
422.062	81.81
422.285	82.81
422.507	76.81
422.73	76.81
422.953	76.81
423.175	72.81
423.398	78.81
423.621	82.81
423.843	84.81
424.066	70.81
424.288	81.81
424.511	75.81
424.733	68.81
424.956	82.81
425.178	65.81
425.401	85.81
425.623	60.81
425.846	87.81
426.068	84.81
426.291	72.81
426.513	53.81
426.735	76.81
426.958	73.81
427.18	90.81
427.402	86.81
427.625	82.81
427.847	71.81
428.069	77.81
428.292	77.81
428.514	85.81
428.736	74.81
428.958	70.81
429.181	79.81
429.403	72.81
429.625	84.81
429.847	76.81
430.069	74.81
430.292	77.81
430.514	60.81
430.736	72.81
430.958	71.81
431.18	77.81
431.402	81.81
431.624	75.81
431.846	92.81
432.068	75.81
432.29	76.81
432.512	82.81
432.734	94.81
432.956	86.81
433.178	89.81
433.4	93.81
433.622	67.81
433.844	81.81
434.066	74.81
434.287	90.81
434.509	81.81
434.731	77.81
434.953	81.81
435.175	73.81
435.397	65.81
435.618	73.81
435.84	80.81
436.062	72.81
436.284	77.81
436.505	84.81
436.727	86.81
436.949	77.81
437.17	83.81
437.392	85.81
437.614	77.81
437.835	83.81
438.057	76.81
438.278	85.81
438.5	77.81
438.721	74.81
438.943	86.81
439.165	77.81
439.386	83.81
439.608	80.81
439.829	80.81
440.05	76.81
440.272	72.81
440.493	76.81
440.715	80.81
440.936	73.81
441.158	70.81
441.379	65.81
441.6	74.81
441.822	78.81
442.043	78.81
442.264	81.81
442.486	71.81
442.707	87.81
442.928	76.81
443.149	79.81
443.371	82.81
443.592	69.81
443.813	71.81
444.034	83.81
444.255	93.81
444.476	63.81
444.698	76.81
444.919	81.81
445.14	139.81
445.361	121.81
445.582	83.81
445.803	84.81
446.024	88.81
446.245	84.81
446.466	80.81
446.687	75.81
446.908	75.81
447.129	90.81
447.35	62.81
447.571	79.81
447.792	66.81
448.013	82.81
448.234	69.81
448.455	78.81
448.675	69.81
448.896	70.81
449.117	75.81
449.338	79.81
449.559	91.81
449.779	72.81
450	86.81
450.221	80.81
450.442	70.81
450.662	69.81
450.883	71.81
451.104	85.81
451.324	73.81
451.545	73.81
451.766	85.81
451.986	81.81
452.207	84.81
452.428	76.81
452.648	71.81
452.869	74.81
453.089	67.81
453.31	74.81
453.53	75.81
453.751	92.81
453.971	95.81
454.192	77.81
454.412	77.81
454.633	76.81
454.853	84.81
455.073	87.81
455.294	78.81
455.514	82.81
455.734	66.81
455.955	75.81
456.175	76.81
456.395	72.81
456.616	74.81
456.836	79.81
457.056	73.81
457.276	88.81
457.497	75.81
457.717	72.81
457.937	81.81
458.157	79.81
458.377	77.81
458.598	81.81
458.818	86.81
459.038	77.81
459.258	77.81
459.478	74.81
459.698	65.81
459.918	67.81
460.138	67.81
460.358	87.81
460.578	78.81
460.798	78.81
461.018	75.81
461.238	68.81
461.458	67.81
461.678	78.81
461.898	85.81
462.118	72.81
462.338	97.81
462.558	68.81
462.777	77.81
462.997	79.81
463.217	82.81
463.437	90.81
463.657	77.81
463.876	79.81
464.096	76.81
464.316	78.81
464.536	85.81
464.755	81.81
464.975	66.81
465.195	67.81
465.414	74.81
465.634	82.81
465.854	99.81
466.073	77.81
466.293	75.81
466.512	87.81
466.732	86.81
466.951	83.81
467.171	85.81
467.391	74.81
467.61	79.81
467.829	77.81
468.049	80.81
468.268	73.81
468.488	77.81
468.707	75.81
468.927	64.81
469.146	72.81
469.365	86.81
469.585	80.81
469.804	77.81
470.023	81.81
470.243	82.81
470.462	82.81
470.681	78.81
470.901	78.81
471.12	88.81
471.339	84.81
471.558	80.81
471.777	77.81
471.997	76.81
472.216	78.81
472.435	64.81
472.654	75.81
472.873	78.81
473.092	72.81
473.311	75.81
473.53	67.81
473.749	89.81
473.968	82.81
474.187	74.81
474.406	74.81
474.625	74.81
474.844	82.81
475.063	75.81
475.282	66.81
475.501	81.81
475.72	90.81
475.939	82.81
476.158	88.81
476.377	83.81
476.596	70.81
476.814	85.81
477.033	86.81
477.252	74.81
477.471	81.81
477.69	69.81
477.908	73.81
478.127	81.81
478.346	79.81
478.564	87.81
478.783	92.81
479.002	86.81
479.22	82.81
479.439	81.81
479.658	86.81
479.876	76.81
480.095	71.81
480.313	81.81
480.532	74.81
480.751	81.81
480.969	69.81
481.188	75.81
481.406	70.81
481.624	84.81
481.843	81.81
482.061	73.81
482.28	82.81
482.498	75.81
482.717	86.81
482.935	82.81
483.153	84.81
483.372	81.81
483.59	67.81
483.808	77.81
484.027	89.81
484.245	85.81
484.463	77.81
484.681	81.81
484.9	76.81
485.118	64.81
485.336	85.81
485.554	79.81
485.772	77.81
485.99	71.81
486.209	80.81
486.427	72.81
486.645	78.81
486.863	77.81
487.081	97.81
487.299	85.81
487.517	86.81
487.735	72.81
487.953	81.81
488.171	75.81
488.389	69.81
488.607	73.81
488.825	78.81
489.043	69.81
489.261	83.81
489.479	81.81
489.696	88.81
489.914	75.81
490.132	91.81
490.35	86.81
490.568	74.81
490.786	78.81
491.003	78.81
491.221	75.81
491.439	81.81
491.657	90.81
491.874	77.81
492.092	74.81
492.31	82.81
492.527	79.81
492.745	61.81
492.963	75.81
493.18	75.81
493.398	88.81
493.615	85.81
493.833	80.81
494.05	84.81
494.268	91.81
494.485	78.81
494.703	67.81
494.92	71.81
495.138	83.81
495.355	72.81
495.573	88.81
495.79	74.81
496.008	82.81
496.225	82.81
496.442	67.81
496.66	77.81
496.877	74.81
497.094	90.81
497.312	76.81
497.529	92.81
497.746	76.81
497.963	88.81
498.181	90.81
498.398	81.81
498.615	76.81
498.832	83.81
499.049	71.81
499.267	72.81
499.484	81.81
499.701	81.81
499.918	75.81
500.135	86.81
500.352	73.81
500.569	72.81
500.786	84.81
501.003	72.81
501.22	75.81
501.437	68.81
501.654	87.81
501.871	75.81
502.088	78.81
502.305	87.81
502.522	80.81
502.739	77.81
502.956	89.81
503.172	75.81
503.389	79.81
503.606	85.81
503.823	72.81
504.04	85.81
504.256	81.81
504.473	63.81
504.69	74.81
504.907	81.81
505.123	73.81
505.34	80.81
505.557	81.81
505.773	78.81
505.99	79.81
506.207	74.81
506.423	65.81
506.64	79.81
506.856	82.81
507.073	67.81
507.289	89.81
507.506	91.81
507.722	91.81
507.939	81.81
508.155	65.81
508.372	74.81
508.588	79.81
508.805	69.81
509.021	74.81
509.238	81.81
509.454	85.81
509.67	74.81
509.887	83.81
510.103	78.81
510.319	75.81
510.536	71.81
510.752	83.81
510.968	88.81
511.184	72.81
511.401	87.81
511.617	76.81
511.833	63.81
512.049	69.81
512.265	74.81
512.481	74.81
512.698	84.81
512.914	71.81
513.13	81.81
513.346	78.81
513.562	83.81
513.778	90.81
513.994	82.81
514.21	78.81
514.426	81.81
514.642	81.81
514.858	92.81
515.074	92.81
515.29	89.81
515.506	85.81
515.721	79.81
515.937	97.81
516.153	73.81
516.369	78.81
516.585	89.81
516.801	57.81
517.016	82.81
517.232	76.81
517.448	87.81
517.664	76.81
517.879	80.81
518.095	81.81
518.311	75.81
518.527	83.81
518.742	73.81
518.958	86.81
519.173	70.81
519.389	74.81
519.605	76.81
519.82	68.81
520.036	91.81
520.251	87.81
520.467	70.81
520.682	93.81
520.898	80.81
521.113	81.81
521.329	81.81
521.544	66.81
521.76	81.81
521.975	86.81
522.19	76.81
522.406	84.81
522.621	82.81
522.836	84.81
523.052	65.81
523.267	84.81
523.482	76.81
523.698	81.81
523.913	87.81
524.128	89.81
524.343	77.81
524.559	87.81
524.774	91.81
524.989	92.81
525.204	71.81
525.419	72.81
525.634	70.81
525.849	75.81
526.064	81.81
526.28	77.81
526.495	75.81
526.71	70.81
526.925	79.81
527.14	68.81
527.355	95.81
527.57	75.81
527.785	81.81
527.999	85.81
528.214	90.81
528.429	87.81
528.644	71.81
528.859	82.81
529.074	86.81
529.289	83.81
529.503	82.81
529.718	79.81
529.933	79.81
530.148	82.81
530.363	91.81
530.577	77.81
530.792	72.81
531.007	81.81
531.221	62.81
531.436	73.81
531.651	79.81
531.865	89.81
532.08	90.81
532.295	81.81
532.509	83.81
532.724	87.81
532.938	81.81
533.153	82.81
533.367	87.81
533.582	81.81
533.796	89.81
534.011	89.81
534.225	87.81
534.44	77.81
534.654	82.81
534.868	89.81
535.083	72.81
535.297	83.81
535.511	75.81
535.726	68.81
535.94	84.81
536.154	77.81
536.369	88.81
536.583	86.81
536.797	89.81
537.011	78.81
537.225	83.81
537.44	83.81
537.654	72.81
537.868	76.81
538.082	78.81
538.296	70.81
538.51	79.81
538.724	93.81
538.938	83.81
539.153	86.81
539.367	97.81
539.581	69.81
539.795	59.81
540.009	82.81
540.222	83.81
540.436	88.81
540.65	79.81
540.864	65.81
541.078	82.81
541.292	92.81
541.506	84.81
541.72	78.81
541.934	79.81
542.147	75.81
542.361	98.81
542.575	81.81
542.789	78.81
543.002	71.81
543.216	81.81
543.43	77.81
543.644	69.81
543.857	86.81
544.071	89.81
544.285	69.81
544.498	88.81
544.712	57.81
544.925	81.81
545.139	75.81
545.352	91.81
545.566	75.81
545.779	91.81
545.993	84.81
546.206	79.81
546.42	77.81
546.633	73.81
546.847	91.81
547.06	78.81
547.274	67.81
547.487	81.81
547.7	90.81
547.914	72.81
548.127	81.81
548.34	80.81
548.554	79.81
548.767	94.81
548.98	65.81
549.193	92.81
549.407	76.81
549.62	90.81
549.833	79.81
550.046	79.81
550.259	76.81
550.473	69.81
550.686	76.81
550.899	83.81
551.112	75.81
551.325	76.81
551.538	91.81
551.751	77.81
551.964	86.81
552.177	72.81
552.39	82.81
552.603	71.81
552.816	72.81
553.029	77.81
553.242	78.81
553.455	95.81
553.667	72.81
553.88	87.81
554.093	78.81
554.306	79.81
554.519	72.81
554.732	78.81
554.944	80.81
555.157	65.81
555.37	71.81
555.583	78.81
555.795	91.81
556.008	81.81
556.221	69.81
556.433	73.81
556.646	88.81
556.859	78.81
557.071	75.81
557.284	85.81
557.496	79.81
557.709	83.81
557.921	85.81
558.134	63.81
558.346	99.81
558.559	89.81
558.771	85.81
558.984	81.81
559.196	85.81
559.409	91.81
559.621	70.81
559.833	85.81
560.046	72.81
560.258	85.81
560.47	74.81
560.683	94.81
560.895	90.81
561.107	77.81
561.32	77.81
561.532	70.81
561.744	73.81
561.956	79.81
562.168	81.81
562.381	77.81
562.593	80.81
562.805	67.81
563.017	90.81
563.229	86.81
563.441	76.81
563.653	62.81
563.865	76.81
564.077	93.81
564.289	90.81
564.501	74.81
564.713	83.81
564.925	76.81
565.137	70.81
565.349	88.81
565.561	77.81
565.773	96.81
565.985	95.81
566.197	77.81
566.408	77.81
566.62	85.81
566.832	71.81
567.044	78.81
567.255	75.81
567.467	76.81
567.679	73.81
567.891	79.81
568.102	72.81
568.314	89.81
568.526	70.81
568.737	92.81
568.949	82.81
569.161	75.81
569.372	67.81
569.584	64.81
569.795	84.81
570.007	94.81
570.218	80.81
570.43	77.81
570.641	93.81
570.853	94.81
571.064	86.81
571.276	76.81
571.487	66.81
571.698	78.81
571.91	88.81
572.121	71.81
572.333	94.81
572.544	75.81
572.755	73.81
572.966	84.81
573.178	76.81
573.389	75.81
573.6	83.81
573.811	84.81
574.023	74.81
574.234	77.81
574.445	83.81
574.656	74.81
574.867	86.81
575.078	77.81
575.289	85.81
575.501	94.81
575.712	89.81
575.923	75.81
576.134	81.81
576.345	100.81
576.556	69.81
576.767	76.81
576.978	87.81
577.188	97.81
577.399	94.81
577.61	85.81
577.821	89.81
578.032	77.81
578.243	82.81
578.454	108.81
578.665	63.81
578.875	85.81
579.086	86.81
579.297	90.81
579.508	83.81
579.718	76.81
579.929	88.81
580.14	86.81
580.35	85.81
580.561	83.81
580.772	67.81
580.982	91.81
581.193	96.81
581.403	91.81
581.614	85.81
581.825	74.81
582.035	75.81
582.246	74.81
582.456	77.81
582.667	74.81
582.877	83.81
583.087	81.81
583.298	82.81
583.508	78.81
583.719	81.81
583.929	80.81
584.139	66.81
584.35	64.81
584.56	90.81
584.77	82.81
584.981	63.81
585.191	91.81
585.401	79.81
585.611	84.81
585.821	86.81
586.032	81.81
586.242	88.81
586.452	97.81
586.662	77.81
586.872	73.81
587.082	89.81
587.292	79.81
587.502	88.81
587.713	81.81
587.923	79.81
588.133	74.81
588.343	64.81
588.553	95.81
588.762	85.81
588.972	84.81
589.182	68.81
589.392	77.81
589.602	71.81
589.812	77.81
590.022	65.81
590.232	69.81
590.441	79.81
590.651	78.81
590.861	80.81
591.071	90.81
591.281	81.81
591.49	80.81
591.7	74.81
591.91	73.81
592.119	74.81
592.329	85.81
592.539	77.81
592.748	75.81
592.958	80.81
593.167	69.81
593.377	75.81
593.587	93.81
593.796	87.81
594.006	78.81
594.215	89.81
594.424	72.81
594.634	79.81
594.843	92.81
595.053	81.81
595.262	73.81
595.472	77.81
595.681	76.81
595.89	82.81
596.1	72.81
596.309	86.81
596.518	77.81
596.727	83.81
596.937	82.81
597.146	85.81
597.355	76.81
597.564	76.81
597.774	102.81
597.983	83.81
598.192	79.81
598.401	78.81
598.61	85.81
598.819	77.81
599.028	73.81
599.237	78.81
599.446	80.81
599.655	91.81
599.864	68.81
600.073	62.81
600.282	69.81
600.491	85.81
600.7	87.81
600.909	86.81
601.118	82.81
601.327	78.81
601.536	92.81
601.745	83.81
601.953	85.81
602.162	62.81
602.371	83.81
602.58	76.81
602.789	78.81
602.997	83.81
603.206	87.81
603.415	77.81
603.623	77.81
603.832	88.81
604.041	92.81
604.249	82.81
604.458	73.81
604.666	85.81
604.875	89.81
605.084	67.81
605.292	71.81
605.501	88.81
605.709	85.81
605.918	71.81
606.126	88.81
606.334	92.81
606.543	85.81
606.751	91.81
606.96	82.81
607.168	82.81
607.376	71.81
607.585	86.81
607.793	80.81
608.001	78.81
608.21	85.81
608.418	84.81
608.626	74.81
608.834	71.81
609.043	85.81
609.251	86.81
609.459	89.81
609.667	92.81
609.875	84.81
610.083	82.81
610.291	89.81
610.499	71.81
610.707	89.81
610.916	74.81
611.124	79.81
611.332	84.81
611.54	85.81
611.748	91.81
611.955	81.81
612.163	63.81
612.371	89.81
612.579	105.81
612.787	81.81
612.995	89.81
613.203	85.81
613.411	81.81
613.618	78.81
613.826	73.81
614.034	69.81
614.242	77.81
614.449	86.81
614.657	75.81
614.865	95.81
615.072	71.81
615.28	79.81
615.488	67.81
615.695	85.81
615.903	74.81
616.111	71.81
616.318	90.81
616.526	84.81
616.733	87.81
616.941	70.81
617.148	68.81
617.356	93.81
617.563	86.81
617.771	71.81
617.978	87.81
618.185	73.81
618.393	96.81
618.6	86.81
618.807	67.81
619.015	79.81
619.222	91.81
619.429	83.81
619.637	88.81
619.844	89.81
620.051	73.81
620.258	67.81
620.466	80.81
620.673	81.81
620.88	81.81
621.087	87.81
621.294	81.81
621.501	81.81
621.708	90.81
621.915	71.81
622.122	74.81
622.329	84.81
622.536	84.81
622.743	63.81
622.95	86.81
623.157	75.81
623.364	83.81
623.571	90.81
623.778	76.81
623.985	79.81
624.192	85.81
624.399	82.81
624.606	85.81
624.812	73.81
625.019	66.81
625.226	63.81
625.433	78.81
625.639	92.81
625.846	83.81
626.053	83.81
626.259	74.81
626.466	81.81
626.673	84.81
626.879	64.81
627.086	76.81
627.293	69.81
627.499	76.81
627.706	67.81
627.912	84.81
628.119	69.81
628.325	84.81
628.532	69.81
628.738	62.81
628.945	79.81
629.151	76.81
629.357	79.81
629.564	85.81
629.77	77.81
629.976	87.81
630.183	76.81
630.389	91.81
630.595	85.81
630.802	67.81
631.008	84.81
631.214	74.81
631.42	78.81
631.627	85.81
631.833	76.81
632.039	73.81
632.245	84.81
632.451	90.81
632.657	82.81
632.863	67.81
633.069	88.81
633.275	101.81
633.481	69.81
633.688	72.81
633.893	72.81
634.099	68.81
634.305	79.81
634.511	72.81
634.717	87.81
634.923	67.81
635.129	87.81
635.335	73.81
635.541	86.81
635.747	74.81
635.952	78.81
636.158	91.81
636.364	78.81
636.57	79.81
636.775	76.81
636.981	80.81
637.187	76.81
637.392	64.81
637.598	70.81
637.804	84.81
638.009	76.81
638.215	98.81
638.421	85.81
638.626	74.81
638.832	92.81
639.037	73.81
639.243	76.81
639.448	86.81
639.654	101.81
639.859	77.81
640.065	78.81
640.27	90.81
640.475	87.81
640.681	68.81
640.886	74.81
641.091	83.81
641.297	75.81
641.502	76.81
641.707	82.81
641.913	80.81
642.118	87.81
642.323	88.81
642.528	83.81
642.733	87.81
642.939	77.81
643.144	67.81
643.349	75.81
643.554	71.81
643.759	67.81
643.964	74.81
644.169	79.81
644.374	79.81
644.579	94.81
644.784	89.81
644.989	86.81
645.194	84.81
645.399	76.81
645.604	88.81
645.809	72.81
646.014	72.81
646.219	67.81
646.423	86.81
646.628	89.81
646.833	77.81
647.038	77.81
647.243	87.81
647.447	77.81
647.652	91.81
647.857	85.81
648.062	79.81
648.266	70.81
648.471	94.81
648.676	76.81
648.88	92.81
649.085	85.81
649.289	81.81
649.494	73.81
649.698	82.81
649.903	88.81
650.107	85.81
650.312	94.81
650.516	87.81
650.721	88.81
650.925	76.81
651.13	87.81
651.334	86.81
651.539	83.81
651.743	82.81
651.947	75.81
652.152	70.81
652.356	80.81
652.56	85.81
652.764	86.81
652.969	76.81
653.173	88.81
653.377	85.81
653.581	82.81
653.785	76.81
653.99	74.81
654.194	67.81
654.398	76.81
654.602	71.81
654.806	74.81
655.01	73.81
655.214	75.81
655.418	89.81
655.622	88.81
655.826	66.81
656.03	91.81
656.234	73.81
656.438	94.81
656.642	83.81
656.846	84.81
657.049	89.81
657.253	81.81
657.457	90.81
657.661	91.81
657.865	89.81
658.068	61.81
658.272	70.81
658.476	67.81
658.68	72.81
658.883	83.81
659.087	95.81
659.291	77.81
659.494	92.81
659.698	63.81
659.901	86.81
660.105	79.81
660.309	80.81
660.512	77.81
660.716	75.81
660.919	83.81
661.123	91.81
661.326	80.81
661.53	77.81
661.733	87.81
661.936	85.81
662.14	81.81
662.343	81.81
662.546	85.81
662.75	78.81
662.953	71.81
663.156	91.81
663.36	75.81
663.563	69.81
663.766	78.81
663.969	82.81
664.173	75.81
664.376	92.81
664.579	81.81
664.782	69.81
664.985	62.81
665.188	83.81
665.391	68.81
665.594	71.81
665.797	82.81
666	76.81
666.203	89.81
666.406	78.81
666.609	81.81
666.812	86.81
667.015	78.81
667.218	82.81
667.421	90.81
667.624	76.81
667.827	83.81
668.03	71.81
668.232	82.81
668.435	74.81
668.638	74.81
668.841	82.81
669.043	76.81
669.246	69.81
669.449	75.81
669.651	82.81
669.854	85.81
670.057	79.81
670.259	74.81
670.462	81.81
670.665	74.81
670.867	83.81
671.07	66.81
671.272	76.81
671.475	90.81
671.677	75.81
671.88	84.81
672.082	73.81
672.284	90.81
672.487	90.81
672.689	68.81
672.892	73.81
