Data from Background_1_HRD10591_00078.txt Node
Date: Wed Nov 05 14:39:36 EST 2025
User: Yrep
Spectrometer: HR+D1059
Trigger mode: 1
Integration Time (sec): 1.000000E-1
Scans to average: 1
Electric dark correction enabled: true
Nonlinearity correction enabled: false
Boxcar width: 0
XAxis mode: Wavelengths
Number of Pixels in Spectrum: 2048
>>>>>Begin Spectral Data<<<<<
223.165	-9.81
223.4	-9.81
223.635	-9.81
223.869	-0.81
224.104	-12.81
224.338	-12.81
224.573	-23.81
224.808	-5.81
225.042	-25.81
225.277	-15.81
225.511	-2.81
225.746	-4.81
225.98	10.19
226.215	-1.81
226.449	16.19
226.683	26.19
226.918	28.19
227.152	36.19
227.387	40.19
227.621	28.19
227.856	47.19
228.09	52.19
228.324	40.19
228.559	54.19
228.793	68.19
229.027	70.19
229.262	67.19
229.496	68.19
229.73	78.19
229.964	86.19
230.199	75.19
230.433	69.19
230.667	63.19
230.901	90.19
231.136	78.19
231.37	78.19
231.604	71.19
231.838	82.19
232.072	77.19
232.306	79.19
232.541	85.19
232.775	76.19
233.009	82.19
233.243	63.19
233.477	86.19
233.711	88.19
233.945	84.19
234.179	84.19
234.413	75.19
234.647	67.19
234.881	75.19
235.115	72.19
235.349	94.19
235.583	81.19
235.817	79.19
236.051	77.19
236.285	95.19
236.519	71.19
236.753	77.19
236.987	81.19
237.221	75.19
237.455	84.19
237.689	78.19
237.922	83.19
238.156	76.19
238.39	63.19
238.624	80.19
238.858	62.19
239.091	85.19
239.325	69.19
239.559	79.19
239.793	92.19
240.027	86.19
240.26	81.19
240.494	91.19
240.728	81.19
240.961	71.19
241.195	83.19
241.429	78.19
241.662	79.19
241.896	83.19
242.13	82.19
242.363	72.19
242.597	76.19
242.83	84.19
243.064	71.19
243.298	78.19
243.531	67.19
243.765	76.19
243.998	79.19
244.232	83.19
244.465	77.19
244.699	80.19
244.932	75.19
245.166	78.19
245.399	78.19
245.633	78.19
245.866	76.19
246.099	70.19
246.333	78.19
246.566	82.19
246.8	75.19
247.033	86.19
247.266	74.19
247.5	80.19
247.733	71.19
247.966	86.19
248.2	71.19
248.433	74.19
248.666	79.19
248.899	85.19
249.133	90.19
249.366	78.19
249.599	67.19
249.832	74.19
250.066	92.19
250.299	86.19
250.532	83.19
250.765	85.19
250.998	85.19
251.231	74.19
251.465	69.19
251.698	84.19
251.931	78.19
252.164	83.19
252.397	78.19
252.63	76.19
252.863	78.19
253.096	72.19
253.329	62.19
253.562	78.19
253.795	68.19
254.028	85.19
254.261	90.19
254.494	84.19
254.727	72.19
254.96	82.19
255.193	67.19
255.426	82.19
255.659	79.19
255.892	79.19
256.124	79.19
256.357	81.19
256.59	98.19
256.823	87.19
257.056	69.19
257.289	83.19
257.521	75.19
257.754	59.19
257.987	79.19
258.22	94.19
258.452	77.19
258.685	82.19
258.918	100.19
259.151	80.19
259.383	75.19
259.616	82.19
259.849	69.19
260.081	90.19
260.314	100.19
260.547	89.19
260.779	101.19
261.012	79.19
261.244	67.19
261.477	84.19
261.71	72.19
261.942	89.19
262.175	91.19
262.407	84.19
262.64	86.19
262.872	95.19
263.105	78.19
263.337	92.19
263.57	92.19
263.802	91.19
264.035	92.19
264.267	74.19
264.499	82.19
264.732	100.19
264.964	81.19
265.197	87.19
265.429	83.19
265.661	76.19
265.894	87.19
266.126	74.19
266.358	86.19
266.591	86.19
266.823	92.19
267.055	87.19
267.287	93.19
267.52	78.19
267.752	70.19
267.984	85.19
268.216	78.19
268.448	88.19
268.681	81.19
268.913	94.19
269.145	81.19
269.377	72.19
269.609	82.19
269.841	81.19
270.073	85.19
270.306	73.19
270.538	84.19
270.77	85.19
271.002	96.19
271.234	89.19
271.466	87.19
271.698	77.19
271.93	73.19
272.162	78.19
272.394	91.19
272.626	83.19
272.858	76.19
273.09	96.19
273.322	82.19
273.553	87.19
273.785	92.19
274.017	85.19
274.249	83.19
274.481	77.19
274.713	84.19
274.945	80.19
275.176	74.19
275.408	83.19
275.64	93.19
275.872	73.19
276.104	82.19
276.335	94.19
276.567	94.19
276.799	98.19
277.031	97.19
277.262	85.19
277.494	68.19
277.726	75.19
277.957	72.19
278.189	91.19
278.421	94.19
278.652	89.19
278.884	83.19
279.115	59.19
279.347	88.19
279.579	84.19
279.81	80.19
280.042	81.19
280.273	77.19
280.505	87.19
280.736	99.19
280.968	82.19
281.199	78.19
281.431	92.19
281.662	92.19
281.894	83.19
282.125	87.19
282.356	80.19
282.588	87.19
282.819	85.19
283.051	76.19
283.282	90.19
283.513	89.19
283.745	82.19
283.976	98.19
284.207	82.19
284.439	88.19
284.67	90.19
284.901	79.19
285.132	78.19
285.364	85.19
285.595	82.19
285.826	83.19
286.057	83.19
286.288	83.19
286.52	94.19
286.751	87.19
286.982	88.19
287.213	92.19
287.444	85.19
287.675	82.19
287.906	90.19
288.138	82.19
288.369	87.19
288.6	84.19
288.831	95.19
289.062	86.19
289.293	84.19
289.524	70.19
289.755	82.19
289.986	82.19
290.217	87.19
290.448	78.19
290.679	89.19
290.91	75.19
291.141	90.19
291.371	75.19
291.602	86.19
291.833	78.19
292.064	85.19
292.295	84.19
292.526	81.19
292.757	82.19
292.987	86.19
293.218	89.19
293.449	90.19
293.68	90.19
293.91	76.19
294.141	90.19
294.372	99.19
294.603	90.19
294.833	95.19
295.064	101.19
295.295	92.19
295.525	97.19
295.756	90.19
295.987	96.19
296.217	95.19
296.448	92.19
296.679	90.19
296.909	93.19
297.14	91.19
297.37	98.19
297.601	78.19
297.831	86.19
298.062	80.19
298.292	90.19
298.523	83.19
298.753	88.19
298.984	83.19
299.214	85.19
299.445	94.19
299.675	83.19
299.905	82.19
300.136	89.19
300.366	80.19
300.597	75.19
300.827	88.19
301.057	95.19
301.288	92.19
301.518	84.19
301.748	93.19
301.979	101.19
302.209	89.19
302.439	90.19
302.669	80.19
302.9	88.19
303.13	82.19
303.36	107.19
303.59	78.19
303.82	77.19
304.051	92.19
304.281	86.19
304.511	78.19
304.741	87.19
304.971	85.19
305.201	79.19
305.431	88.19
305.661	86.19
305.891	71.19
306.121	85.19
306.352	84.19
306.582	96.19
306.812	101.19
307.042	88.19
307.272	87.19
307.502	91.19
307.731	73.19
307.961	92.19
308.191	87.19
308.421	87.19
308.651	90.19
308.881	82.19
309.111	84.19
309.341	77.19
309.571	87.19
309.8	88.19
310.03	73.19
310.26	78.19
310.49	89.19
310.72	78.19
310.949	90.19
311.179	93.19
311.409	90.19
311.639	72.19
311.868	85.19
312.098	90.19
312.328	85.19
312.557	84.19
312.787	83.19
313.017	78.19
313.246	94.19
313.476	92.19
313.706	90.19
313.935	78.19
314.165	88.19
314.394	90.19
314.624	89.19
314.853	94.19
315.083	103.19
315.312	72.19
315.542	102.19
315.771	102.19
316.001	86.19
316.23	97.19
316.46	89.19
316.689	81.19
316.919	87.19
317.148	93.19
317.377	95.19
317.607	78.19
317.836	90.19
318.065	78.19
318.295	91.19
318.524	84.19
318.753	79.19
318.983	83.19
319.212	89.19
319.441	79.19
319.67	97.19
319.9	94.19
320.129	67.19
320.358	91.19
320.587	75.19
320.816	80.19
321.046	87.19
321.275	94.19
321.504	101.19
321.733	80.19
321.962	82.19
322.191	91.19
322.42	90.19
322.649	90.19
322.878	83.19
323.108	90.19
323.337	90.19
323.566	69.19
323.795	86.19
324.024	85.19
324.253	72.19
324.482	83.19
324.71	91.19
324.939	78.19
325.168	91.19
325.397	94.19
325.626	77.19
325.855	93.19
326.084	94.19
326.313	79.19
326.542	76.19
326.77	88.19
326.999	99.19
327.228	78.19
327.457	84.19
327.686	88.19
327.914	71.19
328.143	98.19
328.372	91.19
328.6	80.19
328.829	87.19
329.058	84.19
329.287	69.19
329.515	78.19
329.744	84.19
329.972	90.19
330.201	90.19
330.43	73.19
330.658	85.19
330.887	71.19
331.115	86.19
331.344	94.19
331.572	98.19
331.801	80.19
332.03	87.19
332.258	83.19
332.486	88.19
332.715	92.19
332.943	91.19
333.172	102.19
333.4	70.19
333.629	90.19
333.857	101.19
334.085	77.19
334.314	93.19
334.542	77.19
334.771	77.19
334.999	78.19
335.227	76.19
335.455	84.19
335.684	79.19
335.912	97.19
336.14	92.19
336.369	84.19
336.597	91.19
336.825	98.19
337.053	92.19
337.281	98.19
337.51	90.19
337.738	80.19
337.966	78.19
338.194	96.19
338.422	86.19
338.65	77.19
338.878	90.19
339.106	86.19
339.334	101.19
339.562	81.19
339.79	87.19
340.018	90.19
340.246	90.19
340.474	83.19
340.702	87.19
340.93	97.19
341.158	78.19
341.386	87.19
341.614	90.19
341.842	84.19
342.07	87.19
342.298	79.19
342.526	93.19
342.754	73.19
342.981	82.19
343.209	90.19
343.437	99.19
343.665	82.19
343.893	98.19
344.12	80.19
344.348	88.19
344.576	99.19
344.804	88.19
345.031	91.19
345.259	77.19
345.487	88.19
345.714	85.19
345.942	89.19
346.17	91.19
346.397	71.19
346.625	87.19
346.853	79.19
347.08	90.19
347.308	92.19
347.535	86.19
347.763	72.19
347.99	86.19
348.218	92.19
348.445	96.19
348.673	84.19
348.9	77.19
349.128	95.19
349.355	90.19
349.583	88.19
349.81	76.19
350.037	84.19
350.265	97.19
350.492	80.19
350.72	87.19
350.947	92.19
351.174	100.19
351.402	93.19
351.629	87.19
351.856	87.19
352.083	71.19
352.311	73.19
352.538	77.19
352.765	97.19
352.992	89.19
353.22	91.19
353.447	80.19
353.674	89.19
353.901	86.19
354.128	96.19
354.355	85.19
354.583	82.19
354.81	81.19
355.037	81.19
355.264	85.19
355.491	91.19
355.718	77.19
355.945	86.19
356.172	81.19
356.399	82.19
356.626	93.19
356.853	73.19
357.08	98.19
357.307	95.19
357.534	80.19
357.761	86.19
357.988	85.19
358.215	97.19
358.441	87.19
358.668	90.19
358.895	79.19
359.122	87.19
359.349	72.19
359.576	89.19
359.802	83.19
360.029	85.19
360.256	95.19
360.483	71.19
360.709	98.19
360.936	75.19
361.163	84.19
361.39	86.19
361.616	97.19
361.843	83.19
362.07	93.19
362.296	91.19
362.523	88.19
362.749	72.19
362.976	87.19
363.203	88.19
363.429	85.19
363.656	90.19
363.882	80.19
364.109	95.19
364.335	77.19
364.562	70.19
364.788	93.19
365.015	84.19
365.241	83.19
365.468	87.19
365.694	88.19
365.92	89.19
366.147	82.19
366.373	82.19
366.599	80.19
366.826	88.19
367.052	88.19
367.278	77.19
367.505	91.19
367.731	91.19
367.957	81.19
368.184	95.19
368.41	86.19
368.636	94.19
368.862	85.19
369.089	88.19
369.315	75.19
369.541	83.19
369.767	86.19
369.993	83.19
370.219	72.19
370.445	86.19
370.672	76.19
370.898	92.19
371.124	74.19
371.35	71.19
371.576	83.19
371.802	98.19
372.028	84.19
372.254	76.19
372.48	93.19
372.706	80.19
372.932	82.19
373.158	78.19
373.384	75.19
373.61	79.19
373.835	82.19
374.061	82.19
374.287	84.19
374.513	86.19
374.739	96.19
374.965	73.19
375.191	90.19
375.416	86.19
375.642	82.19
375.868	101.19
376.094	88.19
376.319	86.19
376.545	70.19
376.771	70.19
376.997	91.19
377.222	83.19
377.448	79.19
377.674	69.19
377.899	70.19
378.125	77.19
378.35	81.19
378.576	76.19
378.802	79.19
379.027	80.19
379.253	78.19
379.478	77.19
379.704	98.19
379.929	82.19
380.155	87.19
380.38	82.19
380.606	78.19
380.831	75.19
381.057	76.19
381.282	87.19
381.507	92.19
381.733	86.19
381.958	80.19
382.184	70.19
382.409	72.19
382.634	70.19
382.86	90.19
383.085	87.19
383.31	82.19
383.535	82.19
383.761	83.19
383.986	60.19
384.211	87.19
384.436	83.19
384.662	70.19
384.887	66.19
385.112	82.19
385.337	78.19
385.562	83.19
385.787	70.19
386.013	90.19
386.238	79.19
386.463	80.19
386.688	95.19
386.913	83.19
387.138	80.19
387.363	70.19
387.588	79.19
387.813	79.19
388.038	95.19
388.263	98.19
388.488	110.19
388.713	86.19
388.938	67.19
389.163	85.19
389.387	78.19
389.612	90.19
389.837	92.19
390.062	80.19
390.287	90.19
390.512	82.19
390.736	68.19
390.961	98.19
391.186	90.19
391.411	79.19
391.636	90.19
391.86	85.19
392.085	75.19
392.31	87.19
392.534	80.19
392.759	95.19
392.984	95.19
393.208	77.19
393.433	74.19
393.658	87.19
393.882	86.19
394.107	91.19
394.331	82.19
394.556	69.19
394.78	97.19
395.005	83.19
395.229	76.19
395.454	94.19
395.678	67.19
395.903	81.19
396.127	84.19
396.352	77.19
396.576	82.19
396.801	91.19
397.025	89.19
397.249	83.19
397.474	93.19
397.698	80.19
397.922	80.19
398.147	84.19
398.371	73.19
398.595	90.19
398.82	89.19
399.044	90.19
399.268	91.19
399.492	93.19
399.717	54.19
399.941	87.19
400.165	91.19
400.389	81.19
400.613	75.19
400.837	78.19
401.062	82.19
401.286	85.19
401.51	87.19
401.734	71.19
401.958	86.19
402.182	94.19
402.406	84.19
402.63	84.19
402.854	71.19
403.078	64.19
403.302	72.19
403.526	79.19
403.75	93.19
403.974	90.19
404.198	83.19
404.422	78.19
404.645	89.19
404.869	87.19
405.093	81.19
405.317	78.19
405.541	84.19
405.765	82.19
405.988	78.19
406.212	85.19
406.436	75.19
406.66	79.19
406.883	87.19
407.107	90.19
407.331	80.19
407.555	88.19
407.778	75.19
408.002	75.19
408.226	86.19
408.449	78.19
408.673	76.19
408.896	94.19
409.12	87.19
409.344	72.19
409.567	80.19
409.791	83.19
410.014	85.19
410.238	92.19
410.461	86.19
410.685	88.19
410.908	80.19
411.132	95.19
411.355	78.19
411.578	77.19
411.802	88.19
412.025	82.19
412.249	74.19
412.472	77.19
412.695	90.19
412.919	80.19
413.142	75.19
413.365	91.19
413.589	101.19
413.812	83.19
414.035	77.19
414.258	88.19
414.482	90.19
414.705	73.19
414.928	85.19
415.151	82.19
415.374	68.19
415.597	84.19
415.821	66.19
416.044	78.19
416.267	86.19
416.49	86.19
416.713	86.19
416.936	80.19
417.159	89.19
417.382	92.19
417.605	79.19
417.828	80.19
418.051	83.19
418.274	98.19
418.497	78.19
418.72	82.19
418.943	78.19
419.166	81.19
419.389	90.19
419.611	69.19
419.834	81.19
420.057	80.19
420.28	72.19
420.503	78.19
420.726	75.19
420.948	79.19
421.171	73.19
421.394	80.19
421.617	71.19
421.839	84.19
422.062	71.19
422.285	94.19
422.507	89.19
422.73	83.19
422.953	88.19
423.175	77.19
423.398	80.19
423.621	89.19
423.843	77.19
424.066	81.19
424.288	86.19
424.511	72.19
424.733	91.19
424.956	91.19
425.178	75.19
425.401	87.19
425.623	84.19
425.846	80.19
426.068	78.19
426.291	78.19
426.513	90.19
426.735	63.19
426.958	69.19
427.18	78.19
427.402	66.19
427.625	94.19
427.847	63.19
428.069	78.19
428.292	86.19
428.514	77.19
428.736	94.19
428.958	85.19
429.181	88.19
429.403	91.19
429.625	77.19
429.847	87.19
430.069	87.19
430.292	77.19
430.514	79.19
430.736	67.19
430.958	88.19
431.18	73.19
431.402	82.19
431.624	70.19
431.846	70.19
432.068	87.19
432.29	84.19
432.512	79.19
432.734	87.19
432.956	91.19
433.178	74.19
433.4	81.19
433.622	80.19
433.844	77.19
434.066	95.19
434.287	94.19
434.509	86.19
434.731	80.19
434.953	94.19
435.175	80.19
435.397	72.19
435.618	75.19
435.84	74.19
436.062	85.19
436.284	97.19
436.505	73.19
436.727	83.19
436.949	92.19
437.17	93.19
437.392	94.19
437.614	73.19
437.835	83.19
438.057	75.19
438.278	85.19
438.5	86.19
438.721	90.19
438.943	80.19
439.165	94.19
439.386	92.19
439.608	91.19
439.829	59.19
440.05	90.19
440.272	72.19
440.493	83.19
440.715	89.19
440.936	76.19
441.158	76.19
441.379	71.19
441.6	91.19
441.822	72.19
442.043	93.19
442.264	87.19
442.486	69.19
442.707	85.19
442.928	95.19
443.149	90.19
443.371	82.19
443.592	59.19
443.813	79.19
444.034	87.19
444.255	94.19
444.476	91.19
444.698	93.19
444.919	81.19
445.14	159.19
445.361	118.19
445.582	86.19
445.803	72.19
446.024	75.19
446.245	76.19
446.466	91.19
446.687	75.19
446.908	81.19
447.129	84.19
447.35	82.19
447.571	84.19
447.792	72.19
448.013	80.19
448.234	79.19
448.455	87.19
448.675	80.19
448.896	76.19
449.117	78.19
449.338	85.19
449.559	86.19
449.779	84.19
450	83.19
450.221	74.19
450.442	76.19
450.662	83.19
450.883	77.19
451.104	98.19
451.324	93.19
451.545	79.19
451.766	61.19
451.986	60.19
452.207	82.19
452.428	94.19
452.648	76.19
452.869	89.19
453.089	98.19
453.31	96.19
453.53	81.19
453.751	98.19
453.971	90.19
454.192	86.19
454.412	78.19
454.633	81.19
454.853	86.19
455.073	73.19
455.294	90.19
455.514	80.19
455.734	71.19
455.955	82.19
456.175	87.19
456.395	93.19
456.616	86.19
456.836	69.19
457.056	83.19
457.276	72.19
457.497	88.19
457.717	84.19
457.937	84.19
458.157	81.19
458.377	82.19
458.598	85.19
458.818	91.19
459.038	78.19
459.258	85.19
459.478	77.19
459.698	72.19
459.918	86.19
460.138	77.19
460.358	88.19
460.578	80.19
460.798	94.19
461.018	90.19
461.238	70.19
461.458	78.19
461.678	78.19
461.898	82.19
462.118	72.19
462.338	79.19
462.558	84.19
462.777	86.19
462.997	82.19
463.217	69.19
463.437	77.19
463.657	68.19
463.876	78.19
464.096	74.19
464.316	74.19
464.536	74.19
464.755	96.19
464.975	78.19
465.195	73.19
465.414	72.19
465.634	95.19
465.854	86.19
466.073	70.19
466.293	82.19
466.512	92.19
466.732	87.19
466.951	73.19
467.171	92.19
467.391	90.19
467.61	62.19
467.829	83.19
468.049	71.19
468.268	73.19
468.488	86.19
468.707	76.19
468.927	90.19
469.146	76.19
469.365	89.19
469.585	86.19
469.804	88.19
470.023	95.19
470.243	89.19
470.462	81.19
470.681	76.19
470.901	105.19
471.12	71.19
471.339	82.19
471.558	67.19
471.777	84.19
471.997	83.19
472.216	88.19
472.435	86.19
472.654	90.19
472.873	87.19
473.092	87.19
473.311	87.19
473.53	84.19
473.749	87.19
473.968	92.19
474.187	71.19
474.406	84.19
474.625	84.19
474.844	83.19
475.063	95.19
475.282	80.19
475.501	64.19
475.72	83.19
475.939	76.19
476.158	90.19
476.377	72.19
476.596	91.19
476.814	76.19
477.033	78.19
477.252	95.19
477.471	81.19
477.69	71.19
477.908	72.19
478.127	85.19
478.346	80.19
478.564	80.19
478.783	73.19
479.002	83.19
479.22	90.19
479.439	66.19
479.658	86.19
479.876	86.19
480.095	68.19
480.313	81.19
480.532	93.19
480.751	92.19
480.969	87.19
481.188	92.19
481.406	104.19
481.624	84.19
481.843	91.19
482.061	82.19
482.28	97.19
482.498	82.19
482.717	79.19
482.935	73.19
483.153	82.19
483.372	83.19
483.59	79.19
483.808	92.19
484.027	94.19
484.245	84.19
484.463	85.19
484.681	93.19
484.9	79.19
485.118	82.19
485.336	68.19
485.554	85.19
485.772	80.19
485.99	82.19
486.209	78.19
486.427	82.19
486.645	77.19
486.863	94.19
487.081	91.19
487.299	71.19
487.517	83.19
487.735	87.19
487.953	95.19
488.171	84.19
488.389	82.19
488.607	85.19
488.825	90.19
489.043	76.19
489.261	86.19
489.479	101.19
489.696	89.19
489.914	80.19
490.132	82.19
490.35	86.19
490.568	77.19
490.786	81.19
491.003	78.19
491.221	85.19
491.439	92.19
491.657	77.19
491.874	87.19
492.092	87.19
492.31	91.19
492.527	75.19
492.745	80.19
492.963	76.19
493.18	85.19
493.398	101.19
493.615	83.19
493.833	76.19
494.05	75.19
494.268	77.19
494.485	83.19
494.703	84.19
494.92	79.19
495.138	68.19
495.355	83.19
495.573	98.19
495.79	79.19
496.008	97.19
496.225	87.19
496.442	80.19
496.66	101.19
496.877	98.19
497.094	79.19
497.312	84.19
497.529	74.19
497.746	80.19
497.963	87.19
498.181	71.19
498.398	76.19
498.615	86.19
498.832	83.19
499.049	77.19
499.267	88.19
499.484	79.19
499.701	79.19
499.918	76.19
500.135	89.19
500.352	84.19
500.569	76.19
500.786	82.19
501.003	83.19
501.22	80.19
501.437	79.19
501.654	96.19
501.871	94.19
502.088	82.19
502.305	86.19
502.522	87.19
502.739	77.19
502.956	68.19
503.172	76.19
503.389	68.19
503.606	72.19
503.823	85.19
504.04	83.19
504.256	87.19
504.473	93.19
504.69	89.19
504.907	92.19
505.123	97.19
505.34	85.19
505.557	82.19
505.773	66.19
505.99	91.19
506.207	76.19
506.423	72.19
506.64	88.19
506.856	79.19
507.073	86.19
507.289	77.19
507.506	92.19
507.722	84.19
507.939	77.19
508.155	96.19
508.372	86.19
508.588	91.19
508.805	96.19
509.021	82.19
509.238	81.19
509.454	83.19
509.67	89.19
509.887	96.19
510.103	78.19
510.319	78.19
510.536	96.19
510.752	72.19
510.968	83.19
511.184	85.19
511.401	85.19
511.617	86.19
511.833	82.19
512.049	86.19
512.265	81.19
512.481	83.19
512.698	80.19
512.914	90.19
513.13	87.19
513.346	83.19
513.562	85.19
513.778	93.19
513.994	89.19
514.21	75.19
514.426	78.19
514.642	75.19
514.858	84.19
515.074	88.19
515.29	80.19
515.506	79.19
515.721	85.19
515.937	79.19
516.153	93.19
516.369	97.19
516.585	76.19
516.801	88.19
517.016	87.19
517.232	90.19
517.448	87.19
517.664	90.19
517.879	79.19
518.095	96.19
518.311	79.19
518.527	78.19
518.742	74.19
518.958	85.19
519.173	82.19
519.389	72.19
519.605	84.19
519.82	87.19
520.036	83.19
520.251	82.19
520.467	79.19
520.682	79.19
520.898	75.19
521.113	83.19
521.329	90.19
521.544	84.19
521.76	76.19
521.975	78.19
522.19	89.19
522.406	87.19
522.621	86.19
522.836	82.19
523.052	75.19
523.267	86.19
523.482	84.19
523.698	86.19
523.913	83.19
524.128	71.19
524.343	83.19
524.559	78.19
524.774	79.19
524.989	83.19
525.204	77.19
525.419	72.19
525.634	68.19
525.849	91.19
526.064	93.19
526.28	76.19
526.495	88.19
526.71	102.19
526.925	83.19
527.14	82.19
527.355	81.19
527.57	77.19
527.785	88.19
527.999	82.19
528.214	89.19
528.429	98.19
528.644	107.19
528.859	94.19
529.074	82.19
529.289	89.19
529.503	89.19
529.718	89.19
529.933	92.19
530.148	68.19
530.363	78.19
530.577	84.19
530.792	74.19
531.007	88.19
531.221	77.19
531.436	87.19
531.651	83.19
531.865	83.19
532.08	67.19
532.295	84.19
532.509	87.19
532.724	82.19
532.938	98.19
533.153	87.19
533.367	91.19
533.582	78.19
533.796	79.19
534.011	83.19
534.225	66.19
534.44	86.19
534.654	101.19
534.868	75.19
535.083	84.19
535.297	97.19
535.511	96.19
535.726	91.19
535.94	98.19
536.154	87.19
536.369	82.19
536.583	76.19
536.797	75.19
537.011	88.19
537.225	97.19
537.44	72.19
537.654	86.19
537.868	58.19
538.082	79.19
538.296	84.19
538.51	92.19
538.724	83.19
538.938	78.19
539.153	82.19
539.367	85.19
539.581	94.19
539.795	82.19
540.009	85.19
540.222	84.19
540.436	85.19
540.65	77.19
540.864	83.19
541.078	84.19
541.292	83.19
541.506	101.19
541.72	73.19
541.934	83.19
542.147	82.19
542.361	98.19
542.575	82.19
542.789	86.19
543.002	91.19
543.216	87.19
543.43	83.19
543.644	91.19
543.857	88.19
544.071	87.19
544.285	89.19
544.498	89.19
544.712	87.19
544.925	99.19
545.139	87.19
545.352	86.19
545.566	87.19
545.779	85.19
545.993	92.19
546.206	91.19
546.42	80.19
546.633	74.19
546.847	84.19
547.06	75.19
547.274	95.19
547.487	83.19
547.7	82.19
547.914	88.19
548.127	76.19
548.34	102.19
548.554	96.19
548.767	91.19
548.98	77.19
549.193	80.19
549.407	69.19
549.62	80.19
549.833	91.19
550.046	83.19
550.259	96.19
550.473	84.19
550.686	87.19
550.899	94.19
551.112	82.19
551.325	83.19
551.538	83.19
551.751	67.19
551.964	85.19
552.177	84.19
552.39	84.19
552.603	93.19
552.816	101.19
553.029	91.19
553.242	75.19
553.455	95.19
553.667	90.19
553.88	78.19
554.093	76.19
554.306	68.19
554.519	77.19
554.732	88.19
554.944	87.19
555.157	86.19
555.37	86.19
555.583	80.19
555.795	89.19
556.008	77.19
556.221	81.19
556.433	91.19
556.646	75.19
556.859	91.19
557.071	72.19
557.284	63.19
557.496	78.19
557.709	80.19
557.921	83.19
558.134	86.19
558.346	84.19
558.559	72.19
558.771	93.19
558.984	91.19
559.196	81.19
559.409	82.19
559.621	80.19
559.833	90.19
560.046	81.19
560.258	80.19
560.47	77.19
560.683	90.19
560.895	73.19
561.107	101.19
561.32	74.19
561.532	82.19
561.744	92.19
561.956	77.19
562.168	85.19
562.381	92.19
562.593	73.19
562.805	86.19
563.017	80.19
563.229	80.19
563.441	79.19
563.653	87.19
563.865	86.19
564.077	89.19
564.289	90.19
564.501	96.19
564.713	69.19
564.925	79.19
565.137	74.19
565.349	89.19
565.561	75.19
565.773	92.19
565.985	93.19
566.197	80.19
566.408	84.19
566.62	80.19
566.832	92.19
567.044	72.19
567.255	82.19
567.467	82.19
567.679	91.19
567.891	78.19
568.102	92.19
568.314	95.19
568.526	78.19
568.737	97.19
568.949	88.19
569.161	96.19
569.372	80.19
569.584	87.19
569.795	80.19
570.007	79.19
570.218	87.19
570.43	85.19
570.641	77.19
570.853	83.19
571.064	82.19
571.276	86.19
571.487	90.19
571.698	103.19
571.91	82.19
572.121	87.19
572.333	76.19
572.544	98.19
572.755	98.19
572.966	83.19
573.178	90.19
573.389	98.19
573.6	90.19
573.811	73.19
574.023	75.19
574.234	81.19
574.445	99.19
574.656	87.19
574.867	79.19
575.078	90.19
575.289	85.19
575.501	86.19
575.712	91.19
575.923	94.19
576.134	69.19
576.345	58.19
576.556	91.19
576.767	85.19
576.978	88.19
577.188	94.19
577.399	78.19
577.61	88.19
577.821	76.19
578.032	85.19
578.243	78.19
578.454	79.19
578.665	106.19
578.875	96.19
579.086	90.19
579.297	95.19
579.508	94.19
579.718	96.19
579.929	78.19
580.14	81.19
580.35	78.19
580.561	76.19
580.772	85.19
580.982	85.19
581.193	76.19
581.403	99.19
581.614	85.19
581.825	88.19
582.035	87.19
582.246	85.19
582.456	84.19
582.667	84.19
582.877	95.19
583.087	88.19
583.298	87.19
583.508	90.19
583.719	83.19
583.929	81.19
584.139	95.19
584.35	91.19
584.56	90.19
584.77	89.19
584.981	79.19
585.191	85.19
585.401	87.19
585.611	84.19
585.821	92.19
586.032	94.19
586.242	85.19
586.452	76.19
586.662	85.19
586.872	78.19
587.082	74.19
587.292	93.19
587.502	83.19
587.713	95.19
587.923	76.19
588.133	86.19
588.343	78.19
588.553	72.19
588.762	87.19
588.972	82.19
589.182	85.19
589.392	90.19
589.602	92.19
589.812	85.19
590.022	102.19
590.232	80.19
590.441	95.19
590.651	84.19
590.861	80.19
591.071	87.19
591.281	72.19
591.49	82.19
591.7	94.19
591.91	90.19
592.119	86.19
592.329	90.19
592.539	74.19
592.748	86.19
592.958	84.19
593.167	90.19
593.377	79.19
593.587	98.19
593.796	78.19
594.006	78.19
594.215	79.19
594.424	88.19
594.634	83.19
594.843	95.19
595.053	81.19
595.262	67.19
595.472	77.19
595.681	84.19
595.89	96.19
596.1	82.19
596.309	76.19
596.518	87.19
596.727	88.19
596.937	75.19
597.146	88.19
597.355	81.19
597.564	82.19
597.774	86.19
597.983	85.19
598.192	70.19
598.401	96.19
598.61	100.19
598.819	97.19
599.028	91.19
599.237	81.19
599.446	76.19
599.655	84.19
599.864	96.19
600.073	80.19
600.282	83.19
600.491	92.19
600.7	83.19
600.909	87.19
601.118	86.19
601.327	78.19
601.536	110.19
601.745	81.19
601.953	84.19
602.162	92.19
602.371	78.19
602.58	96.19
602.789	97.19
602.997	71.19
603.206	84.19
603.415	87.19
603.623	86.19
603.832	75.19
604.041	92.19
604.249	95.19
604.458	86.19
604.666	83.19
604.875	94.19
605.084	68.19
605.292	84.19
605.501	85.19
605.709	91.19
605.918	84.19
606.126	90.19
606.334	86.19
606.543	86.19
606.751	99.19
606.96	83.19
607.168	85.19
607.376	72.19
607.585	90.19
607.793	99.19
608.001	72.19
608.21	88.19
608.418	74.19
608.626	78.19
608.834	63.19
609.043	82.19
609.251	86.19
609.459	98.19
609.667	78.19
609.875	68.19
610.083	80.19
610.291	78.19
610.499	84.19
610.707	82.19
610.916	86.19
611.124	91.19
611.332	84.19
611.54	84.19
611.748	87.19
611.955	91.19
612.163	72.19
612.371	75.19
612.579	78.19
612.787	91.19
612.995	98.19
613.203	92.19
613.411	83.19
613.618	83.19
613.826	75.19
614.034	86.19
614.242	95.19
614.449	94.19
614.657	74.19
614.865	83.19
615.072	82.19
615.28	89.19
615.488	78.19
615.695	96.19
615.903	96.19
616.111	82.19
616.318	86.19
616.526	92.19
616.733	90.19
616.941	88.19
617.148	82.19
617.356	65.19
617.563	82.19
617.771	77.19
617.978	70.19
618.185	76.19
618.393	86.19
618.6	92.19
618.807	103.19
619.015	78.19
619.222	80.19
619.429	88.19
619.637	91.19
619.844	81.19
620.051	82.19
620.258	80.19
620.466	89.19
620.673	91.19
620.88	92.19
621.087	87.19
621.294	78.19
621.501	78.19
621.708	83.19
621.915	91.19
622.122	83.19
622.329	86.19
622.536	101.19
622.743	86.19
622.95	82.19
623.157	84.19
623.364	91.19
623.571	93.19
623.778	82.19
623.985	78.19
624.192	82.19
624.399	82.19
624.606	89.19
624.812	92.19
625.019	90.19
625.226	85.19
625.433	91.19
625.639	76.19
625.846	93.19
626.053	93.19
626.259	95.19
626.466	86.19
626.673	89.19
626.879	78.19
627.086	84.19
627.293	97.19
627.499	90.19
627.706	83.19
627.912	103.19
628.119	98.19
628.325	100.19
628.532	78.19
628.738	62.19
628.945	95.19
629.151	84.19
629.357	79.19
629.564	83.19
629.77	96.19
629.976	87.19
630.183	85.19
630.389	92.19
630.595	96.19
630.802	102.19
631.008	87.19
631.214	92.19
631.42	99.19
631.627	104.19
631.833	96.19
632.039	83.19
632.245	72.19
632.451	77.19
632.657	96.19
632.863	83.19
633.069	75.19
633.275	76.19
633.481	89.19
633.688	77.19
633.893	92.19
634.099	90.19
634.305	91.19
634.511	99.19
634.717	87.19
634.923	78.19
635.129	76.19
635.335	83.19
635.541	79.19
635.747	85.19
635.952	88.19
636.158	67.19
636.364	84.19
636.57	83.19
636.775	76.19
636.981	80.19
637.187	92.19
637.392	78.19
637.598	88.19
637.804	87.19
638.009	87.19
638.215	88.19
638.421	101.19
638.626	92.19
638.832	82.19
639.037	84.19
639.243	76.19
639.448	71.19
639.654	91.19
639.859	62.19
640.065	80.19
640.27	91.19
640.475	82.19
640.681	61.19
640.886	98.19
641.091	83.19
641.297	93.19
641.502	80.19
641.707	83.19
641.913	74.19
642.118	83.19
642.323	80.19
642.528	92.19
642.733	82.19
642.939	86.19
643.144	98.19
643.349	92.19
643.554	76.19
643.759	83.19
643.964	88.19
644.169	85.19
644.374	87.19
644.579	92.19
644.784	84.19
644.989	86.19
645.194	80.19
645.399	80.19
645.604	89.19
645.809	108.19
646.014	78.19
646.219	100.19
646.423	92.19
646.628	98.19
646.833	90.19
647.038	82.19
647.243	84.19
647.447	88.19
647.652	88.19
647.857	83.19
648.062	72.19
648.266	94.19
648.471	89.19
648.676	80.19
648.88	83.19
649.085	75.19
649.289	73.19
649.494	85.19
649.698	62.19
649.903	86.19
650.107	86.19
650.312	92.19
650.516	78.19
650.721	84.19
650.925	79.19
651.13	84.19
651.334	96.19
651.539	99.19
651.743	86.19
651.947	90.19
652.152	104.19
652.356	90.19
652.56	73.19
652.764	81.19
652.969	88.19
653.173	73.19
653.377	86.19
653.581	90.19
653.785	80.19
653.99	90.19
654.194	89.19
654.398	93.19
654.602	72.19
654.806	87.19
655.01	89.19
655.214	95.19
655.418	97.19
655.622	85.19
655.826	87.19
656.03	82.19
656.234	96.19
656.438	80.19
656.642	78.19
656.846	90.19
657.049	84.19
657.253	85.19
657.457	103.19
657.661	96.19
657.865	77.19
658.068	85.19
658.272	79.19
658.476	76.19
658.68	80.19
658.883	73.19
659.087	91.19
659.291	85.19
659.494	72.19
659.698	87.19
659.901	93.19
660.105	86.19
660.309	80.19
660.512	81.19
660.716	83.19
660.919	84.19
661.123	85.19
661.326	94.19
661.53	96.19
661.733	93.19
661.936	83.19
662.14	79.19
662.343	80.19
662.546	83.19
662.75	82.19
662.953	90.19
663.156	86.19
663.36	86.19
663.563	80.19
663.766	93.19
663.969	108.19
664.173	96.19
664.376	93.19
664.579	83.19
664.782	87.19
664.985	81.19
665.188	78.19
665.391	84.19
665.594	78.19
665.797	78.19
666	101.19
666.203	87.19
666.406	71.19
666.609	87.19
666.812	72.19
667.015	77.19
667.218	86.19
667.421	85.19
667.624	98.19
667.827	83.19
668.03	79.19
668.232	78.19
668.435	85.19
668.638	88.19
668.841	94.19
669.043	79.19
669.246	67.19
669.449	79.19
669.651	76.19
669.854	74.19
670.057	86.19
670.259	85.19
670.462	96.19
670.665	92.19
670.867	102.19
671.07	72.19
671.272	99.19
671.475	86.19
671.677	84.19
671.88	86.19
672.082	77.19
672.284	78.19
672.487	76.19
672.689	86.19
672.892	77.19
