Data from Circ_2003_H10_HRD10591_00029.txt Node
Date: Wed Jan 03 10:37:08 EST 2024
User: Yrep
Spectrometer: HR+D1059
Trigger mode: 1
Integration Time (sec): 1.000000E-1
Scans to average: 1
Electric dark correction enabled: true
Nonlinearity correction enabled: false
Boxcar width: 0
XAxis mode: Wavelengths
Number of Pixels in Spectrum: 2048
>>>>>Begin Spectral Data<<<<<
223.165	-17.19
223.4	-17.19
223.635	-17.19
223.869	-31.19
224.104	-5.19
224.338	-11.19
224.573	-15.19
224.808	-19.19
225.042	-5.19
225.277	-3.19
225.511	-1.19
225.746	5.81
225.98	4.81
226.215	29.81
226.449	13.81
226.683	16.81
226.918	6.81
227.152	30.81
227.387	35.81
227.621	36.81
227.856	51.81
228.09	51.81
228.324	38.81
228.559	36.81
228.793	42.81
229.027	61.81
229.262	61.81
229.496	70.81
229.73	87.81
229.964	87.81
230.199	74.81
230.433	79.81
230.667	76.81
230.901	90.81
231.136	78.81
231.37	80.81
231.604	93.81
231.838	77.81
232.072	78.81
232.306	64.81
232.541	72.81
232.775	87.81
233.009	66.81
233.243	82.81
233.477	72.81
233.711	85.81
233.945	85.81
234.179	84.81
234.413	76.81
234.647	73.81
234.881	79.81
235.115	82.81
235.349	78.81
235.583	84.81
235.817	90.81
236.051	85.81
236.285	77.81
236.519	93.81
236.753	74.81
236.987	83.81
237.221	76.81
237.455	81.81
237.689	72.81
237.922	87.81
238.156	89.81
238.39	79.81
238.624	72.81
238.858	58.81
239.091	57.81
239.325	80.81
239.559	82.81
239.793	80.81
240.027	80.81
240.26	65.81
240.494	77.81
240.728	75.81
240.961	80.81
241.195	68.81
241.429	83.81
241.662	56.81
241.896	84.81
242.13	78.81
242.363	74.81
242.597	82.81
242.83	69.81
243.064	65.81
243.298	70.81
243.531	61.81
243.765	88.81
243.998	80.81
244.232	78.81
244.465	84.81
244.699	77.81
244.932	60.81
245.166	78.81
245.399	81.81
245.633	79.81
245.866	61.81
246.099	89.81
246.333	74.81
246.566	69.81
246.8	68.81
247.033	78.81
247.266	79.81
247.5	72.81
247.733	83.81
247.966	75.81
248.2	76.81
248.433	73.81
248.666	73.81
248.899	80.81
249.133	87.81
249.366	97.81
249.599	90.81
249.832	91.81
250.066	76.81
250.299	84.81
250.532	86.81
250.765	85.81
250.998	85.81
251.231	70.81
251.465	86.81
251.698	73.81
251.931	76.81
252.164	82.81
252.397	76.81
252.63	80.81
252.863	81.81
253.096	73.81
253.329	68.81
253.562	79.81
253.795	72.81
254.028	79.81
254.261	80.81
254.494	76.81
254.727	89.81
254.96	77.81
255.193	72.81
255.426	81.81
255.659	90.81
255.892	76.81
256.124	80.81
256.357	84.81
256.59	68.81
256.823	78.81
257.056	77.81
257.289	73.81
257.521	94.81
257.754	90.81
257.987	74.81
258.22	79.81
258.452	85.81
258.685	76.81
258.918	90.81
259.151	71.81
259.383	72.81
259.616	85.81
259.849	74.81
260.081	79.81
260.314	71.81
260.547	89.81
260.779	75.81
261.012	81.81
261.244	81.81
261.477	90.81
261.71	95.81
261.942	111.81
262.175	102.81
262.407	89.81
262.64	82.81
262.872	91.81
263.105	84.81
263.337	94.81
263.57	80.81
263.802	84.81
264.035	92.81
264.267	76.81
264.499	89.81
264.732	72.81
264.964	67.81
265.197	71.81
265.429	86.81
265.661	90.81
265.894	95.81
266.126	85.81
266.358	82.81
266.591	77.81
266.823	88.81
267.055	83.81
267.287	82.81
267.52	80.81
267.752	89.81
267.984	76.81
268.216	82.81
268.448	76.81
268.681	77.81
268.913	80.81
269.145	83.81
269.377	72.81
269.609	52.81
269.841	78.81
270.073	94.81
270.306	95.81
270.538	81.81
270.77	76.81
271.002	81.81
271.234	94.81
271.466	83.81
271.698	73.81
271.93	93.81
272.162	85.81
272.394	87.81
272.626	94.81
272.858	72.81
273.09	63.81
273.322	71.81
273.553	91.81
273.785	84.81
274.017	85.81
274.249	79.81
274.481	89.81
274.713	93.81
274.945	108.81
275.176	85.81
275.408	71.81
275.64	87.81
275.872	86.81
276.104	80.81
276.335	82.81
276.567	94.81
276.799	109.81
277.031	106.81
277.262	80.81
277.494	88.81
277.726	99.81
277.957	84.81
278.189	85.81
278.421	86.81
278.652	95.81
278.884	85.81
279.115	79.81
279.347	91.81
279.579	86.81
279.81	81.81
280.042	78.81
280.273	81.81
280.505	86.81
280.736	75.81
280.968	89.81
281.199	94.81
281.431	86.81
281.662	75.81
281.894	96.81
282.125	90.81
282.356	119.81
282.588	141.81
282.819	114.81
283.051	80.81
283.282	80.81
283.513	78.81
283.745	85.81
283.976	93.81
284.207	82.81
284.439	95.81
284.67	87.81
284.901	89.81
285.132	78.81
285.364	73.81
285.595	93.81
285.826	86.81
286.057	85.81
286.288	98.81
286.52	74.81
286.751	86.81
286.982	94.81
287.213	87.81
287.444	80.81
287.675	79.81
287.906	82.81
288.138	98.81
288.369	86.81
288.6	94.81
288.831	94.81
289.062	87.81
289.293	94.81
289.524	89.81
289.755	76.81
289.986	90.81
290.217	87.81
290.448	79.81
290.679	81.81
290.91	94.81
291.141	84.81
291.371	89.81
291.602	87.81
291.833	87.81
292.064	89.81
292.295	82.81
292.526	99.81
292.757	94.81
292.987	80.81
293.218	89.81
293.449	105.81
293.68	85.81
293.91	78.81
294.141	83.81
294.372	94.81
294.603	81.81
294.833	89.81
295.064	80.81
295.295	82.81
295.525	88.81
295.756	103.81
295.987	108.81
296.217	139.81
296.448	124.81
296.679	89.81
296.909	84.81
297.14	85.81
297.37	73.81
297.601	96.81
297.831	97.81
298.062	102.81
298.292	86.81
298.523	82.81
298.753	80.81
298.984	79.81
299.214	87.81
299.445	88.81
299.675	89.81
299.905	104.81
300.136	101.81
300.366	86.81
300.597	86.81
300.827	95.81
301.057	106.81
301.288	100.81
301.518	96.81
301.748	79.81
301.979	93.81
302.209	86.81
302.439	73.81
302.669	95.81
302.9	81.81
303.13	81.81
303.36	94.81
303.59	94.81
303.82	104.81
304.051	90.81
304.281	97.81
304.511	89.81
304.741	86.81
304.971	73.81
305.201	79.81
305.431	109.81
305.661	81.81
305.891	86.81
306.121	96.81
306.352	110.81
306.582	102.81
306.812	84.81
307.042	95.81
307.272	87.81
307.502	105.81
307.731	84.81
307.961	95.81
308.191	97.81
308.421	83.81
308.651	75.81
308.881	92.81
309.111	97.81
309.341	94.81
309.571	96.81
309.8	99.81
310.03	98.81
310.26	97.81
310.49	95.81
310.72	116.81
310.949	88.81
311.179	90.81
311.409	87.81
311.639	97.81
311.868	94.81
312.098	87.81
312.328	97.81
312.557	110.81
312.787	105.81
313.017	101.81
313.246	88.81
313.476	83.81
313.706	97.81
313.935	87.81
314.165	106.81
314.394	94.81
314.624	92.81
314.853	100.81
315.083	85.81
315.312	93.81
315.542	93.81
315.771	76.81
316.001	105.81
316.23	93.81
316.46	89.81
316.689	95.81
316.919	83.81
317.148	90.81
317.377	88.81
317.607	84.81
317.836	104.81
318.065	81.81
318.295	101.81
318.524	81.81
318.753	95.81
318.983	105.81
319.212	86.81
319.441	109.81
319.67	110.81
319.9	82.81
320.129	94.81
320.358	86.81
320.587	101.81
320.816	99.81
321.046	105.81
321.275	109.81
321.504	102.81
321.733	76.81
321.962	100.81
322.191	89.81
322.42	103.81
322.649	89.81
322.878	109.81
323.108	112.81
323.337	113.81
323.566	138.81
323.795	150.81
324.024	217.81
324.253	437.81
324.482	970.81
324.71	1960.81
324.939	2520.81
325.168	909.81
325.397	257.81
325.626	161.81
325.855	142.81
326.084	144.81
326.313	146.81
326.542	154.81
326.77	240.81
326.999	520.81
327.228	1081.81
327.457	1992.81
327.686	1536.81
327.914	412.81
328.143	199.81
328.372	138.81
328.6	124.81
328.829	128.81
329.058	131.81
329.287	132.81
329.515	109.81
329.744	107.81
329.972	91.81
330.201	110.81
330.43	110.81
330.658	121.81
330.887	140.81
331.115	101.81
331.344	96.81
331.572	93.81
331.801	102.81
332.03	114.81
332.258	101.81
332.486	82.81
332.715	89.81
332.943	87.81
333.172	100.81
333.4	92.81
333.629	102.81
333.857	109.81
334.085	119.81
334.314	96.81
334.542	125.81
334.771	106.81
334.999	102.81
335.227	86.81
335.455	97.81
335.684	102.81
335.912	104.81
336.14	79.81
336.369	98.81
336.597	105.81
336.825	87.81
337.053	98.81
337.281	102.81
337.51	88.81
337.738	103.81
337.966	85.81
338.194	105.81
338.422	104.81
338.65	93.81
338.878	93.81
339.106	85.81
339.334	78.81
339.562	101.81
339.79	82.81
340.018	90.81
340.246	95.81
340.474	108.81
340.702	106.81
340.93	89.81
341.158	84.81
341.386	90.81
341.614	97.81
341.842	93.81
342.07	86.81
342.298	91.81
342.526	82.81
342.754	80.81
342.981	73.81
343.209	88.81
343.437	100.81
343.665	89.81
343.893	94.81
344.12	98.81
344.348	88.81
344.576	94.81
344.804	100.81
345.031	93.81
345.259	103.81
345.487	103.81
345.714	97.81
345.942	83.81
346.17	98.81
346.397	99.81
346.625	86.81
346.853	96.81
347.08	81.81
347.308	96.81
347.535	92.81
347.763	101.81
347.99	96.81
348.218	100.81
348.445	87.81
348.673	109.81
348.9	108.81
349.128	95.81
349.355	94.81
349.583	90.81
349.81	93.81
350.037	85.81
350.265	91.81
350.492	103.81
350.72	90.81
350.947	90.81
351.174	104.81
351.402	110.81
351.629	88.81
351.856	89.81
352.083	111.81
352.311	129.81
352.538	118.81
352.765	116.81
352.992	101.81
353.22	109.81
353.447	114.81
353.674	97.81
353.901	92.81
354.128	90.81
354.355	89.81
354.583	98.81
354.81	91.81
355.037	103.81
355.264	86.81
355.491	89.81
355.718	104.81
355.945	88.81
356.172	91.81
356.399	87.81
356.626	95.81
356.853	97.81
357.08	90.81
357.307	98.81
357.534	112.81
357.761	104.81
357.988	93.81
358.215	105.81
358.441	94.81
358.668	90.81
358.895	83.81
359.122	80.81
359.349	88.81
359.576	102.81
359.802	106.81
360.029	104.81
360.256	109.81
360.483	87.81
360.709	90.81
360.936	95.81
361.163	87.81
361.39	92.81
361.616	106.81
361.843	93.81
362.07	79.81
362.296	85.81
362.523	82.81
362.749	82.81
362.976	88.81
363.203	96.81
363.429	94.81
363.656	83.81
363.882	86.81
364.109	88.81
364.335	90.81
364.562	80.81
364.788	92.81
365.015	80.81
365.241	102.81
365.468	113.81
365.694	92.81
365.92	78.81
366.147	94.81
366.373	104.81
366.599	81.81
366.826	98.81
367.052	88.81
367.278	85.81
367.505	81.81
367.731	98.81
367.957	85.81
368.184	87.81
368.41	96.81
368.636	111.81
368.862	125.81
369.089	104.81
369.315	96.81
369.541	98.81
369.767	88.81
369.993	83.81
370.219	93.81
370.445	93.81
370.672	74.81
370.898	76.81
371.124	79.81
371.35	92.81
371.576	73.81
371.802	90.81
372.028	80.81
372.254	82.81
372.48	76.81
372.706	81.81
372.932	85.81
373.158	88.81
373.384	87.81
373.61	100.81
373.835	101.81
374.061	90.81
374.287	93.81
374.513	90.81
374.739	87.81
374.965	80.81
375.191	78.81
375.416	93.81
375.642	94.81
375.868	86.81
376.094	90.81
376.319	95.81
376.545	85.81
376.771	108.81
376.997	92.81
377.222	99.81
377.448	89.81
377.674	92.81
377.899	95.81
378.125	84.81
378.35	79.81
378.576	94.81
378.802	104.81
379.027	100.81
379.253	108.81
379.478	102.81
379.704	98.81
379.929	106.81
380.155	108.81
380.38	105.81
380.606	111.81
380.831	101.81
381.057	102.81
381.282	94.81
381.507	106.81
381.733	106.81
381.958	94.81
382.184	114.81
382.409	106.81
382.634	100.81
382.86	94.81
383.085	111.81
383.31	110.81
383.535	102.81
383.761	113.81
383.986	107.81
384.211	100.81
384.436	102.81
384.662	111.81
384.887	102.81
385.112	118.81
385.337	112.81
385.562	114.81
385.787	112.81
386.013	108.81
386.238	115.81
386.463	108.81
386.688	122.81
386.913	113.81
387.138	122.81
387.363	118.81
387.588	93.81
387.813	90.81
388.038	104.81
388.263	125.81
388.488	109.81
388.713	108.81
388.938	95.81
389.163	89.81
389.387	98.81
389.612	88.81
389.837	89.81
390.062	89.81
390.287	79.81
390.512	89.81
390.736	94.81
390.961	90.81
391.186	97.81
391.411	91.81
391.636	93.81
391.86	77.81
392.085	71.81
392.31	86.81
392.534	90.81
392.759	73.81
392.984	92.81
393.208	101.81
393.433	96.81
393.658	92.81
393.882	90.81
394.107	86.81
394.331	82.81
394.556	83.81
394.78	86.81
395.005	105.81
395.229	81.81
395.454	100.81
395.678	85.81
395.903	97.81
396.127	89.81
396.352	93.81
396.576	82.81
396.801	96.81
397.025	84.81
397.249	76.81
397.474	66.81
397.698	73.81
397.922	86.81
398.147	96.81
398.371	98.81
398.595	96.81
398.82	83.81
399.044	89.81
399.268	86.81
399.492	85.81
399.717	97.81
399.941	102.81
400.165	101.81
400.389	87.81
400.613	80.81
400.837	88.81
401.062	84.81
401.286	82.81
401.51	100.81
401.734	98.81
401.958	98.81
402.182	120.81
402.406	167.81
402.63	111.81
402.854	96.81
403.078	89.81
403.302	94.81
403.526	103.81
403.75	100.81
403.974	88.81
404.198	81.81
404.422	82.81
404.645	79.81
404.869	84.81
405.093	86.81
405.317	98.81
405.541	97.81
405.765	102.81
405.988	114.81
406.212	174.81
406.436	234.81
406.66	148.81
406.883	99.81
407.107	85.81
407.331	84.81
407.555	103.81
407.778	76.81
408.002	88.81
408.226	90.81
408.449	80.81
408.673	81.81
408.896	98.81
409.12	82.81
409.344	95.81
409.567	78.81
409.791	85.81
410.014	104.81
410.238	102.81
410.461	81.81
410.685	92.81
410.908	91.81
411.132	97.81
411.355	94.81
411.578	103.81
411.802	92.81
412.025	94.81
412.249	89.81
412.472	96.81
412.695	94.81
412.919	79.81
413.142	95.81
413.365	86.81
413.589	105.81
413.812	91.81
414.035	105.81
414.258	91.81
414.482	98.81
414.705	98.81
414.928	88.81
415.151	88.81
415.374	84.81
415.597	95.81
415.821	96.81
416.044	91.81
416.267	96.81
416.49	89.81
416.713	86.81
416.936	81.81
417.159	68.81
417.382	81.81
417.605	85.81
417.828	90.81
418.051	104.81
418.274	83.81
418.497	90.81
418.72	98.81
418.943	86.81
419.166	85.81
419.389	103.81
419.611	94.81
419.834	88.81
420.057	93.81
420.28	100.81
420.503	93.81
420.726	92.81
420.948	81.81
421.171	93.81
421.394	103.81
421.617	94.81
421.839	101.81
422.062	94.81
422.285	81.81
422.507	86.81
422.73	110.81
422.953	89.81
423.175	80.81
423.398	97.81
423.621	82.81
423.843	90.81
424.066	74.81
424.288	98.81
424.511	75.81
424.733	104.81
424.956	101.81
425.178	97.81
425.401	113.81
425.623	91.81
425.846	105.81
426.068	98.81
426.291	87.81
426.513	96.81
426.735	110.81
426.958	101.81
427.18	115.81
427.402	135.81
427.625	159.81
427.847	127.81
428.069	96.81
428.292	72.81
428.514	86.81
428.736	94.81
428.958	86.81
429.181	77.81
429.403	76.81
429.625	82.81
429.847	96.81
430.069	91.81
430.292	87.81
430.514	84.81
430.736	93.81
430.958	80.81
431.18	78.81
431.402	97.81
431.624	83.81
431.846	75.81
432.068	90.81
432.29	81.81
432.512	91.81
432.734	88.81
432.956	98.81
433.178	99.81
433.4	97.81
433.622	94.81
433.844	87.81
434.066	97.81
434.287	89.81
434.509	88.81
434.731	87.81
434.953	72.81
435.175	85.81
435.397	84.81
435.618	101.81
435.84	92.81
436.062	138.81
436.284	136.81
436.505	107.81
436.727	106.81
436.949	92.81
437.17	83.81
437.392	101.81
437.614	97.81
437.835	104.81
438.057	116.81
438.278	102.81
438.5	121.81
438.721	117.81
438.943	89.81
439.165	76.81
439.386	81.81
439.608	102.81
439.829	89.81
440.05	117.81
440.272	132.81
440.493	90.81
440.715	90.81
440.936	84.81
441.158	89.81
441.379	79.81
441.6	93.81
441.822	94.81
442.043	91.81
442.264	100.81
442.486	103.81
442.707	96.81
442.928	106.81
443.149	134.81
443.371	134.81
443.592	115.81
443.813	105.81
444.034	103.81
444.255	105.81
444.476	85.81
444.698	81.81
444.919	88.81
445.14	147.81
445.361	137.81
445.582	112.81
445.803	118.81
446.024	130.81
446.245	131.81
446.466	119.81
446.687	104.81
446.908	87.81
447.129	94.81
447.35	77.81
447.571	78.81
447.792	100.81
448.013	79.81
448.234	89.81
448.455	102.81
448.675	112.81
448.896	122.81
449.117	112.81
449.338	97.81
449.559	118.81
449.779	144.81
450	94.81
450.221	76.81
450.442	110.81
450.662	90.81
450.883	102.81
451.104	117.81
451.324	104.81
451.545	94.81
451.766	100.81
451.986	97.81
452.207	90.81
452.428	86.81
452.648	105.81
452.869	119.81
453.089	124.81
453.31	122.81
453.53	103.81
453.751	93.81
453.971	102.81
454.192	113.81
454.412	82.81
454.633	86.81
454.853	93.81
455.073	101.81
455.294	90.81
455.514	103.81
455.734	87.81
455.955	98.81
456.175	76.81
456.395	94.81
456.616	89.81
456.836	85.81
457.056	94.81
457.276	93.81
457.497	91.81
457.717	86.81
457.937	100.81
458.157	92.81
458.377	88.81
458.598	114.81
458.818	150.81
459.038	170.81
459.258	120.81
459.478	86.81
459.698	89.81
459.918	102.81
460.138	88.81
460.358	95.81
460.578	87.81
460.798	104.81
461.018	94.81
461.238	74.81
461.458	94.81
461.678	80.81
461.898	78.81
462.118	89.81
462.338	84.81
462.558	82.81
462.777	83.81
462.997	71.81
463.217	84.81
463.437	77.81
463.657	83.81
463.876	87.81
464.096	93.81
464.316	88.81
464.536	108.81
464.755	90.81
464.975	119.81
465.195	166.81
465.414	158.81
465.634	103.81
465.854	84.81
466.073	76.81
466.293	100.81
466.512	85.81
466.732	93.81
466.951	67.81
467.171	99.81
467.391	84.81
467.61	102.81
467.829	98.81
468.049	100.81
468.268	101.81
468.488	90.81
468.707	91.81
468.927	84.81
469.146	96.81
469.365	82.81
469.585	90.81
469.804	94.81
470.023	84.81
470.243	99.81
470.462	92.81
470.681	113.81
470.901	82.81
471.12	91.81
471.339	81.81
471.558	95.81
471.777	85.81
471.997	84.81
472.216	97.81
472.435	134.81
472.654	109.81
472.873	97.81
473.092	93.81
473.311	92.81
473.53	90.81
473.749	98.81
473.968	81.81
474.187	104.81
474.406	88.81
474.625	97.81
474.844	84.81
475.063	102.81
475.282	96.81
475.501	86.81
475.72	80.81
475.939	80.81
476.158	79.81
476.377	83.81
476.596	90.81
476.814	80.81
477.033	93.81
477.252	94.81
477.471	86.81
477.69	83.81
477.908	94.81
478.127	89.81
478.346	80.81
478.564	83.81
478.783	96.81
479.002	84.81
479.22	100.81
479.439	101.81
479.658	97.81
479.876	103.81
480.095	91.81
480.313	90.81
480.532	98.81
480.751	86.81
480.969	95.81
481.188	137.81
481.406	116.81
481.624	90.81
481.843	99.81
482.061	95.81
482.28	90.81
482.498	96.81
482.717	87.81
482.935	97.81
483.153	77.81
483.372	80.81
483.59	89.81
483.808	88.81
484.027	79.81
484.245	100.81
484.463	92.81
484.681	90.81
484.9	87.81
485.118	90.81
485.336	87.81
485.554	100.81
485.772	113.81
485.99	102.81
486.209	98.81
486.427	108.81
486.645	115.81
486.863	117.81
487.081	100.81
487.299	105.81
487.517	85.81
487.735	96.81
487.953	103.81
488.171	97.81
488.389	88.81
488.607	105.81
488.825	95.81
489.043	93.81
489.261	79.81
489.479	89.81
489.696	85.81
489.914	72.81
490.132	88.81
490.35	91.81
490.568	89.81
490.786	94.81
491.003	87.81
491.221	93.81
491.439	77.81
491.657	103.81
491.874	87.81
492.092	84.81
492.31	83.81
492.527	84.81
492.745	104.81
492.963	93.81
493.18	82.81
493.398	87.81
493.615	86.81
493.833	98.81
494.05	92.81
494.268	83.81
494.485	100.81
494.703	100.81
494.92	92.81
495.138	86.81
495.355	82.81
495.573	73.81
495.79	109.81
496.008	106.81
496.225	87.81
496.442	79.81
496.66	83.81
496.877	94.81
497.094	90.81
497.312	94.81
497.529	101.81
497.746	93.81
497.963	92.81
498.181	97.81
498.398	97.81
498.615	112.81
498.832	101.81
499.049	89.81
499.267	105.81
499.484	85.81
499.701	93.81
499.918	97.81
500.135	82.81
500.352	103.81
500.569	101.81
500.786	102.81
501.003	93.81
501.22	108.81
501.437	90.81
501.654	88.81
501.871	124.81
502.088	97.81
502.305	90.81
502.522	93.81
502.739	97.81
502.956	90.81
503.172	94.81
503.389	81.81
503.606	114.81
503.823	100.81
504.04	89.81
504.256	86.81
504.473	96.81
504.69	77.81
504.907	99.81
505.123	89.81
505.34	93.81
505.557	81.81
505.773	84.81
505.99	102.81
506.207	93.81
506.423	90.81
506.64	95.81
506.856	90.81
507.073	83.81
507.289	93.81
507.506	97.81
507.722	105.81
507.939	106.81
508.155	107.81
508.372	98.81
508.588	87.81
508.805	103.81
509.021	104.81
509.238	99.81
509.454	109.81
509.67	112.81
509.887	97.81
510.103	119.81
510.319	229.81
510.536	841.81
510.752	2745.81
510.968	747.81
511.184	170.81
511.401	111.81
511.617	111.81
511.833	91.81
512.049	81.81
512.265	88.81
512.481	95.81
512.698	97.81
512.914	81.81
513.13	92.81
513.346	102.81
513.562	105.81
513.778	114.81
513.994	97.81
514.21	105.81
514.426	110.81
514.642	150.81
514.858	124.81
515.074	178.81
515.29	477.81
515.506	1675.81
515.721	606.81
515.937	166.81
516.153	95.81
516.369	98.81
516.585	110.81
516.801	80.81
517.016	96.81
517.232	82.81
517.448	86.81
517.664	81.81
517.879	96.81
518.095	90.81
518.311	82.81
518.527	94.81
518.742	90.81
518.958	96.81
519.173	100.81
519.389	87.81
519.605	89.81
519.82	90.81
520.036	101.81
520.251	101.81
520.467	105.81
520.682	95.81
520.898	123.81
521.113	113.81
521.329	140.81
521.544	208.81
521.76	624.81
521.975	2730.81
522.19	1628.81
522.406	346.81
522.621	122.81
522.836	114.81
523.052	104.81
523.267	105.81
523.482	86.81
523.698	89.81
523.913	122.81
524.128	97.81
524.343	112.81
524.559	95.81
524.774	92.81
524.989	94.81
525.204	98.81
525.419	96.81
525.634	104.81
525.849	84.81
526.064	82.81
526.28	90.81
526.495	98.81
526.71	78.81
526.925	81.81
527.14	79.81
527.355	78.81
527.57	86.81
527.785	78.81
527.999	81.81
528.214	91.81
528.429	85.81
528.644	100.81
528.859	80.81
529.074	94.81
529.289	118.81
529.503	190.81
529.718	112.81
529.933	85.81
530.148	84.81
530.363	95.81
530.577	94.81
530.792	87.81
531.007	88.81
531.221	92.81
531.436	83.81
531.651	86.81
531.865	89.81
532.08	93.81
532.295	100.81
532.509	80.81
532.724	93.81
532.938	84.81
533.153	90.81
533.367	103.81
533.582	93.81
533.796	82.81
534.011	82.81
534.225	95.81
534.44	95.81
534.654	87.81
534.868	85.81
535.083	93.81
535.297	86.81
535.511	102.81
535.726	107.81
535.94	108.81
536.154	96.81
536.369	96.81
536.583	76.81
536.797	91.81
537.011	92.81
537.225	92.81
537.44	84.81
537.654	93.81
537.868	89.81
538.082	100.81
538.296	83.81
538.51	82.81
538.724	82.81
538.938	84.81
539.153	104.81
539.367	90.81
539.581	90.81
539.795	98.81
540.009	95.81
540.222	103.81
540.436	95.81
540.65	96.81
540.864	104.81
541.078	84.81
541.292	95.81
541.506	88.81
541.72	88.81
541.934	90.81
542.147	90.81
542.361	89.81
542.575	79.81
542.789	85.81
543.002	81.81
543.216	99.81
543.43	96.81
543.644	85.81
543.857	88.81
544.071	83.81
544.285	82.81
544.498	101.81
544.712	90.81
544.925	85.81
545.139	96.81
545.352	95.81
545.566	95.81
545.779	94.81
545.993	80.81
546.206	85.81
546.42	90.81
546.633	91.81
546.847	84.81
547.06	92.81
547.274	95.81
547.487	79.81
547.7	76.81
547.914	83.81
548.127	94.81
548.34	85.81
548.554	85.81
548.767	108.81
548.98	80.81
549.193	70.81
549.407	99.81
549.62	88.81
549.833	71.81
550.046	91.81
550.259	84.81
550.473	83.81
550.686	97.81
550.899	89.81
551.112	68.81
551.325	90.81
551.538	83.81
551.751	96.81
551.964	90.81
552.177	92.81
552.39	82.81
552.603	92.81
552.816	85.81
553.029	89.81
553.242	96.81
553.455	94.81
553.667	100.81
553.88	97.81
554.093	97.81
554.306	88.81
554.519	89.81
554.732	97.81
554.944	87.81
555.157	72.81
555.37	86.81
555.583	85.81
555.795	98.81
556.008	103.81
556.221	94.81
556.433	92.81
556.646	101.81
556.859	95.81
557.071	78.81
557.284	92.81
557.496	83.81
557.709	87.81
557.921	86.81
558.134	101.81
558.346	78.81
558.559	93.81
558.771	77.81
558.984	80.81
559.196	89.81
559.409	94.81
559.621	94.81
559.833	106.81
560.046	95.81
560.258	101.81
560.47	80.81
560.683	87.81
560.895	84.81
561.107	95.81
561.32	93.81
561.532	86.81
561.744	97.81
561.956	96.81
562.168	87.81
562.381	76.81
562.593	77.81
562.805	98.81
563.017	91.81
563.229	86.81
563.441	82.81
563.653	95.81
563.865	82.81
564.077	84.81
564.289	94.81
564.501	77.81
564.713	93.81
564.925	82.81
565.137	100.81
565.349	89.81
565.561	95.81
565.773	87.81
565.985	97.81
566.197	86.81
566.408	87.81
566.62	91.81
566.832	92.81
567.044	73.81
567.255	88.81
567.467	92.81
567.679	95.81
567.891	82.81
568.102	81.81
568.314	89.81
568.526	99.81
568.737	88.81
568.949	91.81
569.161	86.81
569.372	100.81
569.584	99.81
569.795	102.81
570.007	112.81
570.218	266.81
570.43	158.81
570.641	86.81
570.853	94.81
571.064	83.81
571.276	85.81
571.487	86.81
571.698	79.81
571.91	88.81
572.121	88.81
572.333	88.81
572.544	79.81
572.755	88.81
572.966	86.81
573.178	99.81
573.389	97.81
573.6	89.81
573.811	81.81
574.023	85.81
574.234	92.81
574.445	87.81
574.656	89.81
574.867	88.81
575.078	87.81
575.289	94.81
575.501	81.81
575.712	91.81
575.923	87.81
576.134	86.81
576.345	69.81
576.556	88.81
576.767	98.81
576.978	71.81
577.188	102.81
577.399	96.81
577.61	101.81
577.821	98.81
578.032	114.81
578.243	297.81
578.454	885.81
578.665	226.81
578.875	116.81
579.086	97.81
579.297	84.81
579.508	82.81
579.718	102.81
579.929	99.81
580.14	82.81
580.35	96.81
580.561	91.81
580.772	90.81
580.982	78.81
581.193	88.81
581.403	84.81
581.614	92.81
581.825	79.81
582.035	86.81
582.246	79.81
582.456	92.81
582.667	99.81
582.877	88.81
583.087	94.81
583.298	86.81
583.508	87.81
583.719	99.81
583.929	92.81
584.139	83.81
584.35	87.81
584.56	106.81
584.77	81.81
584.981	92.81
585.191	84.81
585.401	87.81
585.611	82.81
585.821	80.81
586.032	96.81
586.242	101.81
586.452	77.81
586.662	98.81
586.872	97.81
587.082	75.81
587.292	64.81
587.502	92.81
587.713	89.81
587.923	89.81
588.133	91.81
588.343	89.81
588.553	78.81
588.762	80.81
588.972	95.81
589.182	176.81
589.392	128.81
589.602	97.81
589.812	129.81
590.022	106.81
590.232	81.81
590.441	90.81
590.651	91.81
590.861	92.81
591.071	80.81
591.281	87.81
591.49	87.81
591.7	80.81
591.91	98.81
592.119	83.81
592.329	88.81
592.539	98.81
592.748	82.81
592.958	97.81
593.167	82.81
593.377	73.81
593.587	97.81
593.796	95.81
594.006	88.81
594.215	84.81
594.424	98.81
594.634	95.81
594.843	90.81
595.053	89.81
595.262	80.81
595.472	89.81
595.681	87.81
595.89	86.81
596.1	90.81
596.309	81.81
596.518	80.81
596.727	87.81
596.937	82.81
597.146	88.81
597.355	94.81
597.564	76.81
597.774	93.81
597.983	79.81
598.192	83.81
598.401	87.81
598.61	85.81
598.819	85.81
599.028	87.81
599.237	81.81
599.446	87.81
599.655	98.81
599.864	90.81
600.073	94.81
600.282	96.81
600.491	89.81
600.7	96.81
600.909	96.81
601.118	86.81
601.327	87.81
601.536	93.81
601.745	97.81
601.953	93.81
602.162	86.81
602.371	98.81
602.58	88.81
602.789	76.81
602.997	81.81
603.206	77.81
603.415	88.81
603.623	90.81
603.832	92.81
604.041	97.81
604.249	80.81
604.458	75.81
604.666	84.81
604.875	84.81
605.084	79.81
605.292	92.81
605.501	78.81
605.709	88.81
605.918	71.81
606.126	90.81
606.334	86.81
606.543	88.81
606.751	94.81
606.96	94.81
607.168	79.81
607.376	90.81
607.585	82.81
607.793	74.81
608.001	91.81
608.21	82.81
608.418	93.81
608.626	82.81
608.834	101.81
609.043	100.81
609.251	84.81
609.459	90.81
609.667	95.81
609.875	90.81
610.083	81.81
610.291	85.81
610.499	93.81
610.707	89.81
610.916	85.81
611.124	87.81
611.332	77.81
611.54	80.81
611.748	87.81
611.955	85.81
612.163	70.81
612.371	102.81
612.579	82.81
612.787	86.81
612.995	82.81
613.203	69.81
613.411	78.81
613.618	74.81
613.826	65.81
614.034	74.81
614.242	80.81
614.449	80.81
614.657	77.81
614.865	81.81
615.072	70.81
615.28	90.81
615.488	97.81
615.695	89.81
615.903	102.81
616.111	102.81
616.318	94.81
616.526	88.81
616.733	89.81
616.941	93.81
617.148	87.81
617.356	89.81
617.563	85.81
617.771	90.81
617.978	90.81
618.185	86.81
618.393	81.81
618.6	92.81
618.807	92.81
619.015	86.81
619.222	72.81
619.429	103.81
619.637	83.81
619.844	77.81
620.051	79.81
620.258	88.81
620.466	77.81
620.673	81.81
620.88	86.81
621.087	80.81
621.294	82.81
621.501	90.81
621.708	79.81
621.915	88.81
622.122	79.81
622.329	83.81
622.536	72.81
622.743	76.81
622.95	82.81
623.157	79.81
623.364	82.81
623.571	101.81
623.778	87.81
623.985	89.81
624.192	76.81
624.399	93.81
624.606	82.81
624.812	89.81
625.019	94.81
625.226	62.81
625.433	89.81
625.639	78.81
625.846	78.81
626.053	79.81
626.259	95.81
626.466	89.81
626.673	72.81
626.879	78.81
627.086	90.81
627.293	73.81
627.499	78.81
627.706	85.81
627.912	76.81
628.119	78.81
628.325	78.81
628.532	92.81
628.738	73.81
628.945	88.81
629.151	86.81
629.357	85.81
629.564	89.81
629.77	83.81
629.976	100.81
630.183	84.81
630.389	90.81
630.595	80.81
630.802	85.81
631.008	81.81
631.214	72.81
631.42	87.81
631.627	101.81
631.833	85.81
632.039	93.81
632.245	83.81
632.451	79.81
632.657	83.81
632.863	88.81
633.069	91.81
633.275	88.81
633.481	68.81
633.688	72.81
633.893	82.81
634.099	95.81
634.305	88.81
634.511	90.81
634.717	89.81
634.923	91.81
635.129	78.81
635.335	66.81
635.541	84.81
635.747	94.81
635.952	81.81
636.158	83.81
636.364	77.81
636.57	73.81
636.775	82.81
636.981	90.81
637.187	78.81
637.392	86.81
637.598	82.81
637.804	97.81
638.009	78.81
638.215	84.81
638.421	79.81
638.626	88.81
638.832	86.81
639.037	84.81
639.243	87.81
639.448	106.81
639.654	90.81
639.859	81.81
640.065	82.81
640.27	88.81
640.475	102.81
640.681	76.81
640.886	67.81
641.091	76.81
641.297	84.81
641.502	87.81
641.707	89.81
641.913	92.81
642.118	76.81
642.323	81.81
642.528	86.81
642.733	87.81
642.939	90.81
643.144	83.81
643.349	82.81
643.554	84.81
643.759	85.81
643.964	82.81
644.169	81.81
644.374	87.81
644.579	82.81
644.784	90.81
644.989	89.81
645.194	97.81
645.399	91.81
645.604	97.81
645.809	84.81
646.014	85.81
646.219	84.81
646.423	89.81
646.628	94.81
646.833	82.81
647.038	89.81
647.243	90.81
647.447	93.81
647.652	98.81
647.857	103.81
648.062	77.81
648.266	89.81
648.471	105.81
648.676	95.81
648.88	91.81
649.085	88.81
649.289	96.81
649.494	103.81
649.698	135.81
649.903	88.81
650.107	82.81
650.312	90.81
650.516	87.81
650.721	84.81
650.925	67.81
651.13	76.81
651.334	78.81
651.539	77.81
651.743	68.81
651.947	94.81
652.152	78.81
652.356	78.81
652.56	77.81
652.764	79.81
652.969	75.81
653.173	80.81
653.377	93.81
653.581	81.81
653.785	75.81
653.99	80.81
654.194	68.81
654.398	92.81
654.602	72.81
654.806	89.81
655.01	110.81
655.214	100.81
655.418	92.81
655.622	99.81
655.826	84.81
656.03	87.81
656.234	94.81
656.438	95.81
656.642	86.81
656.846	95.81
657.049	86.81
657.253	94.81
657.457	65.81
657.661	79.81
657.865	80.81
658.068	89.81
658.272	78.81
658.476	83.81
658.68	69.81
658.883	74.81
659.087	77.81
659.291	82.81
659.494	94.81
659.698	87.81
659.901	72.81
660.105	79.81
660.309	76.81
660.512	89.81
660.716	90.81
660.919	71.81
661.123	81.81
661.326	116.81
661.53	78.81
661.733	74.81
661.936	97.81
662.14	90.81
662.343	96.81
662.546	84.81
662.75	101.81
662.953	90.81
663.156	69.81
663.36	73.81
663.563	80.81
663.766	73.81
663.969	70.81
664.173	83.81
664.376	79.81
664.579	102.81
664.782	76.81
664.985	77.81
665.188	68.81
665.391	88.81
665.594	76.81
665.797	89.81
666	87.81
666.203	72.81
666.406	82.81
666.609	85.81
666.812	85.81
667.015	71.81
667.218	68.81
667.421	66.81
667.624	95.81
667.827	87.81
668.03	85.81
668.232	82.81
668.435	79.81
668.638	77.81
668.841	71.81
669.043	80.81
669.246	85.81
669.449	77.81
669.651	72.81
669.854	89.81
670.057	88.81
670.259	75.81
670.462	80.81
670.665	80.81
670.867	74.81
671.07	79.81
671.272	80.81
671.475	82.81
671.677	79.81
671.88	99.81
672.082	69.81
672.284	74.81
672.487	82.81
672.689	75.81
672.892	79.81
