Data from Circ_2003_H10_HRD10591_00099.txt Node
Date: Wed Jan 03 10:37:22 EST 2024
User: Yrep
Spectrometer: HR+D1059
Trigger mode: 1
Integration Time (sec): 1.000000E-1
Scans to average: 1
Electric dark correction enabled: true
Nonlinearity correction enabled: false
Boxcar width: 0
XAxis mode: Wavelengths
Number of Pixels in Spectrum: 2048
>>>>>Begin Spectral Data<<<<<
223.165	-16.81
223.4	-16.81
223.635	-16.81
223.869	-11.81
224.104	-12.81
224.338	-12.81
224.573	-7.81
224.808	-6.81
225.042	-7.81
225.277	-11.81
225.511	-0.81
225.746	0.19
225.98	-9.81
226.215	15.19
226.449	12.19
226.683	23.19
226.918	13.19
227.152	35.19
227.387	28.19
227.621	55.19
227.856	53.19
228.09	58.19
228.324	56.19
228.559	58.19
228.793	57.19
229.027	66.19
229.262	77.19
229.496	52.19
229.73	70.19
229.964	84.19
230.199	70.19
230.433	86.19
230.667	88.19
230.901	74.19
231.136	71.19
231.37	83.19
231.604	75.19
231.838	83.19
232.072	83.19
232.306	86.19
232.541	86.19
232.775	86.19
233.009	75.19
233.243	78.19
233.477	87.19
233.711	89.19
233.945	67.19
234.179	76.19
234.413	75.19
234.647	79.19
234.881	79.19
235.115	68.19
235.349	75.19
235.583	88.19
235.817	67.19
236.051	76.19
236.285	99.19
236.519	89.19
236.753	75.19
236.987	74.19
237.221	74.19
237.455	79.19
237.689	68.19
237.922	75.19
238.156	71.19
238.39	75.19
238.624	73.19
238.858	90.19
239.091	91.19
239.325	93.19
239.559	85.19
239.793	79.19
240.027	83.19
240.26	84.19
240.494	66.19
240.728	70.19
240.961	95.19
241.195	96.19
241.429	75.19
241.662	82.19
241.896	70.19
242.13	79.19
242.363	71.19
242.597	64.19
242.83	81.19
243.064	74.19
243.298	81.19
243.531	80.19
243.765	62.19
243.998	75.19
244.232	85.19
244.465	84.19
244.699	63.19
244.932	67.19
245.166	81.19
245.399	85.19
245.633	82.19
245.866	79.19
246.099	69.19
246.333	79.19
246.566	82.19
246.8	79.19
247.033	87.19
247.266	79.19
247.5	81.19
247.733	84.19
247.966	87.19
248.2	72.19
248.433	83.19
248.666	88.19
248.899	79.19
249.133	79.19
249.366	80.19
249.599	80.19
249.832	85.19
250.066	90.19
250.299	82.19
250.532	91.19
250.765	85.19
250.998	74.19
251.231	78.19
251.465	89.19
251.698	69.19
251.931	77.19
252.164	79.19
252.397	75.19
252.63	92.19
252.863	69.19
253.096	86.19
253.329	81.19
253.562	77.19
253.795	54.19
254.028	73.19
254.261	89.19
254.494	72.19
254.727	88.19
254.96	81.19
255.193	74.19
255.426	80.19
255.659	88.19
255.892	83.19
256.124	88.19
256.357	79.19
256.59	71.19
256.823	69.19
257.056	81.19
257.289	79.19
257.521	63.19
257.754	77.19
257.987	74.19
258.22	76.19
258.452	88.19
258.685	87.19
258.918	81.19
259.151	82.19
259.383	84.19
259.616	84.19
259.849	86.19
260.081	86.19
260.314	81.19
260.547	81.19
260.779	76.19
261.012	77.19
261.244	87.19
261.477	99.19
261.71	96.19
261.942	94.19
262.175	103.19
262.407	96.19
262.64	85.19
262.872	85.19
263.105	80.19
263.337	78.19
263.57	98.19
263.802	74.19
264.035	71.19
264.267	78.19
264.499	93.19
264.732	93.19
264.964	77.19
265.197	81.19
265.429	85.19
265.661	84.19
265.894	90.19
266.126	93.19
266.358	92.19
266.591	86.19
266.823	75.19
267.055	82.19
267.287	90.19
267.52	69.19
267.752	92.19
267.984	87.19
268.216	80.19
268.448	72.19
268.681	96.19
268.913	76.19
269.145	83.19
269.377	79.19
269.609	71.19
269.841	81.19
270.073	84.19
270.306	90.19
270.538	85.19
270.77	97.19
271.002	77.19
271.234	86.19
271.466	90.19
271.698	90.19
271.93	80.19
272.162	82.19
272.394	92.19
272.626	91.19
272.858	75.19
273.09	89.19
273.322	105.19
273.553	69.19
273.785	78.19
274.017	81.19
274.249	81.19
274.481	83.19
274.713	90.19
274.945	85.19
275.176	83.19
275.408	88.19
275.64	76.19
275.872	92.19
276.104	89.19
276.335	86.19
276.567	110.19
276.799	98.19
277.031	99.19
277.262	81.19
277.494	82.19
277.726	75.19
277.957	79.19
278.189	93.19
278.421	79.19
278.652	86.19
278.884	79.19
279.115	89.19
279.347	88.19
279.579	71.19
279.81	82.19
280.042	85.19
280.273	100.19
280.505	97.19
280.736	82.19
280.968	84.19
281.199	77.19
281.431	89.19
281.662	86.19
281.894	91.19
282.125	91.19
282.356	97.19
282.588	129.19
282.819	112.19
283.051	85.19
283.282	73.19
283.513	90.19
283.745	90.19
283.976	88.19
284.207	83.19
284.439	89.19
284.67	78.19
284.901	83.19
285.132	98.19
285.364	93.19
285.595	92.19
285.826	86.19
286.057	87.19
286.288	84.19
286.52	90.19
286.751	83.19
286.982	83.19
287.213	79.19
287.444	88.19
287.675	88.19
287.906	89.19
288.138	79.19
288.369	87.19
288.6	84.19
288.831	92.19
289.062	87.19
289.293	82.19
289.524	89.19
289.755	96.19
289.986	88.19
290.217	96.19
290.448	88.19
290.679	87.19
290.91	96.19
291.141	85.19
291.371	88.19
291.602	93.19
291.833	83.19
292.064	93.19
292.295	97.19
292.526	83.19
292.757	74.19
292.987	97.19
293.218	77.19
293.449	86.19
293.68	95.19
293.91	86.19
294.141	85.19
294.372	71.19
294.603	91.19
294.833	85.19
295.064	82.19
295.295	80.19
295.525	93.19
295.756	101.19
295.987	123.19
296.217	134.19
296.448	111.19
296.679	85.19
296.909	78.19
297.14	78.19
297.37	85.19
297.601	82.19
297.831	87.19
298.062	95.19
298.292	87.19
298.523	78.19
298.753	93.19
298.984	91.19
299.214	70.19
299.445	95.19
299.675	88.19
299.905	84.19
300.136	87.19
300.366	96.19
300.597	82.19
300.827	91.19
301.057	103.19
301.288	107.19
301.518	96.19
301.748	91.19
301.979	96.19
302.209	95.19
302.439	84.19
302.669	100.19
302.9	77.19
303.13	99.19
303.36	104.19
303.59	95.19
303.82	94.19
304.051	93.19
304.281	99.19
304.511	102.19
304.741	81.19
304.971	82.19
305.201	88.19
305.431	85.19
305.661	82.19
305.891	86.19
306.121	89.19
306.352	89.19
306.582	111.19
306.812	95.19
307.042	82.19
307.272	93.19
307.502	82.19
307.731	94.19
307.961	104.19
308.191	88.19
308.421	84.19
308.651	86.19
308.881	91.19
309.111	101.19
309.341	97.19
309.571	107.19
309.8	86.19
310.03	98.19
310.26	87.19
310.49	101.19
310.72	89.19
310.949	109.19
311.179	106.19
311.409	98.19
311.639	99.19
311.868	102.19
312.098	105.19
312.328	98.19
312.557	92.19
312.787	93.19
313.017	97.19
313.246	86.19
313.476	100.19
313.706	82.19
313.935	89.19
314.165	92.19
314.394	99.19
314.624	102.19
314.853	106.19
315.083	76.19
315.312	94.19
315.542	110.19
315.771	104.19
316.001	97.19
316.23	100.19
316.46	87.19
316.689	96.19
316.919	82.19
317.148	104.19
317.377	84.19
317.607	85.19
317.836	99.19
318.065	92.19
318.295	89.19
318.524	98.19
318.753	87.19
318.983	100.19
319.212	92.19
319.441	105.19
319.67	97.19
319.9	103.19
320.129	98.19
320.358	84.19
320.587	87.19
320.816	100.19
321.046	101.19
321.275	78.19
321.504	98.19
321.733	86.19
321.962	89.19
322.191	108.19
322.42	103.19
322.649	101.19
322.878	105.19
323.108	118.19
323.337	124.19
323.566	141.19
323.795	145.19
324.024	204.19
324.253	389.19
324.482	815.19
324.71	1666.19
324.939	2165.19
325.168	793.19
325.397	228.19
325.626	145.19
325.855	129.19
326.084	125.19
326.313	127.19
326.542	140.19
326.77	224.19
326.999	466.19
327.228	951.19
327.457	1720.19
327.686	1346.19
327.914	377.19
328.143	191.19
328.372	173.19
328.6	146.19
328.829	105.19
329.058	113.19
329.287	126.19
329.515	97.19
329.744	108.19
329.972	131.19
330.201	153.19
330.43	168.19
330.658	133.19
330.887	143.19
331.115	116.19
331.344	96.19
331.572	95.19
331.801	99.19
332.03	96.19
332.258	99.19
332.486	104.19
332.715	78.19
332.943	99.19
333.172	95.19
333.4	89.19
333.629	98.19
333.857	111.19
334.085	143.19
334.314	163.19
334.542	227.19
334.771	202.19
334.999	128.19
335.227	105.19
335.455	102.19
335.684	94.19
335.912	91.19
336.14	92.19
336.369	99.19
336.597	89.19
336.825	101.19
337.053	95.19
337.281	89.19
337.51	104.19
337.738	90.19
337.966	90.19
338.194	94.19
338.422	91.19
338.65	95.19
338.878	97.19
339.106	79.19
339.334	93.19
339.562	76.19
339.79	81.19
340.018	94.19
340.246	91.19
340.474	95.19
340.702	91.19
340.93	101.19
341.158	89.19
341.386	88.19
341.614	105.19
341.842	103.19
342.07	86.19
342.298	91.19
342.526	87.19
342.754	87.19
342.981	86.19
343.209	94.19
343.437	101.19
343.665	89.19
343.893	85.19
344.12	83.19
344.348	86.19
344.576	89.19
344.804	87.19
345.031	90.19
345.259	88.19
345.487	89.19
345.714	83.19
345.942	95.19
346.17	82.19
346.397	83.19
346.625	89.19
346.853	79.19
347.08	91.19
347.308	100.19
347.535	93.19
347.763	98.19
347.99	101.19
348.218	104.19
348.445	98.19
348.673	112.19
348.9	90.19
349.128	98.19
349.355	87.19
349.583	95.19
349.81	81.19
350.037	94.19
350.265	101.19
350.492	89.19
350.72	81.19
350.947	97.19
351.174	110.19
351.402	122.19
351.629	90.19
351.856	100.19
352.083	95.19
352.311	94.19
352.538	98.19
352.765	101.19
352.992	110.19
353.22	96.19
353.447	93.19
353.674	82.19
353.901	97.19
354.128	82.19
354.355	85.19
354.583	94.19
354.81	110.19
355.037	93.19
355.264	101.19
355.491	101.19
355.718	77.19
355.945	91.19
356.172	90.19
356.399	92.19
356.626	87.19
356.853	101.19
357.08	95.19
357.307	86.19
357.534	93.19
357.761	93.19
357.988	95.19
358.215	96.19
358.441	103.19
358.668	94.19
358.895	91.19
359.122	79.19
359.349	89.19
359.576	85.19
359.802	94.19
360.029	96.19
360.256	98.19
360.483	90.19
360.709	91.19
360.936	89.19
361.163	105.19
361.39	95.19
361.616	95.19
361.843	98.19
362.07	87.19
362.296	87.19
362.523	81.19
362.749	90.19
362.976	100.19
363.203	82.19
363.429	82.19
363.656	86.19
363.882	81.19
364.109	90.19
364.335	78.19
364.562	88.19
364.788	95.19
365.015	91.19
365.241	104.19
365.468	103.19
365.694	97.19
365.92	95.19
366.147	90.19
366.373	77.19
366.599	84.19
366.826	88.19
367.052	88.19
367.278	85.19
367.505	88.19
367.731	89.19
367.957	86.19
368.184	96.19
368.41	101.19
368.636	95.19
368.862	117.19
369.089	111.19
369.315	102.19
369.541	83.19
369.767	100.19
369.993	83.19
370.219	88.19
370.445	104.19
370.672	87.19
370.898	80.19
371.124	89.19
371.35	85.19
371.576	82.19
371.802	84.19
372.028	89.19
372.254	87.19
372.48	94.19
372.706	78.19
372.932	98.19
373.158	85.19
373.384	87.19
373.61	81.19
373.835	87.19
374.061	98.19
374.287	90.19
374.513	80.19
374.739	97.19
374.965	97.19
375.191	84.19
375.416	96.19
375.642	89.19
375.868	90.19
376.094	93.19
376.319	89.19
376.545	96.19
376.771	99.19
376.997	79.19
377.222	83.19
377.448	98.19
377.674	80.19
377.899	91.19
378.125	80.19
378.35	101.19
378.576	72.19
378.802	84.19
379.027	97.19
379.253	88.19
379.478	90.19
379.704	91.19
379.929	96.19
380.155	68.19
380.38	99.19
380.606	95.19
380.831	88.19
381.057	107.19
381.282	86.19
381.507	93.19
381.733	83.19
381.958	94.19
382.184	98.19
382.409	108.19
382.634	94.19
382.86	96.19
383.085	98.19
383.31	100.19
383.535	93.19
383.761	93.19
383.986	107.19
384.211	90.19
384.436	100.19
384.662	103.19
384.887	91.19
385.112	102.19
385.337	86.19
385.562	107.19
385.787	96.19
386.013	94.19
386.238	103.19
386.463	97.19
386.688	94.19
386.913	84.19
387.138	107.19
387.363	93.19
387.588	89.19
387.813	104.19
388.038	100.19
388.263	92.19
388.488	105.19
388.713	102.19
388.938	97.19
389.163	82.19
389.387	97.19
389.612	84.19
389.837	83.19
390.062	89.19
390.287	89.19
390.512	94.19
390.736	95.19
390.961	86.19
391.186	80.19
391.411	86.19
391.636	88.19
391.86	97.19
392.085	90.19
392.31	76.19
392.534	91.19
392.759	89.19
392.984	88.19
393.208	80.19
393.433	85.19
393.658	92.19
393.882	78.19
394.107	89.19
394.331	81.19
394.556	74.19
394.78	82.19
395.005	76.19
395.229	79.19
395.454	83.19
395.678	81.19
395.903	94.19
396.127	94.19
396.352	74.19
396.576	87.19
396.801	98.19
397.025	87.19
397.249	89.19
397.474	81.19
397.698	81.19
397.922	76.19
398.147	94.19
398.371	91.19
398.595	77.19
398.82	89.19
399.044	89.19
399.268	84.19
399.492	86.19
399.717	76.19
399.941	84.19
400.165	88.19
400.389	83.19
400.613	75.19
400.837	86.19
401.062	91.19
401.286	96.19
401.51	79.19
401.734	88.19
401.958	113.19
402.182	128.19
402.406	155.19
402.63	119.19
402.854	90.19
403.078	85.19
403.302	77.19
403.526	98.19
403.75	94.19
403.974	101.19
404.198	102.19
404.422	85.19
404.645	84.19
404.869	89.19
405.093	88.19
405.317	104.19
405.541	93.19
405.765	116.19
405.988	126.19
406.212	147.19
406.436	211.19
406.66	132.19
406.883	89.19
407.107	85.19
407.331	89.19
407.555	94.19
407.778	100.19
408.002	87.19
408.226	73.19
408.449	83.19
408.673	80.19
408.896	81.19
409.12	91.19
409.344	87.19
409.567	87.19
409.791	90.19
410.014	107.19
410.238	91.19
410.461	84.19
410.685	90.19
410.908	87.19
411.132	104.19
411.355	96.19
411.578	74.19
411.802	94.19
412.025	91.19
412.249	107.19
412.472	106.19
412.695	86.19
412.919	72.19
413.142	89.19
413.365	99.19
413.589	89.19
413.812	92.19
414.035	102.19
414.258	88.19
414.482	99.19
414.705	83.19
414.928	94.19
415.151	75.19
415.374	94.19
415.597	97.19
415.821	93.19
416.044	93.19
416.267	83.19
416.49	88.19
416.713	87.19
416.936	97.19
417.159	82.19
417.382	83.19
417.605	70.19
417.828	92.19
418.051	95.19
418.274	86.19
418.497	88.19
418.72	93.19
418.943	90.19
419.166	101.19
419.389	87.19
419.611	83.19
419.834	90.19
420.057	81.19
420.28	73.19
420.503	80.19
420.726	74.19
420.948	85.19
421.171	84.19
421.394	98.19
421.617	78.19
421.839	89.19
422.062	88.19
422.285	89.19
422.507	82.19
422.73	106.19
422.953	90.19
423.175	102.19
423.398	94.19
423.621	93.19
423.843	68.19
424.066	89.19
424.288	88.19
424.511	77.19
424.733	94.19
424.956	100.19
425.178	95.19
425.401	91.19
425.623	97.19
425.846	99.19
426.068	88.19
426.291	89.19
426.513	88.19
426.735	79.19
426.958	83.19
427.18	109.19
427.402	130.19
427.625	167.19
427.847	115.19
428.069	114.19
428.292	85.19
428.514	95.19
428.736	91.19
428.958	82.19
429.181	70.19
429.403	67.19
429.625	82.19
429.847	102.19
430.069	85.19
430.292	84.19
430.514	86.19
430.736	76.19
430.958	80.19
431.18	89.19
431.402	82.19
431.624	74.19
431.846	83.19
432.068	82.19
432.29	74.19
432.512	80.19
432.734	82.19
432.956	96.19
433.178	86.19
433.4	89.19
433.622	85.19
433.844	83.19
434.066	97.19
434.287	94.19
434.509	101.19
434.731	89.19
434.953	81.19
435.175	91.19
435.397	84.19
435.618	96.19
435.84	99.19
436.062	101.19
436.284	117.19
436.505	109.19
436.727	104.19
436.949	99.19
437.17	96.19
437.392	85.19
437.614	83.19
437.835	108.19
438.057	98.19
438.278	102.19
438.5	112.19
438.721	107.19
438.943	97.19
439.165	92.19
439.386	79.19
439.608	94.19
439.829	81.19
440.05	117.19
440.272	139.19
440.493	111.19
440.715	95.19
440.936	78.19
441.158	95.19
441.379	77.19
441.6	99.19
441.822	75.19
442.043	89.19
442.264	100.19
442.486	94.19
442.707	94.19
442.928	101.19
443.149	108.19
443.371	114.19
443.592	84.19
443.813	108.19
444.034	95.19
444.255	88.19
444.476	87.19
444.698	87.19
444.919	81.19
445.14	130.19
445.361	121.19
445.582	108.19
445.803	114.19
446.024	130.19
446.245	118.19
446.466	118.19
446.687	85.19
446.908	79.19
447.129	81.19
447.35	78.19
447.571	106.19
447.792	93.19
448.013	87.19
448.234	104.19
448.455	86.19
448.675	92.19
448.896	104.19
449.117	97.19
449.338	106.19
449.559	123.19
449.779	116.19
450	106.19
450.221	89.19
450.442	97.19
450.662	89.19
450.883	107.19
451.104	111.19
451.324	91.19
451.545	90.19
451.766	75.19
451.986	104.19
452.207	77.19
452.428	87.19
452.648	96.19
452.869	111.19
453.089	101.19
453.31	113.19
453.53	90.19
453.751	93.19
453.971	111.19
454.192	104.19
454.412	86.19
454.633	82.19
454.853	76.19
455.073	79.19
455.294	91.19
455.514	107.19
455.734	99.19
455.955	86.19
456.175	85.19
456.395	81.19
456.616	87.19
456.836	89.19
457.056	84.19
457.276	98.19
457.497	97.19
457.717	85.19
457.937	85.19
458.157	82.19
458.377	93.19
458.598	105.19
458.818	131.19
459.038	138.19
459.258	114.19
459.478	92.19
459.698	97.19
459.918	86.19
460.138	92.19
460.358	74.19
460.578	80.19
460.798	89.19
461.018	88.19
461.238	100.19
461.458	90.19
461.678	69.19
461.898	74.19
462.118	77.19
462.338	80.19
462.558	94.19
462.777	77.19
462.997	91.19
463.217	83.19
463.437	87.19
463.657	90.19
463.876	69.19
464.096	88.19
464.316	88.19
464.536	88.19
464.755	86.19
464.975	100.19
465.195	149.19
465.414	158.19
465.634	90.19
465.854	88.19
466.073	78.19
466.293	80.19
466.512	88.19
466.732	93.19
466.951	86.19
467.171	97.19
467.391	101.19
467.61	102.19
467.829	104.19
468.049	121.19
468.268	135.19
468.488	110.19
468.707	89.19
468.927	65.19
469.146	82.19
469.365	73.19
469.585	96.19
469.804	92.19
470.023	94.19
470.243	93.19
470.462	102.19
470.681	105.19
470.901	85.19
471.12	77.19
471.339	96.19
471.558	85.19
471.777	102.19
471.997	119.19
472.216	185.19
472.435	285.19
472.654	106.19
472.873	80.19
473.092	77.19
473.311	86.19
473.53	84.19
473.749	83.19
473.968	101.19
474.187	92.19
474.406	102.19
474.625	74.19
474.844	77.19
475.063	99.19
475.282	80.19
475.501	94.19
475.72	92.19
475.939	82.19
476.158	80.19
476.377	90.19
476.596	88.19
476.814	90.19
477.033	98.19
477.252	98.19
477.471	95.19
477.69	83.19
477.908	81.19
478.127	89.19
478.346	79.19
478.564	88.19
478.783	92.19
479.002	95.19
479.22	96.19
479.439	86.19
479.658	97.19
479.876	93.19
480.095	90.19
480.313	91.19
480.532	82.19
480.751	105.19
480.969	184.19
481.188	458.19
481.406	287.19
481.624	109.19
481.843	91.19
482.061	87.19
482.28	105.19
482.498	91.19
482.717	82.19
482.935	94.19
483.153	77.19
483.372	88.19
483.59	87.19
483.808	77.19
484.027	88.19
484.245	89.19
484.463	89.19
484.681	100.19
484.9	80.19
485.118	85.19
485.336	96.19
485.554	112.19
485.772	100.19
485.99	98.19
486.209	104.19
486.427	102.19
486.645	96.19
486.863	109.19
487.081	117.19
487.299	101.19
487.517	83.19
487.735	79.19
487.953	102.19
488.171	97.19
488.389	94.19
488.607	106.19
488.825	80.19
489.043	89.19
489.261	104.19
489.479	93.19
489.696	86.19
489.914	86.19
490.132	89.19
490.35	112.19
490.568	86.19
490.786	91.19
491.003	76.19
491.221	90.19
491.439	106.19
491.657	90.19
491.874	93.19
492.092	84.19
492.31	95.19
492.527	88.19
492.745	91.19
492.963	96.19
493.18	100.19
493.398	88.19
493.615	88.19
493.833	82.19
494.05	104.19
494.268	89.19
494.485	87.19
494.703	97.19
494.92	95.19
495.138	79.19
495.355	95.19
495.573	93.19
495.79	85.19
496.008	103.19
496.225	88.19
496.442	91.19
496.66	100.19
496.877	95.19
497.094	97.19
497.312	90.19
497.529	97.19
497.746	82.19
497.963	85.19
498.181	84.19
498.398	90.19
498.615	112.19
498.832	104.19
499.049	105.19
499.267	94.19
499.484	79.19
499.701	73.19
499.918	82.19
500.135	85.19
500.352	85.19
500.569	88.19
500.786	94.19
501.003	89.19
501.22	100.19
501.437	98.19
501.654	94.19
501.871	98.19
502.088	88.19
502.305	86.19
502.522	78.19
502.739	88.19
502.956	83.19
503.172	97.19
503.389	87.19
503.606	113.19
503.823	97.19
504.04	88.19
504.256	96.19
504.473	102.19
504.69	94.19
504.907	82.19
505.123	98.19
505.34	97.19
505.557	95.19
505.773	60.19
505.99	79.19
506.207	82.19
506.423	95.19
506.64	94.19
506.856	88.19
507.073	93.19
507.289	84.19
507.506	90.19
507.722	112.19
507.939	109.19
508.155	98.19
508.372	97.19
508.588	96.19
508.805	91.19
509.021	98.19
509.238	95.19
509.454	102.19
509.67	104.19
509.887	104.19
510.103	125.19
510.319	197.19
510.536	721.19
510.752	2293.19
510.968	649.19
511.184	161.19
511.401	111.19
511.617	94.19
511.833	96.19
512.049	89.19
512.265	105.19
512.481	86.19
512.698	93.19
512.914	87.19
513.13	106.19
513.346	89.19
513.562	87.19
513.778	96.19
513.994	107.19
514.21	106.19
514.426	106.19
514.642	116.19
514.858	119.19
515.074	141.19
515.29	400.19
515.506	1325.19
515.721	493.19
515.937	145.19
516.153	104.19
516.369	94.19
516.585	102.19
516.801	102.19
517.016	96.19
517.232	95.19
517.448	88.19
517.664	95.19
517.879	82.19
518.095	95.19
518.311	93.19
518.527	90.19
518.742	83.19
518.958	95.19
519.173	79.19
519.389	90.19
519.605	104.19
519.82	108.19
520.036	106.19
520.251	102.19
520.467	108.19
520.682	114.19
520.898	97.19
521.113	114.19
521.329	116.19
521.544	182.19
521.76	509.19
521.975	2134.19
522.19	1338.19
522.406	293.19
522.621	130.19
522.836	97.19
523.052	91.19
523.267	101.19
523.482	96.19
523.698	93.19
523.913	109.19
524.128	85.19
524.343	83.19
524.559	85.19
524.774	90.19
524.989	107.19
525.204	105.19
525.419	99.19
525.634	98.19
525.849	90.19
526.064	89.19
526.28	93.19
526.495	80.19
526.71	82.19
526.925	96.19
527.14	103.19
527.355	86.19
527.57	97.19
527.785	82.19
527.999	80.19
528.214	78.19
528.429	88.19
528.644	97.19
528.859	96.19
529.074	99.19
529.289	108.19
529.503	169.19
529.718	96.19
529.933	95.19
530.148	93.19
530.363	91.19
530.577	84.19
530.792	90.19
531.007	91.19
531.221	85.19
531.436	101.19
531.651	95.19
531.865	89.19
532.08	101.19
532.295	79.19
532.509	90.19
532.724	97.19
532.938	91.19
533.153	101.19
533.367	88.19
533.582	110.19
533.796	91.19
534.011	87.19
534.225	79.19
534.44	87.19
534.654	88.19
534.868	90.19
535.083	96.19
535.297	102.19
535.511	90.19
535.726	104.19
535.94	101.19
536.154	90.19
536.369	87.19
536.583	84.19
536.797	81.19
537.011	96.19
537.225	106.19
537.44	84.19
537.654	92.19
537.868	83.19
538.082	97.19
538.296	92.19
538.51	89.19
538.724	104.19
538.938	85.19
539.153	115.19
539.367	92.19
539.581	100.19
539.795	79.19
540.009	93.19
540.222	88.19
540.436	89.19
540.65	82.19
540.864	88.19
541.078	96.19
541.292	83.19
541.506	79.19
541.72	96.19
541.934	89.19
542.147	89.19
542.361	96.19
542.575	99.19
542.789	97.19
543.002	85.19
543.216	76.19
543.43	98.19
543.644	97.19
543.857	104.19
544.071	90.19
544.285	88.19
544.498	111.19
544.712	74.19
544.925	87.19
545.139	89.19
545.352	80.19
545.566	91.19
545.779	91.19
545.993	85.19
546.206	92.19
546.42	91.19
546.633	75.19
546.847	88.19
547.06	91.19
547.274	90.19
547.487	90.19
547.7	89.19
547.914	88.19
548.127	81.19
548.34	83.19
548.554	88.19
548.767	97.19
548.98	85.19
549.193	82.19
549.407	91.19
549.62	75.19
549.833	95.19
550.046	97.19
550.259	90.19
550.473	92.19
550.686	73.19
550.899	83.19
551.112	98.19
551.325	75.19
551.538	77.19
551.751	94.19
551.964	95.19
552.177	99.19
552.39	90.19
552.603	90.19
552.816	89.19
553.029	92.19
553.242	93.19
553.455	98.19
553.667	107.19
553.88	104.19
554.093	106.19
554.306	80.19
554.519	80.19
554.732	91.19
554.944	76.19
555.157	78.19
555.37	96.19
555.583	80.19
555.795	91.19
556.008	90.19
556.221	102.19
556.433	81.19
556.646	92.19
556.859	94.19
557.071	93.19
557.284	105.19
557.496	92.19
557.709	91.19
557.921	106.19
558.134	116.19
558.346	81.19
558.559	82.19
558.771	82.19
558.984	97.19
559.196	104.19
559.409	91.19
559.621	97.19
559.833	90.19
560.046	83.19
560.258	98.19
560.47	99.19
560.683	83.19
560.895	99.19
561.107	85.19
561.32	88.19
561.532	86.19
561.744	83.19
561.956	79.19
562.168	94.19
562.381	98.19
562.593	79.19
562.805	88.19
563.017	96.19
563.229	91.19
563.441	74.19
563.653	86.19
563.865	87.19
564.077	93.19
564.289	88.19
564.501	102.19
564.713	98.19
564.925	97.19
565.137	103.19
565.349	81.19
565.561	73.19
565.773	98.19
565.985	95.19
566.197	90.19
566.408	81.19
566.62	74.19
566.832	86.19
567.044	83.19
567.255	90.19
567.467	87.19
567.679	89.19
567.891	84.19
568.102	82.19
568.314	84.19
568.526	79.19
568.737	72.19
568.949	81.19
569.161	75.19
569.372	89.19
569.584	97.19
569.795	90.19
570.007	110.19
570.218	243.19
570.43	129.19
570.641	94.19
570.853	86.19
571.064	89.19
571.276	75.19
571.487	75.19
571.698	86.19
571.91	81.19
572.121	75.19
572.333	93.19
572.544	90.19
572.755	84.19
572.966	87.19
573.178	90.19
573.389	102.19
573.6	81.19
573.811	81.19
574.023	75.19
574.234	73.19
574.445	85.19
574.656	85.19
574.867	93.19
575.078	81.19
575.289	85.19
575.501	98.19
575.712	102.19
575.923	85.19
576.134	82.19
576.345	87.19
576.556	95.19
576.767	102.19
576.978	94.19
577.188	74.19
577.399	93.19
577.61	81.19
577.821	85.19
578.032	110.19
578.243	250.19
578.454	745.19
578.665	219.19
578.875	105.19
579.086	71.19
579.297	93.19
579.508	82.19
579.718	80.19
579.929	83.19
580.14	88.19
580.35	74.19
580.561	97.19
580.772	74.19
580.982	93.19
581.193	86.19
581.403	81.19
581.614	95.19
581.825	73.19
582.035	83.19
582.246	79.19
582.456	74.19
582.667	80.19
582.877	86.19
583.087	78.19
583.298	88.19
583.508	83.19
583.719	87.19
583.929	86.19
584.139	86.19
584.35	86.19
584.56	86.19
584.77	96.19
584.981	91.19
585.191	85.19
585.401	80.19
585.611	90.19
585.821	86.19
586.032	95.19
586.242	89.19
586.452	85.19
586.662	88.19
586.872	92.19
587.082	97.19
587.292	84.19
587.502	79.19
587.713	75.19
587.923	87.19
588.133	83.19
588.343	84.19
588.553	86.19
588.762	82.19
588.972	84.19
589.182	99.19
589.392	92.19
589.602	88.19
589.812	77.19
590.022	85.19
590.232	92.19
590.441	80.19
590.651	76.19
590.861	83.19
591.071	90.19
591.281	87.19
591.49	91.19
591.7	91.19
591.91	89.19
592.119	86.19
592.329	91.19
592.539	86.19
592.748	91.19
592.958	77.19
593.167	77.19
593.377	93.19
593.587	83.19
593.796	85.19
594.006	89.19
594.215	89.19
594.424	72.19
594.634	90.19
594.843	79.19
595.053	81.19
595.262	99.19
595.472	90.19
595.681	85.19
595.89	75.19
596.1	60.19
596.309	65.19
596.518	89.19
596.727	65.19
596.937	94.19
597.146	80.19
597.355	82.19
597.564	77.19
597.774	78.19
597.983	90.19
598.192	85.19
598.401	82.19
598.61	70.19
598.819	94.19
599.028	77.19
599.237	81.19
599.446	82.19
599.655	90.19
599.864	93.19
600.073	94.19
600.282	88.19
600.491	78.19
600.7	77.19
600.909	82.19
601.118	94.19
601.327	96.19
601.536	77.19
601.745	88.19
601.953	78.19
602.162	96.19
602.371	82.19
602.58	86.19
602.789	83.19
602.997	99.19
603.206	74.19
603.415	101.19
603.623	78.19
603.832	87.19
604.041	82.19
604.249	80.19
604.458	78.19
604.666	72.19
604.875	83.19
605.084	81.19
605.292	67.19
605.501	85.19
605.709	90.19
605.918	67.19
606.126	84.19
606.334	81.19
606.543	83.19
606.751	103.19
606.96	94.19
607.168	73.19
607.376	91.19
607.585	79.19
607.793	94.19
608.001	70.19
608.21	82.19
608.418	84.19
608.626	88.19
608.834	80.19
609.043	83.19
609.251	74.19
609.459	81.19
609.667	88.19
609.875	86.19
610.083	102.19
610.291	83.19
610.499	58.19
610.707	87.19
610.916	58.19
611.124	74.19
611.332	73.19
611.54	93.19
611.748	92.19
611.955	70.19
612.163	80.19
612.371	91.19
612.579	85.19
612.787	76.19
612.995	82.19
613.203	96.19
613.411	86.19
613.618	83.19
613.826	75.19
614.034	93.19
614.242	79.19
614.449	86.19
614.657	78.19
614.865	73.19
615.072	79.19
615.28	79.19
615.488	81.19
615.695	93.19
615.903	82.19
616.111	76.19
616.318	88.19
616.526	87.19
616.733	78.19
616.941	82.19
617.148	87.19
617.356	84.19
617.563	74.19
617.771	72.19
617.978	82.19
618.185	91.19
618.393	84.19
618.6	85.19
618.807	75.19
619.015	84.19
619.222	84.19
619.429	92.19
619.637	86.19
619.844	76.19
620.051	71.19
620.258	82.19
620.466	90.19
620.673	89.19
620.88	87.19
621.087	94.19
621.294	79.19
621.501	93.19
621.708	75.19
621.915	93.19
622.122	79.19
622.329	71.19
622.536	82.19
622.743	86.19
622.95	90.19
623.157	88.19
623.364	87.19
623.571	94.19
623.778	86.19
623.985	98.19
624.192	90.19
624.399	91.19
624.606	87.19
624.812	83.19
625.019	90.19
625.226	96.19
625.433	81.19
625.639	87.19
625.846	79.19
626.053	79.19
626.259	85.19
626.466	72.19
626.673	87.19
626.879	94.19
627.086	87.19
627.293	88.19
627.499	77.19
627.706	87.19
627.912	81.19
628.119	88.19
628.325	83.19
628.532	68.19
628.738	78.19
628.945	82.19
629.151	85.19
629.357	74.19
629.564	80.19
629.77	93.19
629.976	76.19
630.183	83.19
630.389	78.19
630.595	78.19
630.802	81.19
631.008	89.19
631.214	79.19
631.42	79.19
631.627	88.19
631.833	83.19
632.039	79.19
632.245	81.19
632.451	84.19
632.657	78.19
632.863	92.19
633.069	77.19
633.275	71.19
633.481	103.19
633.688	86.19
633.893	75.19
634.099	78.19
634.305	66.19
634.511	79.19
634.717	81.19
634.923	78.19
635.129	79.19
635.335	97.19
635.541	78.19
635.747	96.19
635.952	91.19
636.158	87.19
636.364	84.19
636.57	109.19
636.775	80.19
636.981	79.19
637.187	88.19
637.392	96.19
637.598	77.19
637.804	85.19
638.009	69.19
638.215	87.19
638.421	80.19
638.626	89.19
638.832	82.19
639.037	82.19
639.243	87.19
639.448	88.19
639.654	90.19
639.859	90.19
640.065	93.19
640.27	82.19
640.475	78.19
640.681	80.19
640.886	81.19
641.091	72.19
641.297	87.19
641.502	89.19
641.707	90.19
641.913	88.19
642.118	78.19
642.323	94.19
642.528	78.19
642.733	85.19
642.939	87.19
643.144	77.19
643.349	78.19
643.554	82.19
643.759	78.19
643.964	71.19
644.169	66.19
644.374	86.19
644.579	87.19
644.784	94.19
644.989	87.19
645.194	77.19
645.399	84.19
645.604	83.19
645.809	85.19
646.014	85.19
646.219	80.19
646.423	74.19
646.628	88.19
646.833	69.19
647.038	89.19
647.243	86.19
647.447	89.19
647.652	83.19
647.857	96.19
648.062	72.19
648.266	94.19
648.471	71.19
648.676	88.19
648.88	88.19
649.085	87.19
649.289	90.19
649.494	107.19
649.698	145.19
649.903	99.19
650.107	73.19
650.312	78.19
650.516	75.19
650.721	81.19
650.925	71.19
651.13	79.19
651.334	82.19
651.539	95.19
651.743	81.19
651.947	86.19
652.152	89.19
652.356	69.19
652.56	87.19
652.764	75.19
652.969	77.19
653.173	83.19
653.377	74.19
653.581	85.19
653.785	77.19
653.99	75.19
654.194	69.19
654.398	83.19
654.602	79.19
654.806	75.19
655.01	100.19
655.214	83.19
655.418	97.19
655.622	67.19
655.826	75.19
656.03	84.19
656.234	77.19
656.438	101.19
656.642	97.19
656.846	93.19
657.049	86.19
657.253	80.19
657.457	72.19
657.661	71.19
657.865	79.19
658.068	74.19
658.272	78.19
658.476	93.19
658.68	77.19
658.883	81.19
659.087	82.19
659.291	76.19
659.494	101.19
659.698	70.19
659.901	85.19
660.105	82.19
660.309	86.19
660.512	99.19
660.716	72.19
660.919	77.19
661.123	85.19
661.326	83.19
661.53	82.19
661.733	85.19
661.936	84.19
662.14	95.19
662.343	67.19
662.546	65.19
662.75	73.19
662.953	76.19
663.156	83.19
663.36	84.19
663.563	81.19
663.766	70.19
663.969	83.19
664.173	83.19
664.376	80.19
664.579	80.19
664.782	81.19
664.985	86.19
665.188	77.19
665.391	84.19
665.594	84.19
665.797	87.19
666	83.19
666.203	73.19
666.406	69.19
666.609	81.19
666.812	83.19
667.015	67.19
667.218	82.19
667.421	84.19
667.624	73.19
667.827	64.19
668.03	69.19
668.232	73.19
668.435	79.19
668.638	85.19
668.841	88.19
669.043	85.19
669.246	86.19
669.449	85.19
669.651	66.19
669.854	96.19
670.057	75.19
670.259	87.19
670.462	88.19
670.665	70.19
670.867	78.19
671.07	76.19
671.272	93.19
671.475	74.19
671.677	77.19
671.88	69.19
672.082	74.19
672.284	79.19
672.487	58.19
672.689	74.19
672.892	84.19
