Data from Uncirc_1992_H10_HRD10591_00045.txt Node
Date: Wed Jan 03 11:46:25 EST 2024
User: Yrep
Spectrometer: HR+D1059
Trigger mode: 1
Integration Time (sec): 1.000000E-1
Scans to average: 1
Electric dark correction enabled: true
Nonlinearity correction enabled: false
Boxcar width: 0
XAxis mode: Wavelengths
Number of Pixels in Spectrum: 2048
>>>>>Begin Spectral Data<<<<<
223.165	-12
223.4	-12
223.635	-12
223.869	-35
224.104	-11
224.338	-8
224.573	-17
224.808	-3
225.042	1
225.277	-7
225.511	-6
225.746	-10
225.98	4
226.215	16
226.449	15
226.683	21
226.918	19
227.152	33
227.387	34
227.621	41
227.856	33
228.09	54
228.324	52
228.559	50
228.793	63
229.027	43
229.262	64
229.496	65
229.73	86
229.964	88
230.199	64
230.433	75
230.667	83
230.901	85
231.136	76
231.37	81
231.604	66
231.838	76
232.072	87
232.306	86
232.541	72
232.775	79
233.009	87
233.243	85
233.477	87
233.711	81
233.945	67
234.179	65
234.413	73
234.647	79
234.881	85
235.115	84
235.349	82
235.583	79
235.817	91
236.051	95
236.285	74
236.519	75
236.753	75
236.987	72
237.221	84
237.455	88
237.689	61
237.922	68
238.156	83
238.39	92
238.624	89
238.858	82
239.091	76
239.325	73
239.559	88
239.793	83
240.027	86
240.26	86
240.494	76
240.728	83
240.961	80
241.195	88
241.429	81
241.662	75
241.896	74
242.13	88
242.363	92
242.597	82
242.83	81
243.064	56
243.298	66
243.531	85
243.765	87
243.998	76
244.232	80
244.465	75
244.699	95
244.932	87
245.166	74
245.399	69
245.633	94
245.866	79
246.099	73
246.333	77
246.566	81
246.8	89
247.033	90
247.266	77
247.5	80
247.733	79
247.966	62
248.2	66
248.433	81
248.666	74
248.899	75
249.133	82
249.366	89
249.599	87
249.832	86
250.066	96
250.299	81
250.532	82
250.765	77
250.998	80
251.231	74
251.465	68
251.698	68
251.931	94
252.164	78
252.397	75
252.63	80
252.863	76
253.096	80
253.329	74
253.562	75
253.795	84
254.028	76
254.261	88
254.494	76
254.727	78
254.96	77
255.193	61
255.426	68
255.659	69
255.892	85
256.124	81
256.357	87
256.59	81
256.823	94
257.056	76
257.289	77
257.521	74
257.754	88
257.987	76
258.22	72
258.452	87
258.685	76
258.918	82
259.151	78
259.383	81
259.616	71
259.849	77
260.081	78
260.314	87
260.547	84
260.779	97
261.012	85
261.244	76
261.477	85
261.71	89
261.942	93
262.175	105
262.407	78
262.64	74
262.872	91
263.105	90
263.337	78
263.57	91
263.802	82
264.035	74
264.267	79
264.499	71
264.732	81
264.964	88
265.197	82
265.429	88
265.661	67
265.894	78
266.126	90
266.358	80
266.591	84
266.823	80
267.055	65
267.287	90
267.52	84
267.752	79
267.984	75
268.216	88
268.448	70
268.681	92
268.913	86
269.145	81
269.377	80
269.609	72
269.841	75
270.073	78
270.306	94
270.538	94
270.77	79
271.002	98
271.234	85
271.466	95
271.698	88
271.93	80
272.162	65
272.394	85
272.626	79
272.858	73
273.09	77
273.322	83
273.553	78
273.785	80
274.017	89
274.249	76
274.481	76
274.713	84
274.945	85
275.176	101
275.408	88
275.64	94
275.872	87
276.104	83
276.335	89
276.567	86
276.799	97
277.031	96
277.262	88
277.494	83
277.726	84
277.957	82
278.189	84
278.421	92
278.652	83
278.884	88
279.115	84
279.347	75
279.579	77
279.81	89
280.042	81
280.273	81
280.505	76
280.736	88
280.968	91
281.199	77
281.431	79
281.662	74
281.894	99
282.125	92
282.356	102
282.588	120
282.819	108
283.051	96
283.282	77
283.513	84
283.745	94
283.976	85
284.207	85
284.439	83
284.67	105
284.901	73
285.132	89
285.364	102
285.595	85
285.826	86
286.057	77
286.288	74
286.52	102
286.751	98
286.982	102
287.213	84
287.444	73
287.675	61
287.906	88
288.138	73
288.369	101
288.6	82
288.831	83
289.062	96
289.293	105
289.524	83
289.755	83
289.986	88
290.217	76
290.448	89
290.679	86
290.91	78
291.141	73
291.371	80
291.602	92
291.833	83
292.064	77
292.295	83
292.526	91
292.757	95
292.987	92
293.218	86
293.449	80
293.68	90
293.91	86
294.141	72
294.372	86
294.603	90
294.833	91
295.064	76
295.295	96
295.525	90
295.756	96
295.987	102
296.217	119
296.448	109
296.679	93
296.909	84
297.14	98
297.37	83
297.601	74
297.831	95
298.062	90
298.292	90
298.523	96
298.753	92
298.984	100
299.214	99
299.445	88
299.675	77
299.905	96
300.136	77
300.366	84
300.597	83
300.827	105
301.057	106
301.288	77
301.518	93
301.748	83
301.979	97
302.209	72
302.439	80
302.669	80
302.9	79
303.13	83
303.36	90
303.59	84
303.82	86
304.051	90
304.281	73
304.511	78
304.741	85
304.971	84
305.201	89
305.431	90
305.661	86
305.891	109
306.121	87
306.352	90
306.582	105
306.812	79
307.042	93
307.272	88
307.502	91
307.731	87
307.961	77
308.191	83
308.421	87
308.651	94
308.881	94
309.111	80
309.341	101
309.571	108
309.8	97
310.03	82
310.26	84
310.49	86
310.72	84
310.949	106
311.179	98
311.409	75
311.639	84
311.868	83
312.098	83
312.328	95
312.557	94
312.787	104
313.017	85
313.246	94
313.476	83
313.706	98
313.935	96
314.165	76
314.394	99
314.624	82
314.853	84
315.083	98
315.312	92
315.542	100
315.771	90
316.001	91
316.23	76
316.46	82
316.689	80
316.919	90
317.148	96
317.377	90
317.607	76
317.836	91
318.065	99
318.295	86
318.524	99
318.753	87
318.983	91
319.212	108
319.441	100
319.67	96
319.9	89
320.129	93
320.358	99
320.587	93
320.816	88
321.046	104
321.275	101
321.504	104
321.733	97
321.962	86
322.191	84
322.42	95
322.649	99
322.878	103
323.108	106
323.337	96
323.566	108
323.795	142
324.024	160
324.253	328
324.482	667
324.71	1261
324.939	1746
325.168	660
325.397	210
325.626	133
325.855	103
326.084	113
326.313	116
326.542	124
326.77	191
326.999	381
327.228	736
327.457	1308
327.686	1038
327.914	300
328.143	164
328.372	136
328.6	116
328.829	116
329.058	108
329.287	113
329.515	100
329.744	106
329.972	83
330.201	84
330.43	101
330.658	107
330.887	117
331.115	101
331.344	89
331.572	97
331.801	93
332.03	96
332.258	97
332.486	89
332.715	92
332.943	99
333.172	87
333.4	88
333.629	105
333.857	110
334.085	102
334.314	87
334.542	91
334.771	83
334.999	90
335.227	88
335.455	85
335.684	92
335.912	94
336.14	105
336.369	86
336.597	94
336.825	95
337.053	102
337.281	102
337.51	93
337.738	82
337.966	86
338.194	101
338.422	98
338.65	89
338.878	88
339.106	81
339.334	88
339.562	68
339.79	85
340.018	96
340.246	84
340.474	91
340.702	83
340.93	96
341.158	91
341.386	92
341.614	90
341.842	102
342.07	80
342.298	84
342.526	89
342.754	82
342.981	86
343.209	73
343.437	96
343.665	84
343.893	90
344.12	82
344.348	90
344.576	92
344.804	84
345.031	83
345.259	96
345.487	83
345.714	82
345.942	74
346.17	99
346.397	102
346.625	86
346.853	95
347.08	90
347.308	93
347.535	86
347.763	102
347.99	98
348.218	90
348.445	93
348.673	97
348.9	95
349.128	92
349.355	100
349.583	82
349.81	88
350.037	101
350.265	96
350.492	91
350.72	85
350.947	114
351.174	117
351.402	109
351.629	109
351.856	91
352.083	89
352.311	104
352.538	116
352.765	103
352.992	120
353.22	115
353.447	104
353.674	112
353.901	98
354.128	115
354.355	96
354.583	101
354.81	98
355.037	96
355.264	87
355.491	90
355.718	92
355.945	90
356.172	96
356.399	110
356.626	92
356.853	104
357.08	103
357.307	98
357.534	96
357.761	95
357.988	95
358.215	83
358.441	90
358.668	98
358.895	95
359.122	84
359.349	75
359.576	103
359.802	84
360.029	102
360.256	101
360.483	91
360.709	88
360.936	86
361.163	96
361.39	92
361.616	80
361.843	84
362.07	88
362.296	103
362.523	97
362.749	84
362.976	85
363.203	93
363.429	90
363.656	83
363.882	101
364.109	94
364.335	93
364.562	93
364.788	86
365.015	97
365.241	93
365.468	97
365.694	97
365.92	90
366.147	96
366.373	97
366.599	84
366.826	86
367.052	85
367.278	74
367.505	94
367.731	78
367.957	90
368.184	77
368.41	87
368.636	107
368.862	109
369.089	119
369.315	88
369.541	94
369.767	93
369.993	88
370.219	92
370.445	88
370.672	85
370.898	79
371.124	73
371.35	93
371.576	104
371.802	92
372.028	104
372.254	98
372.48	93
372.706	93
372.932	91
373.158	88
373.384	87
373.61	94
373.835	94
374.061	86
374.287	88
374.513	92
374.739	86
374.965	82
375.191	70
375.416	86
375.642	87
375.868	90
376.094	84
376.319	74
376.545	99
376.771	79
376.997	96
377.222	75
377.448	91
377.674	94
377.899	72
378.125	76
378.35	90
378.576	94
378.802	77
379.027	88
379.253	99
379.478	96
379.704	97
379.929	73
380.155	92
380.38	87
380.606	86
380.831	76
381.057	84
381.282	83
381.507	90
381.733	90
381.958	80
382.184	98
382.409	95
382.634	95
382.86	89
383.085	101
383.31	94
383.535	100
383.761	91
383.986	82
384.211	90
384.436	85
384.662	89
384.887	101
385.112	89
385.337	95
385.562	89
385.787	99
386.013	102
386.238	96
386.463	105
386.688	99
386.913	99
387.138	95
387.363	107
387.588	94
387.813	103
388.038	104
388.263	94
388.488	107
388.713	91
388.938	99
389.163	92
389.387	97
389.612	90
389.837	93
390.062	88
390.287	90
390.512	98
390.736	90
390.961	100
391.186	83
391.411	89
391.636	76
391.86	90
392.085	89
392.31	101
392.534	80
392.759	75
392.984	92
393.208	89
393.433	109
393.658	83
393.882	67
394.107	91
394.331	101
394.556	74
394.78	82
395.005	94
395.229	94
395.454	91
395.678	81
395.903	73
396.127	81
396.352	78
396.576	77
396.801	85
397.025	91
397.249	78
397.474	99
397.698	74
397.922	100
398.147	97
398.371	81
398.595	83
398.82	94
399.044	101
399.268	77
399.492	83
399.717	82
399.941	86
400.165	98
400.389	102
400.613	81
400.837	80
401.062	83
401.286	83
401.51	93
401.734	88
401.958	70
402.182	116
402.406	131
402.63	110
402.854	96
403.078	85
403.302	84
403.526	102
403.75	91
403.974	84
404.198	83
404.422	81
404.645	82
404.869	84
405.093	78
405.317	77
405.541	81
405.765	94
405.988	109
406.212	152
406.436	178
406.66	114
406.883	92
407.107	80
407.331	90
407.555	108
407.778	98
408.002	84
408.226	90
408.449	88
408.673	92
408.896	97
409.12	95
409.344	92
409.567	87
409.791	77
410.014	108
410.238	106
410.461	102
410.685	97
410.908	95
411.132	100
411.355	97
411.578	101
411.802	76
412.025	85
412.249	88
412.472	82
412.695	90
412.919	86
413.142	79
413.365	70
413.589	92
413.812	100
414.035	92
414.258	81
414.482	79
414.705	88
414.928	88
415.151	73
415.374	87
415.597	85
415.821	76
416.044	93
416.267	83
416.49	110
416.713	90
416.936	77
417.159	91
417.382	90
417.605	91
417.828	84
418.051	92
418.274	80
418.497	96
418.72	77
418.943	73
419.166	96
419.389	76
419.611	78
419.834	79
420.057	85
420.28	77
420.503	84
420.726	95
420.948	87
421.171	89
421.394	81
421.617	79
421.839	98
422.062	80
422.285	98
422.507	111
422.73	96
422.953	92
423.175	83
423.398	74
423.621	94
423.843	93
424.066	67
424.288	86
424.511	80
424.733	90
424.956	81
425.178	88
425.401	96
425.623	111
425.846	94
426.068	81
426.291	83
426.513	90
426.735	85
426.958	89
427.18	90
427.402	115
427.625	126
427.847	124
428.069	100
428.292	102
428.514	85
428.736	89
428.958	81
429.181	85
429.403	73
429.625	68
429.847	81
430.069	82
430.292	89
430.514	89
430.736	85
430.958	86
431.18	80
431.402	94
431.624	94
431.846	87
432.068	87
432.29	80
432.512	80
432.734	85
432.956	85
433.178	98
433.4	92
433.622	88
433.844	85
434.066	86
434.287	81
434.509	93
434.731	78
434.953	84
435.175	81
435.397	73
435.618	91
435.84	100
436.062	111
436.284	88
436.505	90
436.727	102
436.949	91
437.17	81
437.392	87
437.614	88
437.835	97
438.057	114
438.278	97
438.5	101
438.721	110
438.943	100
439.165	84
439.386	93
439.608	90
439.829	90
440.05	110
440.272	116
440.493	100
440.715	96
440.936	74
441.158	94
441.379	97
441.6	82
441.822	81
442.043	79
442.264	99
442.486	104
442.707	98
442.928	90
443.149	124
443.371	109
443.592	101
443.813	98
444.034	93
444.255	80
444.476	75
444.698	77
444.919	88
445.14	126
445.361	122
445.582	117
445.803	121
446.024	133
446.245	119
446.466	107
446.687	89
446.908	91
447.129	104
447.35	101
447.571	85
447.792	84
448.013	92
448.234	93
448.455	88
448.675	104
448.896	95
449.117	93
449.338	88
449.559	110
449.779	113
450	86
450.221	91
450.442	76
450.662	97
450.883	104
451.104	100
451.324	93
451.545	83
451.766	74
451.986	93
452.207	88
452.428	84
452.648	97
452.869	109
453.089	100
453.31	100
453.53	91
453.751	74
453.971	84
454.192	97
454.412	89
454.633	75
454.853	82
455.073	95
455.294	98
455.514	99
455.734	86
455.955	80
456.175	90
456.395	80
456.616	95
456.836	97
457.056	80
457.276	80
457.497	80
457.717	70
457.937	94
458.157	96
458.377	89
458.598	109
458.818	129
459.038	141
459.258	108
459.478	85
459.698	80
459.918	88
460.138	75
460.358	94
460.578	86
460.798	91
461.018	100
461.238	86
461.458	85
461.678	85
461.898	76
462.118	102
462.338	82
462.558	101
462.777	91
462.997	78
463.217	86
463.437	76
463.657	91
463.876	79
464.096	85
464.316	77
464.536	99
464.755	87
464.975	105
465.195	137
465.414	131
465.634	96
465.854	84
466.073	99
466.293	85
466.512	98
466.732	84
466.951	92
467.171	90
467.391	90
467.61	96
467.829	103
468.049	82
468.268	88
468.488	99
468.707	94
468.927	84
469.146	77
469.365	100
469.585	86
469.804	92
470.023	92
470.243	105
470.462	93
470.681	99
470.901	93
471.12	70
471.339	79
471.558	90
471.777	83
471.997	79
472.216	93
472.435	70
472.654	84
472.873	83
473.092	91
473.311	86
473.53	92
473.749	85
473.968	93
474.187	106
474.406	90
474.625	92
474.844	92
475.063	80
475.282	99
475.501	90
475.72	92
475.939	88
476.158	83
476.377	90
476.596	92
476.814	88
477.033	89
477.252	85
477.471	93
477.69	81
477.908	91
478.127	98
478.346	87
478.564	82
478.783	87
479.002	98
479.22	64
479.439	84
479.658	84
479.876	96
480.095	93
480.313	92
480.532	87
480.751	87
480.969	89
481.188	85
481.406	95
481.624	94
481.843	72
482.061	65
482.28	90
482.498	81
482.717	93
482.935	81
483.153	89
483.372	86
483.59	86
483.808	97
484.027	94
484.245	84
484.463	88
484.681	87
484.9	95
485.118	101
485.336	85
485.554	108
485.772	103
485.99	84
486.209	94
486.427	90
486.645	73
486.863	108
487.081	94
487.299	102
487.517	97
487.735	85
487.953	85
488.171	78
488.389	82
488.607	86
488.825	99
489.043	80
489.261	81
489.479	89
489.696	82
489.914	83
490.132	81
490.35	102
490.568	78
490.786	95
491.003	90
491.221	67
491.439	97
491.657	104
491.874	86
492.092	89
492.31	82
492.527	87
492.745	99
492.963	96
493.18	76
493.398	88
493.615	107
493.833	93
494.05	93
494.268	90
494.485	72
494.703	70
494.92	99
495.138	84
495.355	92
495.573	91
495.79	85
496.008	84
496.225	97
496.442	80
496.66	90
496.877	97
497.094	97
497.312	89
497.529	93
497.746	98
497.963	75
498.181	86
498.398	80
498.615	99
498.832	102
499.049	86
499.267	83
499.484	88
499.701	96
499.918	93
500.135	84
500.352	102
500.569	93
500.786	81
501.003	93
501.22	76
501.437	87
501.654	99
501.871	90
502.088	91
502.305	92
502.522	95
502.739	84
502.956	89
503.172	87
503.389	98
503.606	89
503.823	82
504.04	105
504.256	91
504.473	91
504.69	92
504.907	86
505.123	89
505.34	79
505.557	77
505.773	90
505.99	74
506.207	77
506.423	83
506.64	81
506.856	100
507.073	90
507.289	117
507.506	99
507.722	119
507.939	100
508.155	84
508.372	100
508.588	84
508.805	98
509.021	99
509.238	95
509.454	97
509.67	83
509.887	102
510.103	112
510.319	193
510.536	690
510.752	2004
510.968	548
511.184	132
511.401	98
511.617	98
511.833	81
512.049	97
512.265	95
512.481	97
512.698	92
512.914	69
513.13	90
513.346	109
513.562	91
513.778	101
513.994	95
514.21	88
514.426	121
514.642	124
514.858	99
515.074	132
515.29	375
515.506	1187
515.721	436
515.937	129
516.153	97
516.369	94
516.585	85
516.801	85
517.016	92
517.232	91
517.448	105
517.664	97
517.879	98
518.095	82
518.311	96
518.527	97
518.742	96
518.958	76
519.173	101
519.389	85
519.605	97
519.82	81
520.036	111
520.251	111
520.467	112
520.682	99
520.898	109
521.113	101
521.329	132
521.544	188
521.76	497
521.975	1952
522.19	1180
522.406	255
522.621	119
522.836	90
523.052	83
523.267	81
523.482	94
523.698	86
523.913	110
524.128	90
524.343	94
524.559	101
524.774	93
524.989	103
525.204	104
525.419	94
525.634	88
525.849	97
526.064	85
526.28	86
526.495	82
526.71	70
526.925	81
527.14	85
527.355	69
527.57	88
527.785	97
527.999	102
528.214	91
528.429	93
528.644	90
528.859	92
529.074	78
529.289	103
529.503	162
529.718	118
529.933	97
530.148	86
530.363	99
530.577	88
530.792	78
531.007	84
531.221	88
531.436	83
531.651	93
531.865	98
532.08	88
532.295	89
532.509	80
532.724	94
532.938	102
533.153	102
533.367	91
533.582	85
533.796	86
534.011	90
534.225	93
534.44	99
534.654	103
534.868	85
535.083	85
535.297	106
535.511	116
535.726	90
535.94	89
536.154	83
536.369	91
536.583	74
536.797	96
537.011	97
537.225	85
537.44	80
537.654	93
537.868	92
538.082	101
538.296	80
538.51	95
538.724	98
538.938	84
539.153	88
539.367	103
539.581	92
539.795	91
540.009	90
540.222	88
540.436	78
540.65	89
540.864	84
541.078	84
541.292	93
541.506	87
541.72	84
541.934	88
542.147	98
542.361	78
542.575	84
542.789	72
543.002	72
543.216	86
543.43	88
543.644	73
543.857	95
544.071	92
544.285	100
544.498	104
544.712	87
544.925	78
545.139	84
545.352	84
545.566	85
545.779	88
545.993	85
546.206	94
546.42	85
546.633	98
546.847	101
547.06	81
547.274	96
547.487	90
547.7	83
547.914	82
548.127	87
548.34	82
548.554	79
548.767	80
548.98	95
549.193	81
549.407	88
549.62	81
549.833	90
550.046	72
550.259	80
550.473	88
550.686	82
550.899	82
551.112	84
551.325	93
551.538	82
551.751	89
551.964	82
552.177	75
552.39	96
552.603	94
552.816	89
553.029	81
553.242	88
553.455	87
553.667	101
553.88	89
554.093	84
554.306	85
554.519	85
554.732	81
554.944	93
555.157	68
555.37	78
555.583	72
555.795	91
556.008	85
556.221	95
556.433	99
556.646	88
556.859	80
557.071	83
557.284	89
557.496	88
557.709	88
557.921	93
558.134	89
558.346	90
558.559	78
558.771	92
558.984	90
559.196	92
559.409	92
559.621	94
559.833	77
560.046	84
560.258	92
560.47	91
560.683	100
560.895	85
561.107	81
561.32	86
561.532	84
561.744	97
561.956	92
562.168	96
562.381	78
562.593	91
562.805	81
563.017	86
563.229	88
563.441	89
563.653	90
563.865	89
564.077	87
564.289	93
564.501	93
564.713	86
564.925	90
565.137	95
565.349	96
565.561	91
565.773	83
565.985	91
566.197	96
566.408	83
566.62	88
566.832	101
567.044	84
567.255	95
567.467	82
567.679	84
567.891	77
568.102	78
568.314	81
568.526	84
568.737	90
568.949	92
569.161	88
569.372	91
569.584	86
569.795	94
570.007	117
570.218	228
570.43	131
570.641	86
570.853	80
571.064	91
571.276	97
571.487	84
571.698	88
571.91	91
572.121	82
572.333	92
572.544	92
572.755	97
572.966	92
573.178	89
573.389	78
573.6	89
573.811	74
574.023	94
574.234	97
574.445	87
574.656	86
574.867	83
575.078	89
575.289	76
575.501	67
575.712	79
575.923	95
576.134	82
576.345	92
576.556	95
576.767	85
576.978	89
577.188	95
577.399	88
577.61	89
577.821	86
578.032	114
578.243	271
578.454	668
578.665	196
578.875	102
579.086	81
579.297	80
579.508	69
579.718	70
579.929	81
580.14	92
580.35	85
580.561	99
580.772	66
580.982	82
581.193	86
581.403	77
581.614	91
581.825	88
582.035	96
582.246	94
582.456	85
582.667	78
582.877	80
583.087	101
583.298	92
583.508	88
583.719	94
583.929	91
584.139	78
584.35	82
584.56	91
584.77	86
584.981	75
585.191	92
585.401	96
585.611	100
585.821	78
586.032	90
586.242	80
586.452	90
586.662	93
586.872	85
587.082	88
587.292	89
587.502	67
587.713	97
587.923	96
588.133	80
588.343	81
588.553	82
588.762	90
588.972	96
589.182	90
589.392	91
589.602	83
589.812	83
590.022	79
590.232	93
590.441	93
590.651	74
590.861	69
591.071	80
591.281	88
591.49	86
591.7	84
591.91	105
592.119	87
592.329	86
592.539	102
592.748	86
592.958	78
593.167	90
593.377	86
593.587	96
593.796	89
594.006	72
594.215	91
594.424	93
594.634	94
594.843	91
595.053	91
595.262	92
595.472	86
595.681	92
595.89	82
596.1	82
596.309	92
596.518	89
596.727	90
596.937	83
597.146	77
597.355	76
597.564	73
597.774	80
597.983	85
598.192	80
598.401	86
598.61	88
598.819	73
599.028	86
599.237	88
599.446	80
599.655	79
599.864	83
600.073	84
600.282	96
600.491	77
600.7	79
600.909	95
601.118	101
601.327	90
601.536	92
601.745	99
601.953	90
602.162	82
602.371	89
602.58	96
602.789	82
602.997	88
603.206	80
603.415	80
603.623	79
603.832	81
604.041	83
604.249	83
604.458	86
604.666	98
604.875	86
605.084	78
605.292	83
605.501	78
605.709	85
605.918	80
606.126	88
606.334	85
606.543	63
606.751	94
606.96	87
607.168	100
607.376	69
607.585	82
607.793	81
608.001	88
608.21	81
608.418	101
608.626	77
608.834	83
609.043	81
609.251	77
609.459	84
609.667	89
609.875	74
610.083	80
610.291	72
610.499	84
610.707	86
610.916	87
611.124	80
611.332	94
611.54	70
611.748	77
611.955	89
612.163	95
612.371	70
612.579	69
612.787	90
612.995	83
613.203	78
613.411	102
613.618	96
613.826	94
614.034	86
614.242	88
614.449	88
614.657	87
614.865	76
615.072	80
615.28	96
615.488	87
615.695	99
615.903	82
616.111	99
616.318	94
616.526	102
616.733	102
616.941	84
617.148	75
617.356	74
617.563	94
617.771	89
617.978	82
618.185	74
618.393	90
618.6	93
618.807	84
619.015	77
619.222	85
619.429	84
619.637	91
619.844	77
620.051	85
620.258	84
620.466	95
620.673	96
620.88	83
621.087	91
621.294	89
621.501	89
621.708	86
621.915	102
622.122	94
622.329	78
622.536	90
622.743	94
622.95	77
623.157	77
623.364	84
623.571	82
623.778	98
623.985	85
624.192	85
624.399	79
624.606	76
624.812	91
625.019	93
625.226	75
625.433	85
625.639	77
625.846	86
626.053	89
626.259	83
626.466	78
626.673	62
626.879	81
627.086	76
627.293	95
627.499	87
627.706	97
627.912	80
628.119	79
628.325	92
628.532	83
628.738	80
628.945	91
629.151	79
629.357	87
629.564	77
629.77	83
629.976	89
630.183	84
630.389	86
630.595	80
630.802	85
631.008	78
631.214	89
631.42	79
631.627	107
631.833	93
632.039	80
632.245	88
632.451	86
632.657	99
632.863	68
633.069	89
633.275	76
633.481	91
633.688	86
633.893	85
634.099	93
634.305	79
634.511	86
634.717	89
634.923	81
635.129	80
635.335	81
635.541	74
635.747	69
635.952	80
636.158	83
636.364	82
636.57	77
636.775	78
636.981	91
637.187	74
637.392	89
637.598	68
637.804	78
638.009	84
638.215	82
638.421	96
638.626	74
638.832	84
639.037	93
639.243	80
639.448	99
639.654	77
639.859	80
640.065	74
640.27	90
640.475	85
640.681	97
640.886	83
641.091	85
641.297	83
641.502	85
641.707	78
641.913	83
642.118	76
642.323	80
642.528	78
642.733	97
642.939	93
643.144	83
643.349	70
643.554	81
643.759	85
643.964	85
644.169	94
644.374	80
644.579	84
644.784	95
644.989	82
645.194	76
645.399	77
645.604	93
645.809	88
646.014	89
646.219	78
646.423	84
646.628	92
646.833	81
647.038	86
647.243	78
647.447	84
647.652	87
647.857	95
648.062	79
648.266	77
648.471	87
648.676	96
648.88	86
649.085	100
649.289	89
649.494	86
649.698	120
649.903	87
650.107	94
650.312	102
650.516	92
650.721	78
650.925	82
651.13	78
651.334	74
651.539	81
651.743	73
651.947	85
652.152	84
652.356	84
652.56	79
652.764	79
652.969	82
653.173	81
653.377	86
653.581	85
653.785	70
653.99	70
654.194	74
654.398	83
654.602	93
654.806	79
655.01	100
655.214	79
655.418	74
655.622	94
655.826	98
656.03	83
656.234	85
656.438	100
656.642	86
656.846	83
657.049	81
657.253	85
657.457	78
657.661	78
657.865	82
658.068	85
658.272	80
658.476	89
658.68	84
658.883	88
659.087	64
659.291	88
659.494	63
659.698	77
659.901	81
660.105	76
660.309	76
660.512	94
660.716	89
660.919	83
661.123	77
661.326	89
661.53	70
661.733	68
661.936	86
662.14	73
662.343	76
662.546	83
662.75	74
662.953	59
663.156	74
663.36	80
663.563	89
663.766	94
663.969	70
664.173	76
664.376	82
664.579	81
664.782	93
664.985	88
665.188	76
665.391	76
665.594	98
665.797	83
666	66
666.203	88
666.406	77
666.609	82
666.812	83
667.015	73
667.218	79
667.421	84
667.624	87
667.827	83
668.03	73
668.232	74
668.435	111
668.638	84
668.841	84
669.043	71
669.246	70
669.449	80
669.651	79
669.854	75
670.057	77
670.259	90
670.462	76
670.665	94
670.867	78
671.07	79
671.272	81
671.475	81
671.677	84
671.88	82
672.082	90
672.284	78
672.487	86
672.689	81
672.892	80
