Data from Uncirc_1992_H10_HRD10591_00098.txt Node
Date: Wed Jan 03 11:46:35 EST 2024
User: Yrep
Spectrometer: HR+D1059
Trigger mode: 1
Integration Time (sec): 1.000000E-1
Scans to average: 1
Electric dark correction enabled: true
Nonlinearity correction enabled: false
Boxcar width: 0
XAxis mode: Wavelengths
Number of Pixels in Spectrum: 2048
>>>>>Begin Spectral Data<<<<<
223.165	-12.44
223.4	-12.44
223.635	-12.44
223.869	-18.44
224.104	-28.44
224.338	-19.44
224.573	-15.44
224.808	-18.44
225.042	-14.44
225.277	-5.44
225.511	-0.44
225.746	13.56
225.98	0.56
226.215	-2.44
226.449	30.56
226.683	18.56
226.918	26.56
227.152	45.56
227.387	39.56
227.621	49.56
227.856	45.56
228.09	40.56
228.324	54.56
228.559	56.56
228.793	53.56
229.027	55.56
229.262	56.56
229.496	66.56
229.73	72.56
229.964	85.56
230.199	80.56
230.433	86.56
230.667	71.56
230.901	91.56
231.136	91.56
231.37	70.56
231.604	80.56
231.838	93.56
232.072	93.56
232.306	91.56
232.541	84.56
232.775	86.56
233.009	74.56
233.243	79.56
233.477	83.56
233.711	92.56
233.945	84.56
234.179	87.56
234.413	76.56
234.647	79.56
234.881	76.56
235.115	78.56
235.349	77.56
235.583	86.56
235.817	75.56
236.051	90.56
236.285	86.56
236.519	82.56
236.753	90.56
236.987	89.56
237.221	99.56
237.455	95.56
237.689	83.56
237.922	81.56
238.156	70.56
238.39	78.56
238.624	68.56
238.858	90.56
239.091	70.56
239.325	94.56
239.559	76.56
239.793	74.56
240.027	59.56
240.26	95.56
240.494	84.56
240.728	77.56
240.961	71.56
241.195	91.56
241.429	74.56
241.662	87.56
241.896	81.56
242.13	92.56
242.363	84.56
242.597	80.56
242.83	75.56
243.064	82.56
243.298	84.56
243.531	74.56
243.765	80.56
243.998	79.56
244.232	74.56
244.465	84.56
244.699	84.56
244.932	68.56
245.166	78.56
245.399	70.56
245.633	76.56
245.866	93.56
246.099	71.56
246.333	80.56
246.566	87.56
246.8	84.56
247.033	80.56
247.266	83.56
247.5	82.56
247.733	84.56
247.966	64.56
248.2	86.56
248.433	71.56
248.666	89.56
248.899	70.56
249.133	88.56
249.366	84.56
249.599	94.56
249.832	88.56
250.066	79.56
250.299	90.56
250.532	74.56
250.765	86.56
250.998	85.56
251.231	79.56
251.465	74.56
251.698	78.56
251.931	81.56
252.164	68.56
252.397	76.56
252.63	81.56
252.863	86.56
253.096	91.56
253.329	63.56
253.562	83.56
253.795	80.56
254.028	82.56
254.261	100.56
254.494	66.56
254.727	84.56
254.96	97.56
255.193	84.56
255.426	85.56
255.659	75.56
255.892	84.56
256.124	83.56
256.357	90.56
256.59	90.56
256.823	93.56
257.056	83.56
257.289	94.56
257.521	67.56
257.754	82.56
257.987	85.56
258.22	80.56
258.452	83.56
258.685	82.56
258.918	97.56
259.151	80.56
259.383	89.56
259.616	90.56
259.849	75.56
260.081	78.56
260.314	66.56
260.547	88.56
260.779	94.56
261.012	103.56
261.244	105.56
261.477	87.56
261.71	98.56
261.942	96.56
262.175	122.56
262.407	103.56
262.64	74.56
262.872	92.56
263.105	94.56
263.337	71.56
263.57	76.56
263.802	71.56
264.035	84.56
264.267	77.56
264.499	87.56
264.732	84.56
264.964	81.56
265.197	86.56
265.429	77.56
265.661	92.56
265.894	76.56
266.126	74.56
266.358	77.56
266.591	83.56
266.823	97.56
267.055	84.56
267.287	75.56
267.52	72.56
267.752	88.56
267.984	106.56
268.216	83.56
268.448	91.56
268.681	72.56
268.913	86.56
269.145	90.56
269.377	90.56
269.609	88.56
269.841	83.56
270.073	105.56
270.306	72.56
270.538	74.56
270.77	84.56
271.002	86.56
271.234	82.56
271.466	77.56
271.698	82.56
271.93	80.56
272.162	76.56
272.394	91.56
272.626	94.56
272.858	93.56
273.09	89.56
273.322	80.56
273.553	95.56
273.785	96.56
274.017	83.56
274.249	81.56
274.481	103.56
274.713	94.56
274.945	89.56
275.176	81.56
275.408	87.56
275.64	93.56
275.872	85.56
276.104	92.56
276.335	88.56
276.567	92.56
276.799	106.56
277.031	109.56
277.262	91.56
277.494	93.56
277.726	94.56
277.957	90.56
278.189	81.56
278.421	85.56
278.652	76.56
278.884	101.56
279.115	74.56
279.347	91.56
279.579	72.56
279.81	74.56
280.042	97.56
280.273	79.56
280.505	95.56
280.736	88.56
280.968	82.56
281.199	86.56
281.431	85.56
281.662	72.56
281.894	86.56
282.125	108.56
282.356	116.56
282.588	154.56
282.819	112.56
283.051	89.56
283.282	99.56
283.513	93.56
283.745	74.56
283.976	94.56
284.207	82.56
284.439	90.56
284.67	93.56
284.901	94.56
285.132	85.56
285.364	94.56
285.595	95.56
285.826	87.56
286.057	88.56
286.288	92.56
286.52	90.56
286.751	77.56
286.982	87.56
287.213	85.56
287.444	88.56
287.675	110.56
287.906	101.56
288.138	86.56
288.369	100.56
288.6	93.56
288.831	80.56
289.062	105.56
289.293	83.56
289.524	78.56
289.755	96.56
289.986	85.56
290.217	88.56
290.448	96.56
290.679	75.56
290.91	88.56
291.141	97.56
291.371	78.56
291.602	100.56
291.833	90.56
292.064	81.56
292.295	101.56
292.526	96.56
292.757	96.56
292.987	78.56
293.218	94.56
293.449	81.56
293.68	97.56
293.91	91.56
294.141	91.56
294.372	82.56
294.603	103.56
294.833	85.56
295.064	91.56
295.295	92.56
295.525	93.56
295.756	118.56
295.987	123.56
296.217	140.56
296.448	119.56
296.679	77.56
296.909	87.56
297.14	84.56
297.37	107.56
297.601	89.56
297.831	85.56
298.062	92.56
298.292	85.56
298.523	96.56
298.753	99.56
298.984	99.56
299.214	88.56
299.445	102.56
299.675	92.56
299.905	94.56
300.136	96.56
300.366	101.56
300.597	103.56
300.827	98.56
301.057	95.56
301.288	115.56
301.518	110.56
301.748	88.56
301.979	105.56
302.209	87.56
302.439	98.56
302.669	78.56
302.9	92.56
303.13	103.56
303.36	86.56
303.59	95.56
303.82	89.56
304.051	96.56
304.281	90.56
304.511	80.56
304.741	86.56
304.971	94.56
305.201	90.56
305.431	88.56
305.661	86.56
305.891	99.56
306.121	82.56
306.352	97.56
306.582	98.56
306.812	93.56
307.042	98.56
307.272	102.56
307.502	92.56
307.731	104.56
307.961	107.56
308.191	74.56
308.421	97.56
308.651	78.56
308.881	92.56
309.111	94.56
309.341	101.56
309.571	97.56
309.8	96.56
310.03	91.56
310.26	80.56
310.49	97.56
310.72	102.56
310.949	96.56
311.179	106.56
311.409	107.56
311.639	94.56
311.868	90.56
312.098	99.56
312.328	84.56
312.557	86.56
312.787	103.56
313.017	98.56
313.246	100.56
313.476	87.56
313.706	103.56
313.935	102.56
314.165	96.56
314.394	85.56
314.624	87.56
314.853	108.56
315.083	104.56
315.312	96.56
315.542	94.56
315.771	108.56
316.001	85.56
316.23	90.56
316.46	100.56
316.689	84.56
316.919	95.56
317.148	96.56
317.377	93.56
317.607	103.56
317.836	92.56
318.065	87.56
318.295	106.56
318.524	107.56
318.753	95.56
318.983	90.56
319.212	108.56
319.441	106.56
319.67	109.56
319.9	92.56
320.129	95.56
320.358	100.56
320.587	97.56
320.816	105.56
321.046	110.56
321.275	88.56
321.504	93.56
321.733	92.56
321.962	92.56
322.191	99.56
322.42	112.56
322.649	106.56
322.878	115.56
323.108	107.56
323.337	115.56
323.566	135.56
323.795	146.56
324.024	180.56
324.253	355.56
324.482	757.56
324.71	1540.56
324.939	1989.56
325.168	762.56
325.397	234.56
325.626	146.56
325.855	117.56
326.084	116.56
326.313	125.56
326.542	166.56
326.77	212.56
326.999	431.56
327.228	856.56
327.457	1539.56
327.686	1211.56
327.914	337.56
328.143	186.56
328.372	142.56
328.6	123.56
328.829	99.56
329.058	130.56
329.287	109.56
329.515	101.56
329.744	104.56
329.972	110.56
330.201	94.56
330.43	114.56
330.658	133.56
330.887	133.56
331.115	115.56
331.344	109.56
331.572	103.56
331.801	103.56
332.03	103.56
332.258	90.56
332.486	88.56
332.715	81.56
332.943	91.56
333.172	91.56
333.4	91.56
333.629	117.56
333.857	124.56
334.085	98.56
334.314	94.56
334.542	108.56
334.771	105.56
334.999	108.56
335.227	106.56
335.455	92.56
335.684	106.56
335.912	100.56
336.14	101.56
336.369	93.56
336.597	101.56
336.825	82.56
337.053	88.56
337.281	92.56
337.51	95.56
337.738	96.56
337.966	101.56
338.194	101.56
338.422	96.56
338.65	87.56
338.878	99.56
339.106	86.56
339.334	92.56
339.562	98.56
339.79	97.56
340.018	94.56
340.246	99.56
340.474	77.56
340.702	82.56
340.93	93.56
341.158	93.56
341.386	109.56
341.614	98.56
341.842	108.56
342.07	94.56
342.298	87.56
342.526	96.56
342.754	91.56
342.981	92.56
343.209	86.56
343.437	101.56
343.665	98.56
343.893	82.56
344.12	94.56
344.348	99.56
344.576	104.56
344.804	94.56
345.031	92.56
345.259	87.56
345.487	91.56
345.714	92.56
345.942	101.56
346.17	98.56
346.397	97.56
346.625	82.56
346.853	80.56
347.08	87.56
347.308	99.56
347.535	104.56
347.763	98.56
347.99	97.56
348.218	92.56
348.445	115.56
348.673	104.56
348.9	99.56
349.128	92.56
349.355	102.56
349.583	85.56
349.81	102.56
350.037	94.56
350.265	97.56
350.492	94.56
350.72	92.56
350.947	99.56
351.174	103.56
351.402	108.56
351.629	102.56
351.856	95.56
352.083	106.56
352.311	114.56
352.538	102.56
352.765	110.56
352.992	109.56
353.22	123.56
353.447	93.56
353.674	98.56
353.901	97.56
354.128	99.56
354.355	102.56
354.583	93.56
354.81	104.56
355.037	96.56
355.264	99.56
355.491	97.56
355.718	103.56
355.945	95.56
356.172	91.56
356.399	92.56
356.626	102.56
356.853	104.56
357.08	90.56
357.307	96.56
357.534	105.56
357.761	91.56
357.988	98.56
358.215	96.56
358.441	94.56
358.668	81.56
358.895	76.56
359.122	91.56
359.349	98.56
359.576	93.56
359.802	106.56
360.029	117.56
360.256	111.56
360.483	96.56
360.709	86.56
360.936	92.56
361.163	95.56
361.39	108.56
361.616	115.56
361.843	94.56
362.07	91.56
362.296	100.56
362.523	93.56
362.749	84.56
362.976	108.56
363.203	80.56
363.429	95.56
363.656	99.56
363.882	100.56
364.109	93.56
364.335	101.56
364.562	86.56
364.788	96.56
365.015	79.56
365.241	96.56
365.468	96.56
365.694	106.56
365.92	92.56
366.147	111.56
366.373	87.56
366.599	104.56
366.826	91.56
367.052	93.56
367.278	85.56
367.505	84.56
367.731	102.56
367.957	92.56
368.184	84.56
368.41	118.56
368.636	107.56
368.862	120.56
369.089	112.56
369.315	95.56
369.541	99.56
369.767	103.56
369.993	93.56
370.219	103.56
370.445	84.56
370.672	80.56
370.898	92.56
371.124	87.56
371.35	76.56
371.576	83.56
371.802	95.56
372.028	86.56
372.254	92.56
372.48	104.56
372.706	80.56
372.932	88.56
373.158	87.56
373.384	92.56
373.61	91.56
373.835	106.56
374.061	92.56
374.287	80.56
374.513	87.56
374.739	94.56
374.965	96.56
375.191	88.56
375.416	94.56
375.642	105.56
375.868	101.56
376.094	96.56
376.319	100.56
376.545	93.56
376.771	92.56
376.997	84.56
377.222	101.56
377.448	98.56
377.674	95.56
377.899	97.56
378.125	87.56
378.35	100.56
378.576	78.56
378.802	85.56
379.027	87.56
379.253	104.56
379.478	77.56
379.704	91.56
379.929	105.56
380.155	86.56
380.38	100.56
380.606	97.56
380.831	99.56
381.057	90.56
381.282	94.56
381.507	94.56
381.733	90.56
381.958	97.56
382.184	96.56
382.409	104.56
382.634	95.56
382.86	96.56
383.085	104.56
383.31	100.56
383.535	99.56
383.761	103.56
383.986	100.56
384.211	86.56
384.436	104.56
384.662	102.56
384.887	105.56
385.112	100.56
385.337	91.56
385.562	96.56
385.787	94.56
386.013	102.56
386.238	116.56
386.463	87.56
386.688	114.56
386.913	96.56
387.138	100.56
387.363	101.56
387.588	108.56
387.813	101.56
388.038	104.56
388.263	105.56
388.488	94.56
388.713	86.56
388.938	110.56
389.163	97.56
389.387	112.56
389.612	99.56
389.837	98.56
390.062	96.56
390.287	84.56
390.512	90.56
390.736	98.56
390.961	95.56
391.186	84.56
391.411	95.56
391.636	100.56
391.86	90.56
392.085	83.56
392.31	93.56
392.534	86.56
392.759	86.56
392.984	90.56
393.208	86.56
393.433	86.56
393.658	84.56
393.882	100.56
394.107	75.56
394.331	91.56
394.556	80.56
394.78	102.56
395.005	93.56
395.229	84.56
395.454	84.56
395.678	100.56
395.903	94.56
396.127	79.56
396.352	78.56
396.576	75.56
396.801	94.56
397.025	94.56
397.249	86.56
397.474	67.56
397.698	92.56
397.922	101.56
398.147	86.56
398.371	78.56
398.595	94.56
398.82	90.56
399.044	86.56
399.268	92.56
399.492	102.56
399.717	100.56
399.941	87.56
400.165	95.56
400.389	87.56
400.613	76.56
400.837	85.56
401.062	75.56
401.286	99.56
401.51	96.56
401.734	96.56
401.958	101.56
402.182	124.56
402.406	159.56
402.63	111.56
402.854	86.56
403.078	86.56
403.302	96.56
403.526	87.56
403.75	103.56
403.974	60.56
404.198	89.56
404.422	86.56
404.645	99.56
404.869	87.56
405.093	95.56
405.317	97.56
405.541	99.56
405.765	93.56
405.988	126.56
406.212	165.56
406.436	219.56
406.66	149.56
406.883	106.56
407.107	98.56
407.331	94.56
407.555	98.56
407.778	87.56
408.002	99.56
408.226	82.56
408.449	93.56
408.673	92.56
408.896	105.56
409.12	103.56
409.344	97.56
409.567	99.56
409.791	84.56
410.014	92.56
410.238	94.56
410.461	92.56
410.685	87.56
410.908	90.56
411.132	109.56
411.355	116.56
411.578	100.56
411.802	79.56
412.025	96.56
412.249	77.56
412.472	93.56
412.695	94.56
412.919	84.56
413.142	86.56
413.365	98.56
413.589	94.56
413.812	74.56
414.035	91.56
414.258	92.56
414.482	96.56
414.705	94.56
414.928	74.56
415.151	91.56
415.374	83.56
415.597	89.56
415.821	66.56
416.044	95.56
416.267	79.56
416.49	97.56
416.713	98.56
416.936	91.56
417.159	93.56
417.382	83.56
417.605	81.56
417.828	88.56
418.051	100.56
418.274	84.56
418.497	83.56
418.72	76.56
418.943	98.56
419.166	86.56
419.389	93.56
419.611	91.56
419.834	99.56
420.057	94.56
420.28	81.56
420.503	91.56
420.726	86.56
420.948	101.56
421.171	103.56
421.394	103.56
421.617	85.56
421.839	80.56
422.062	83.56
422.285	90.56
422.507	100.56
422.73	103.56
422.953	90.56
423.175	99.56
423.398	84.56
423.621	87.56
423.843	84.56
424.066	74.56
424.288	92.56
424.511	102.56
424.733	95.56
424.956	109.56
425.178	99.56
425.401	89.56
425.623	93.56
425.846	85.56
426.068	92.56
426.291	92.56
426.513	92.56
426.735	87.56
426.958	90.56
427.18	104.56
427.402	127.56
427.625	150.56
427.847	116.56
428.069	112.56
428.292	84.56
428.514	97.56
428.736	91.56
428.958	99.56
429.181	98.56
429.403	67.56
429.625	91.56
429.847	98.56
430.069	104.56
430.292	84.56
430.514	89.56
430.736	88.56
430.958	86.56
431.18	76.56
431.402	81.56
431.624	86.56
431.846	86.56
432.068	85.56
432.29	83.56
432.512	103.56
432.734	87.56
432.956	97.56
433.178	101.56
433.4	95.56
433.622	97.56
433.844	100.56
434.066	93.56
434.287	93.56
434.509	94.56
434.731	91.56
434.953	91.56
435.175	91.56
435.397	89.56
435.618	98.56
435.84	89.56
436.062	125.56
436.284	122.56
436.505	85.56
436.727	86.56
436.949	91.56
437.17	88.56
437.392	90.56
437.614	97.56
437.835	111.56
438.057	112.56
438.278	112.56
438.5	91.56
438.721	124.56
438.943	110.56
439.165	83.56
439.386	82.56
439.608	104.56
439.829	103.56
440.05	125.56
440.272	119.56
440.493	106.56
440.715	77.56
440.936	79.56
441.158	89.56
441.379	90.56
441.6	101.56
441.822	87.56
442.043	95.56
442.264	91.56
442.486	99.56
442.707	96.56
442.928	108.56
443.149	138.56
443.371	116.56
443.592	107.56
443.813	112.56
444.034	118.56
444.255	79.56
444.476	98.56
444.698	88.56
444.919	74.56
445.14	128.56
445.361	131.56
445.582	112.56
445.803	117.56
446.024	125.56
446.245	127.56
446.466	107.56
446.687	97.56
446.908	97.56
447.129	95.56
447.35	88.56
447.571	91.56
447.792	100.56
448.013	112.56
448.234	102.56
448.455	77.56
448.675	105.56
448.896	108.56
449.117	94.56
449.338	110.56
449.559	121.56
449.779	116.56
450	90.56
450.221	86.56
450.442	87.56
450.662	101.56
450.883	102.56
451.104	99.56
451.324	95.56
451.545	89.56
451.766	86.56
451.986	96.56
452.207	81.56
452.428	98.56
452.648	93.56
452.869	105.56
453.089	110.56
453.31	103.56
453.53	92.56
453.751	83.56
453.971	100.56
454.192	94.56
454.412	87.56
454.633	85.56
454.853	90.56
455.073	92.56
455.294	89.56
455.514	98.56
455.734	97.56
455.955	93.56
456.175	101.56
456.395	98.56
456.616	101.56
456.836	79.56
457.056	79.56
457.276	87.56
457.497	83.56
457.717	92.56
457.937	88.56
458.157	84.56
458.377	92.56
458.598	110.56
458.818	150.56
459.038	152.56
459.258	101.56
459.478	88.56
459.698	88.56
459.918	87.56
460.138	97.56
460.358	74.56
460.578	84.56
460.798	90.56
461.018	97.56
461.238	87.56
461.458	74.56
461.678	82.56
461.898	76.56
462.118	78.56
462.338	87.56
462.558	76.56
462.777	69.56
462.997	88.56
463.217	86.56
463.437	87.56
463.657	84.56
463.876	89.56
464.096	86.56
464.316	86.56
464.536	101.56
464.755	91.56
464.975	94.56
465.195	158.56
465.414	151.56
465.634	96.56
465.854	93.56
466.073	89.56
466.293	71.56
466.512	91.56
466.732	86.56
466.951	90.56
467.171	93.56
467.391	90.56
467.61	99.56
467.829	97.56
468.049	76.56
468.268	89.56
468.488	97.56
468.707	90.56
468.927	69.56
469.146	84.56
469.365	82.56
469.585	98.56
469.804	91.56
470.023	81.56
470.243	85.56
470.462	104.56
470.681	99.56
470.901	82.56
471.12	82.56
471.339	94.56
471.558	87.56
471.777	82.56
471.997	87.56
472.216	82.56
472.435	92.56
472.654	83.56
472.873	80.56
473.092	77.56
473.311	87.56
473.53	79.56
473.749	88.56
473.968	93.56
474.187	93.56
474.406	93.56
474.625	83.56
474.844	79.56
475.063	82.56
475.282	92.56
475.501	78.56
475.72	75.56
475.939	70.56
476.158	88.56
476.377	99.56
476.596	90.56
476.814	95.56
477.033	96.56
477.252	83.56
477.471	99.56
477.69	104.56
477.908	97.56
478.127	94.56
478.346	74.56
478.564	90.56
478.783	100.56
479.002	78.56
479.22	90.56
479.439	107.56
479.658	96.56
479.876	93.56
480.095	88.56
480.313	99.56
480.532	81.56
480.751	84.56
480.969	88.56
481.188	103.56
481.406	97.56
481.624	77.56
481.843	83.56
482.061	91.56
482.28	79.56
482.498	93.56
482.717	95.56
482.935	86.56
483.153	98.56
483.372	72.56
483.59	68.56
483.808	70.56
484.027	97.56
484.245	91.56
484.463	74.56
484.681	104.56
484.9	96.56
485.118	94.56
485.336	97.56
485.554	81.56
485.772	107.56
485.99	108.56
486.209	91.56
486.427	99.56
486.645	118.56
486.863	113.56
487.081	109.56
487.299	98.56
487.517	92.56
487.735	105.56
487.953	97.56
488.171	98.56
488.389	85.56
488.607	89.56
488.825	84.56
489.043	93.56
489.261	90.56
489.479	87.56
489.696	109.56
489.914	103.56
490.132	97.56
490.35	92.56
490.568	100.56
490.786	93.56
491.003	92.56
491.221	101.56
491.439	95.56
491.657	87.56
491.874	104.56
492.092	77.56
492.31	95.56
492.527	103.56
492.745	91.56
492.963	93.56
493.18	94.56
493.398	102.56
493.615	85.56
493.833	78.56
494.05	86.56
494.268	100.56
494.485	94.56
494.703	75.56
494.92	93.56
495.138	94.56
495.355	89.56
495.573	93.56
495.79	107.56
496.008	91.56
496.225	95.56
496.442	91.56
496.66	83.56
496.877	82.56
497.094	93.56
497.312	92.56
497.529	103.56
497.746	93.56
497.963	88.56
498.181	81.56
498.398	98.56
498.615	115.56
498.832	98.56
499.049	94.56
499.267	104.56
499.484	90.56
499.701	83.56
499.918	99.56
500.135	84.56
500.352	96.56
500.569	96.56
500.786	87.56
501.003	88.56
501.22	97.56
501.437	89.56
501.654	92.56
501.871	103.56
502.088	93.56
502.305	99.56
502.522	95.56
502.739	94.56
502.956	96.56
503.172	103.56
503.389	97.56
503.606	103.56
503.823	98.56
504.04	84.56
504.256	94.56
504.473	94.56
504.69	107.56
504.907	102.56
505.123	91.56
505.34	87.56
505.557	84.56
505.773	103.56
505.99	99.56
506.207	95.56
506.423	97.56
506.64	82.56
506.856	91.56
507.073	99.56
507.289	110.56
507.506	98.56
507.722	104.56
507.939	99.56
508.155	94.56
508.372	103.56
508.588	89.56
508.805	92.56
509.021	85.56
509.238	92.56
509.454	105.56
509.67	104.56
509.887	119.56
510.103	126.56
510.319	219.56
510.536	761.56
510.752	2367.56
510.968	622.56
511.184	154.56
511.401	110.56
511.617	104.56
511.833	107.56
512.049	92.56
512.265	106.56
512.481	104.56
512.698	94.56
512.914	107.56
513.13	90.56
513.346	113.56
513.562	111.56
513.778	92.56
513.994	98.56
514.21	94.56
514.426	107.56
514.642	143.56
514.858	119.56
515.074	160.56
515.29	457.56
515.506	1421.56
515.721	506.56
515.937	154.56
516.153	119.56
516.369	92.56
516.585	94.56
516.801	88.56
517.016	105.56
517.232	101.56
517.448	95.56
517.664	102.56
517.879	85.56
518.095	88.56
518.311	103.56
518.527	97.56
518.742	98.56
518.958	99.56
519.173	97.56
519.389	108.56
519.605	101.56
519.82	90.56
520.036	114.56
520.251	109.56
520.467	101.56
520.682	103.56
520.898	108.56
521.113	116.56
521.329	132.56
521.544	207.56
521.76	540.56
521.975	2346.56
522.19	1387.56
522.406	299.56
522.621	141.56
522.836	117.56
523.052	105.56
523.267	104.56
523.482	89.56
523.698	95.56
523.913	126.56
524.128	101.56
524.343	83.56
524.559	98.56
524.774	97.56
524.989	93.56
525.204	113.56
525.419	100.56
525.634	88.56
525.849	88.56
526.064	90.56
526.28	96.56
526.495	100.56
526.71	97.56
526.925	99.56
527.14	84.56
527.355	87.56
527.57	84.56
527.785	95.56
527.999	91.56
528.214	107.56
528.429	82.56
528.644	99.56
528.859	105.56
529.074	92.56
529.289	130.56
529.503	191.56
529.718	102.56
529.933	106.56
530.148	95.56
530.363	102.56
530.577	101.56
530.792	95.56
531.007	78.56
531.221	85.56
531.436	89.56
531.651	82.56
531.865	90.56
532.08	88.56
532.295	98.56
532.509	96.56
532.724	92.56
532.938	95.56
533.153	92.56
533.367	100.56
533.582	86.56
533.796	85.56
534.011	90.56
534.225	103.56
534.44	119.56
534.654	95.56
534.868	83.56
535.083	86.56
535.297	83.56
535.511	92.56
535.726	110.56
535.94	101.56
536.154	96.56
536.369	95.56
536.583	101.56
536.797	93.56
537.011	87.56
537.225	94.56
537.44	91.56
537.654	99.56
537.868	95.56
538.082	92.56
538.296	93.56
538.51	89.56
538.724	90.56
538.938	107.56
539.153	92.56
539.367	115.56
539.581	97.56
539.795	94.56
540.009	82.56
540.222	96.56
540.436	94.56
540.65	88.56
540.864	94.56
541.078	93.56
541.292	100.56
541.506	104.56
541.72	99.56
541.934	95.56
542.147	91.56
542.361	95.56
542.575	95.56
542.789	95.56
543.002	103.56
543.216	85.56
543.43	108.56
543.644	100.56
543.857	88.56
544.071	93.56
544.285	98.56
544.498	85.56
544.712	90.56
544.925	99.56
545.139	101.56
545.352	99.56
545.566	96.56
545.779	82.56
545.993	86.56
546.206	90.56
546.42	91.56
546.633	87.56
546.847	93.56
547.06	81.56
547.274	80.56
547.487	93.56
547.7	94.56
547.914	86.56
548.127	84.56
548.34	93.56
548.554	103.56
548.767	97.56
548.98	84.56
549.193	87.56
549.407	83.56
549.62	96.56
549.833	89.56
550.046	101.56
550.259	82.56
550.473	85.56
550.686	88.56
550.899	85.56
551.112	96.56
551.325	81.56
551.538	91.56
551.751	95.56
551.964	93.56
552.177	93.56
552.39	91.56
552.603	76.56
552.816	96.56
553.029	84.56
553.242	96.56
553.455	103.56
553.667	115.56
553.88	109.56
554.093	96.56
554.306	94.56
554.519	97.56
554.732	87.56
554.944	86.56
555.157	98.56
555.37	88.56
555.583	103.56
555.795	99.56
556.008	110.56
556.221	91.56
556.433	79.56
556.646	82.56
556.859	103.56
557.071	108.56
557.284	95.56
557.496	97.56
557.709	86.56
557.921	94.56
558.134	92.56
558.346	85.56
558.559	88.56
558.771	94.56
558.984	98.56
559.196	90.56
559.409	90.56
559.621	85.56
559.833	93.56
560.046	82.56
560.258	83.56
560.47	92.56
560.683	90.56
560.895	88.56
561.107	90.56
561.32	103.56
561.532	93.56
561.744	94.56
561.956	82.56
562.168	85.56
562.381	105.56
562.593	81.56
562.805	90.56
563.017	88.56
563.229	99.56
563.441	80.56
563.653	80.56
563.865	95.56
564.077	89.56
564.289	95.56
564.501	97.56
564.713	70.56
564.925	78.56
565.137	113.56
565.349	88.56
565.561	111.56
565.773	95.56
565.985	96.56
566.197	83.56
566.408	90.56
566.62	95.56
566.832	88.56
567.044	93.56
567.255	107.56
567.467	95.56
567.679	93.56
567.891	93.56
568.102	81.56
568.314	77.56
568.526	89.56
568.737	87.56
568.949	97.56
569.161	103.56
569.372	96.56
569.584	100.56
569.795	92.56
570.007	116.56
570.218	258.56
570.43	132.56
570.641	93.56
570.853	82.56
571.064	90.56
571.276	92.56
571.487	91.56
571.698	91.56
571.91	82.56
572.121	72.56
572.333	89.56
572.544	92.56
572.755	103.56
572.966	91.56
573.178	82.56
573.389	84.56
573.6	90.56
573.811	86.56
574.023	81.56
574.234	85.56
574.445	80.56
574.656	92.56
574.867	90.56
575.078	97.56
575.289	101.56
575.501	85.56
575.712	80.56
575.923	92.56
576.134	80.56
576.345	90.56
576.556	92.56
576.767	103.56
576.978	80.56
577.188	88.56
577.399	92.56
577.61	117.56
577.821	109.56
578.032	110.56
578.243	283.56
578.454	763.56
578.665	210.56
578.875	90.56
579.086	91.56
579.297	103.56
579.508	91.56
579.718	86.56
579.929	97.56
580.14	82.56
580.35	72.56
580.561	95.56
580.772	92.56
580.982	90.56
581.193	92.56
581.403	75.56
581.614	82.56
581.825	96.56
582.035	79.56
582.246	85.56
582.456	83.56
582.667	86.56
582.877	92.56
583.087	96.56
583.298	86.56
583.508	89.56
583.719	92.56
583.929	77.56
584.139	96.56
584.35	92.56
584.56	100.56
584.77	87.56
584.981	87.56
585.191	95.56
585.401	85.56
585.611	85.56
585.821	76.56
586.032	96.56
586.242	94.56
586.452	86.56
586.662	91.56
586.872	81.56
587.082	84.56
587.292	82.56
587.502	81.56
587.713	91.56
587.923	75.56
588.133	82.56
588.343	98.56
588.553	80.56
588.762	102.56
588.972	90.56
589.182	91.56
589.392	90.56
589.602	85.56
589.812	76.56
590.022	97.56
590.232	88.56
590.441	84.56
590.651	78.56
590.861	79.56
591.071	69.56
591.281	75.56
591.49	87.56
591.7	87.56
591.91	85.56
592.119	95.56
592.329	94.56
592.539	90.56
592.748	89.56
592.958	94.56
593.167	95.56
593.377	89.56
593.587	103.56
593.796	79.56
594.006	84.56
594.215	88.56
594.424	92.56
594.634	101.56
594.843	93.56
595.053	102.56
595.262	92.56
595.472	97.56
595.681	92.56
595.89	95.56
596.1	76.56
596.309	91.56
596.518	86.56
596.727	85.56
596.937	95.56
597.146	83.56
597.355	89.56
597.564	85.56
597.774	83.56
597.983	79.56
598.192	89.56
598.401	87.56
598.61	85.56
598.819	85.56
599.028	98.56
599.237	82.56
599.446	88.56
599.655	85.56
599.864	79.56
600.073	95.56
600.282	95.56
600.491	97.56
600.7	92.56
600.909	88.56
601.118	88.56
601.327	101.56
601.536	93.56
601.745	85.56
601.953	89.56
602.162	90.56
602.371	96.56
602.58	91.56
602.789	87.56
602.997	82.56
603.206	82.56
603.415	85.56
603.623	90.56
603.832	84.56
604.041	84.56
604.249	86.56
604.458	94.56
604.666	83.56
604.875	91.56
605.084	88.56
605.292	87.56
605.501	77.56
605.709	89.56
605.918	88.56
606.126	95.56
606.334	86.56
606.543	98.56
606.751	88.56
606.96	87.56
607.168	87.56
607.376	88.56
607.585	88.56
607.793	102.56
608.001	78.56
608.21	91.56
608.418	96.56
608.626	87.56
608.834	94.56
609.043	90.56
609.251	92.56
609.459	88.56
609.667	88.56
609.875	78.56
610.083	79.56
610.291	89.56
610.499	72.56
610.707	84.56
610.916	94.56
611.124	95.56
611.332	87.56
611.54	87.56
611.748	95.56
611.955	85.56
612.163	92.56
612.371	98.56
612.579	79.56
612.787	99.56
612.995	83.56
613.203	85.56
613.411	98.56
613.618	98.56
613.826	85.56
614.034	86.56
614.242	90.56
614.449	90.56
614.657	93.56
614.865	98.56
615.072	95.56
615.28	97.56
615.488	101.56
615.695	107.56
615.903	106.56
616.111	103.56
616.318	111.56
616.526	92.56
616.733	91.56
616.941	92.56
617.148	90.56
617.356	78.56
617.563	96.56
617.771	87.56
617.978	81.56
618.185	90.56
618.393	86.56
618.6	82.56
618.807	81.56
619.015	101.56
619.222	91.56
619.429	83.56
619.637	97.56
619.844	86.56
620.051	81.56
620.258	80.56
620.466	88.56
620.673	100.56
620.88	85.56
621.087	78.56
621.294	84.56
621.501	78.56
621.708	78.56
621.915	101.56
622.122	86.56
622.329	103.56
622.536	85.56
622.743	95.56
622.95	78.56
623.157	78.56
623.364	69.56
623.571	77.56
623.778	79.56
623.985	88.56
624.192	85.56
624.399	90.56
624.606	82.56
624.812	96.56
625.019	88.56
625.226	77.56
625.433	96.56
625.639	92.56
625.846	85.56
626.053	84.56
626.259	87.56
626.466	87.56
626.673	91.56
626.879	81.56
627.086	83.56
627.293	90.56
627.499	82.56
627.706	88.56
627.912	82.56
628.119	85.56
628.325	91.56
628.532	96.56
628.738	94.56
628.945	68.56
629.151	82.56
629.357	80.56
629.564	82.56
629.77	88.56
629.976	82.56
630.183	116.56
630.389	80.56
630.595	87.56
630.802	76.56
631.008	94.56
631.214	95.56
631.42	86.56
631.627	91.56
631.833	90.56
632.039	82.56
632.245	100.56
632.451	87.56
632.657	84.56
632.863	86.56
633.069	80.56
633.275	81.56
633.481	85.56
633.688	88.56
633.893	82.56
634.099	82.56
634.305	86.56
634.511	81.56
634.717	85.56
634.923	85.56
635.129	81.56
635.335	88.56
635.541	75.56
635.747	87.56
635.952	65.56
636.158	83.56
636.364	96.56
636.57	76.56
636.775	77.56
636.981	86.56
637.187	80.56
637.392	74.56
637.598	85.56
637.804	86.56
638.009	87.56
638.215	89.56
638.421	88.56
638.626	86.56
638.832	89.56
639.037	85.56
639.243	83.56
639.448	83.56
639.654	92.56
639.859	89.56
640.065	87.56
640.27	84.56
640.475	82.56
640.681	89.56
640.886	69.56
641.091	85.56
641.297	86.56
641.502	82.56
641.707	87.56
641.913	91.56
642.118	75.56
642.323	86.56
642.528	80.56
642.733	93.56
642.939	85.56
643.144	94.56
643.349	74.56
643.554	76.56
643.759	88.56
643.964	85.56
644.169	66.56
644.374	102.56
644.579	74.56
644.784	85.56
644.989	83.56
645.194	84.56
645.399	85.56
645.604	75.56
645.809	99.56
646.014	100.56
646.219	99.56
646.423	99.56
646.628	92.56
646.833	77.56
647.038	85.56
647.243	81.56
647.447	84.56
647.652	92.56
647.857	85.56
648.062	69.56
648.266	81.56
648.471	101.56
648.676	90.56
648.88	83.56
649.085	98.56
649.289	84.56
649.494	107.56
649.698	126.56
649.903	90.56
650.107	96.56
650.312	101.56
650.516	75.56
650.721	80.56
650.925	90.56
651.13	72.56
651.334	89.56
651.539	91.56
651.743	84.56
651.947	82.56
652.152	91.56
652.356	75.56
652.56	87.56
652.764	89.56
652.969	82.56
653.173	81.56
653.377	84.56
653.581	79.56
653.785	92.56
653.99	94.56
654.194	99.56
654.398	83.56
654.602	85.56
654.806	95.56
655.01	116.56
655.214	84.56
655.418	100.56
655.622	89.56
655.826	74.56
656.03	99.56
656.234	87.56
656.438	86.56
656.642	85.56
656.846	84.56
657.049	86.56
657.253	87.56
657.457	87.56
657.661	96.56
657.865	99.56
658.068	79.56
658.272	80.56
658.476	85.56
658.68	92.56
658.883	87.56
659.087	76.56
659.291	84.56
659.494	80.56
659.698	85.56
659.901	81.56
660.105	83.56
660.309	87.56
660.512	84.56
660.716	76.56
660.919	87.56
661.123	87.56
661.326	85.56
661.53	76.56
661.733	88.56
661.936	74.56
662.14	75.56
662.343	79.56
662.546	94.56
662.75	76.56
662.953	86.56
663.156	76.56
663.36	86.56
663.563	79.56
663.766	76.56
663.969	81.56
664.173	84.56
664.376	90.56
664.579	86.56
664.782	85.56
664.985	78.56
665.188	79.56
665.391	80.56
665.594	74.56
665.797	81.56
666	88.56
666.203	90.56
666.406	85.56
666.609	87.56
666.812	95.56
667.015	76.56
667.218	90.56
667.421	64.56
667.624	91.56
667.827	83.56
668.03	81.56
668.232	97.56
668.435	77.56
668.638	86.56
668.841	86.56
669.043	77.56
669.246	90.56
669.449	94.56
669.651	94.56
669.854	88.56
670.057	83.56
670.259	93.56
670.462	77.56
670.665	76.56
670.867	88.56
671.07	86.56
671.272	82.56
671.475	80.56
671.677	91.56
671.88	81.56
672.082	79.56
672.284	79.56
672.487	71.56
672.689	86.56
672.892	80.56
