Data from Uncirc_1994_H10_HRD10591_00070.txt Node
Date: Wed Jan 03 11:39:34 EST 2024
User: Yrep
Spectrometer: HR+D1059
Trigger mode: 1
Integration Time (sec): 1.000000E-1
Scans to average: 1
Electric dark correction enabled: true
Nonlinearity correction enabled: false
Boxcar width: 0
XAxis mode: Wavelengths
Number of Pixels in Spectrum: 2048
>>>>>Begin Spectral Data<<<<<
223.165	-16.44
223.4	-16.44
223.635	-16.44
223.869	-14.44
224.104	-29.44
224.338	-8.44
224.573	-16.44
224.808	-20.44
225.042	-10.44
225.277	-16.44
225.511	-1.44
225.746	1.56
225.98	9.56
226.215	5.56
226.449	25.56
226.683	23.56
226.918	22.56
227.152	45.56
227.387	26.56
227.621	39.56
227.856	33.56
228.09	38.56
228.324	45.56
228.559	59.56
228.793	48.56
229.027	54.56
229.262	56.56
229.496	72.56
229.73	73.56
229.964	91.56
230.199	75.56
230.433	68.56
230.667	70.56
230.901	70.56
231.136	74.56
231.37	76.56
231.604	78.56
231.838	87.56
232.072	80.56
232.306	85.56
232.541	71.56
232.775	77.56
233.009	73.56
233.243	61.56
233.477	79.56
233.711	81.56
233.945	89.56
234.179	79.56
234.413	75.56
234.647	72.56
234.881	74.56
235.115	77.56
235.349	57.56
235.583	80.56
235.817	67.56
236.051	81.56
236.285	87.56
236.519	80.56
236.753	77.56
236.987	79.56
237.221	78.56
237.455	87.56
237.689	74.56
237.922	79.56
238.156	82.56
238.39	74.56
238.624	72.56
238.858	82.56
239.091	71.56
239.325	69.56
239.559	76.56
239.793	73.56
240.027	78.56
240.26	87.56
240.494	79.56
240.728	80.56
240.961	64.56
241.195	69.56
241.429	79.56
241.662	85.56
241.896	63.56
242.13	67.56
242.363	73.56
242.597	82.56
242.83	76.56
243.064	83.56
243.298	66.56
243.531	80.56
243.765	81.56
243.998	71.56
244.232	74.56
244.465	69.56
244.699	87.56
244.932	93.56
245.166	65.56
245.399	82.56
245.633	79.56
245.866	87.56
246.099	80.56
246.333	83.56
246.566	73.56
246.8	85.56
247.033	72.56
247.266	76.56
247.5	76.56
247.733	79.56
247.966	89.56
248.2	72.56
248.433	76.56
248.666	61.56
248.899	84.56
249.133	82.56
249.366	89.56
249.599	93.56
249.832	82.56
250.066	89.56
250.299	74.56
250.532	66.56
250.765	87.56
250.998	72.56
251.231	83.56
251.465	72.56
251.698	78.56
251.931	81.56
252.164	83.56
252.397	68.56
252.63	84.56
252.863	94.56
253.096	81.56
253.329	92.56
253.562	85.56
253.795	76.56
254.028	56.56
254.261	68.56
254.494	86.56
254.727	84.56
254.96	73.56
255.193	77.56
255.426	75.56
255.659	60.56
255.892	82.56
256.124	84.56
256.357	71.56
256.59	76.56
256.823	80.56
257.056	73.56
257.289	72.56
257.521	87.56
257.754	80.56
257.987	69.56
258.22	75.56
258.452	76.56
258.685	69.56
258.918	66.56
259.151	79.56
259.383	71.56
259.616	80.56
259.849	84.56
260.081	84.56
260.314	85.56
260.547	82.56
260.779	79.56
261.012	77.56
261.244	80.56
261.477	84.56
261.71	84.56
261.942	108.56
262.175	106.56
262.407	89.56
262.64	84.56
262.872	86.56
263.105	79.56
263.337	84.56
263.57	88.56
263.802	101.56
264.035	87.56
264.267	84.56
264.499	73.56
264.732	84.56
264.964	85.56
265.197	81.56
265.429	94.56
265.661	94.56
265.894	68.56
266.126	92.56
266.358	79.56
266.591	79.56
266.823	72.56
267.055	82.56
267.287	79.56
267.52	81.56
267.752	73.56
267.984	81.56
268.216	85.56
268.448	87.56
268.681	91.56
268.913	95.56
269.145	80.56
269.377	75.56
269.609	93.56
269.841	94.56
270.073	81.56
270.306	96.56
270.538	89.56
270.77	83.56
271.002	83.56
271.234	82.56
271.466	72.56
271.698	89.56
271.93	78.56
272.162	89.56
272.394	88.56
272.626	94.56
272.858	79.56
273.09	90.56
273.322	79.56
273.553	91.56
273.785	87.56
274.017	90.56
274.249	102.56
274.481	76.56
274.713	89.56
274.945	86.56
275.176	83.56
275.408	85.56
275.64	84.56
275.872	91.56
276.104	78.56
276.335	89.56
276.567	86.56
276.799	92.56
277.031	97.56
277.262	77.56
277.494	84.56
277.726	87.56
277.957	82.56
278.189	91.56
278.421	81.56
278.652	79.56
278.884	75.56
279.115	76.56
279.347	97.56
279.579	83.56
279.81	100.56
280.042	99.56
280.273	84.56
280.505	89.56
280.736	86.56
280.968	95.56
281.199	84.56
281.431	81.56
281.662	84.56
281.894	86.56
282.125	101.56
282.356	100.56
282.588	120.56
282.819	89.56
283.051	94.56
283.282	80.56
283.513	98.56
283.745	96.56
283.976	86.56
284.207	76.56
284.439	80.56
284.67	81.56
284.901	78.56
285.132	77.56
285.364	105.56
285.595	88.56
285.826	88.56
286.057	84.56
286.288	76.56
286.52	67.56
286.751	87.56
286.982	93.56
287.213	82.56
287.444	103.56
287.675	85.56
287.906	85.56
288.138	97.56
288.369	92.56
288.6	100.56
288.831	87.56
289.062	98.56
289.293	81.56
289.524	77.56
289.755	83.56
289.986	94.56
290.217	89.56
290.448	95.56
290.679	64.56
290.91	91.56
291.141	84.56
291.371	77.56
291.602	79.56
291.833	91.56
292.064	78.56
292.295	77.56
292.526	103.56
292.757	80.56
292.987	87.56
293.218	82.56
293.449	89.56
293.68	91.56
293.91	84.56
294.141	107.56
294.372	86.56
294.603	83.56
294.833	75.56
295.064	87.56
295.295	95.56
295.525	91.56
295.756	107.56
295.987	96.56
296.217	129.56
296.448	106.56
296.679	100.56
296.909	84.56
297.14	93.56
297.37	84.56
297.601	81.56
297.831	84.56
298.062	82.56
298.292	94.56
298.523	94.56
298.753	99.56
298.984	99.56
299.214	100.56
299.445	100.56
299.675	96.56
299.905	96.56
300.136	96.56
300.366	86.56
300.597	99.56
300.827	89.56
301.057	89.56
301.288	107.56
301.518	93.56
301.748	81.56
301.979	100.56
302.209	86.56
302.439	91.56
302.669	96.56
302.9	88.56
303.13	84.56
303.36	95.56
303.59	106.56
303.82	105.56
304.051	97.56
304.281	90.56
304.511	84.56
304.741	94.56
304.971	93.56
305.201	91.56
305.431	89.56
305.661	98.56
305.891	79.56
306.121	91.56
306.352	97.56
306.582	99.56
306.812	92.56
307.042	94.56
307.272	93.56
307.502	94.56
307.731	91.56
307.961	84.56
308.191	105.56
308.421	80.56
308.651	91.56
308.881	84.56
309.111	86.56
309.341	94.56
309.571	81.56
309.8	85.56
310.03	109.56
310.26	89.56
310.49	91.56
310.72	90.56
310.949	106.56
311.179	107.56
311.409	81.56
311.639	88.56
311.868	100.56
312.098	96.56
312.328	105.56
312.557	92.56
312.787	96.56
313.017	95.56
313.246	96.56
313.476	91.56
313.706	83.56
313.935	100.56
314.165	101.56
314.394	97.56
314.624	113.56
314.853	92.56
315.083	95.56
315.312	91.56
315.542	95.56
315.771	93.56
316.001	91.56
316.23	94.56
316.46	85.56
316.689	96.56
316.919	84.56
317.148	83.56
317.377	98.56
317.607	89.56
317.836	97.56
318.065	88.56
318.295	84.56
318.524	90.56
318.753	90.56
318.983	96.56
319.212	109.56
319.441	107.56
319.67	94.56
319.9	86.56
320.129	89.56
320.358	75.56
320.587	84.56
320.816	92.56
321.046	103.56
321.275	89.56
321.504	87.56
321.733	94.56
321.962	93.56
322.191	89.56
322.42	97.56
322.649	121.56
322.878	113.56
323.108	111.56
323.337	119.56
323.566	125.56
323.795	132.56
324.024	206.56
324.253	391.56
324.482	804.56
324.71	1604.56
324.939	2089.56
325.168	778.56
325.397	228.56
325.626	129.56
325.855	115.56
326.084	129.56
326.313	122.56
326.542	145.56
326.77	213.56
326.999	445.56
327.228	907.56
327.457	1641.56
327.686	1279.56
327.914	337.56
328.143	179.56
328.372	130.56
328.6	110.56
328.829	112.56
329.058	122.56
329.287	105.56
329.515	108.56
329.744	104.56
329.972	103.56
330.201	95.56
330.43	113.56
330.658	124.56
330.887	128.56
331.115	127.56
331.344	99.56
331.572	108.56
331.801	105.56
332.03	81.56
332.258	91.56
332.486	79.56
332.715	84.56
332.943	80.56
333.172	75.56
333.4	104.56
333.629	109.56
333.857	105.56
334.085	95.56
334.314	110.56
334.542	107.56
334.771	107.56
334.999	106.56
335.227	101.56
335.455	94.56
335.684	96.56
335.912	94.56
336.14	119.56
336.369	109.56
336.597	97.56
336.825	99.56
337.053	87.56
337.281	94.56
337.51	92.56
337.738	81.56
337.966	93.56
338.194	86.56
338.422	109.56
338.65	93.56
338.878	94.56
339.106	85.56
339.334	83.56
339.562	94.56
339.79	94.56
340.018	105.56
340.246	91.56
340.474	91.56
340.702	90.56
340.93	82.56
341.158	86.56
341.386	98.56
341.614	94.56
341.842	94.56
342.07	99.56
342.298	90.56
342.526	92.56
342.754	93.56
342.981	106.56
343.209	84.56
343.437	97.56
343.665	98.56
343.893	87.56
344.12	96.56
344.348	93.56
344.576	92.56
344.804	92.56
345.031	88.56
345.259	84.56
345.487	88.56
345.714	100.56
345.942	100.56
346.17	101.56
346.397	81.56
346.625	91.56
346.853	106.56
347.08	87.56
347.308	80.56
347.535	90.56
347.763	99.56
347.99	105.56
348.218	113.56
348.445	103.56
348.673	109.56
348.9	92.56
349.128	91.56
349.355	85.56
349.583	94.56
349.81	94.56
350.037	89.56
350.265	94.56
350.492	98.56
350.72	91.56
350.947	95.56
351.174	114.56
351.402	99.56
351.629	112.56
351.856	103.56
352.083	102.56
352.311	102.56
352.538	115.56
352.765	108.56
352.992	115.56
353.22	107.56
353.447	106.56
353.674	94.56
353.901	90.56
354.128	90.56
354.355	87.56
354.583	103.56
354.81	98.56
355.037	110.56
355.264	95.56
355.491	99.56
355.718	95.56
355.945	88.56
356.172	80.56
356.399	94.56
356.626	96.56
356.853	94.56
357.08	102.56
357.307	90.56
357.534	85.56
357.761	87.56
357.988	98.56
358.215	88.56
358.441	81.56
358.668	77.56
358.895	89.56
359.122	79.56
359.349	74.56
359.576	89.56
359.802	91.56
360.029	111.56
360.256	99.56
360.483	88.56
360.709	93.56
360.936	110.56
361.163	94.56
361.39	94.56
361.616	98.56
361.843	95.56
362.07	98.56
362.296	88.56
362.523	101.56
362.749	94.56
362.976	78.56
363.203	100.56
363.429	85.56
363.656	84.56
363.882	81.56
364.109	78.56
364.335	92.56
364.562	87.56
364.788	84.56
365.015	94.56
365.241	96.56
365.468	96.56
365.694	105.56
365.92	104.56
366.147	104.56
366.373	88.56
366.599	83.56
366.826	82.56
367.052	90.56
367.278	101.56
367.505	96.56
367.731	89.56
367.957	84.56
368.184	87.56
368.41	83.56
368.636	96.56
368.862	107.56
369.089	105.56
369.315	88.56
369.541	86.56
369.767	84.56
369.993	83.56
370.219	103.56
370.445	74.56
370.672	99.56
370.898	96.56
371.124	92.56
371.35	97.56
371.576	91.56
371.802	85.56
372.028	84.56
372.254	66.56
372.48	89.56
372.706	81.56
372.932	85.56
373.158	87.56
373.384	96.56
373.61	95.56
373.835	98.56
374.061	92.56
374.287	85.56
374.513	89.56
374.739	91.56
374.965	91.56
375.191	81.56
375.416	87.56
375.642	89.56
375.868	88.56
376.094	82.56
376.319	91.56
376.545	101.56
376.771	106.56
376.997	89.56
377.222	71.56
377.448	90.56
377.674	82.56
377.899	105.56
378.125	82.56
378.35	89.56
378.576	91.56
378.802	91.56
379.027	102.56
379.253	87.56
379.478	89.56
379.704	90.56
379.929	106.56
380.155	85.56
380.38	83.56
380.606	81.56
380.831	85.56
381.057	89.56
381.282	111.56
381.507	94.56
381.733	88.56
381.958	104.56
382.184	94.56
382.409	100.56
382.634	106.56
382.86	92.56
383.085	102.56
383.31	90.56
383.535	93.56
383.761	98.56
383.986	90.56
384.211	95.56
384.436	95.56
384.662	98.56
384.887	94.56
385.112	84.56
385.337	107.56
385.562	100.56
385.787	98.56
386.013	109.56
386.238	110.56
386.463	87.56
386.688	116.56
386.913	89.56
387.138	107.56
387.363	97.56
387.588	100.56
387.813	91.56
388.038	103.56
388.263	103.56
388.488	93.56
388.713	101.56
388.938	89.56
389.163	110.56
389.387	95.56
389.612	103.56
389.837	95.56
390.062	90.56
390.287	100.56
390.512	88.56
390.736	98.56
390.961	89.56
391.186	95.56
391.411	89.56
391.636	89.56
391.86	75.56
392.085	84.56
392.31	83.56
392.534	78.56
392.759	93.56
392.984	96.56
393.208	83.56
393.433	83.56
393.658	89.56
393.882	80.56
394.107	84.56
394.331	93.56
394.556	85.56
394.78	96.56
395.005	82.56
395.229	91.56
395.454	80.56
395.678	97.56
395.903	98.56
396.127	89.56
396.352	95.56
396.576	77.56
396.801	77.56
397.025	86.56
397.249	85.56
397.474	83.56
397.698	83.56
397.922	92.56
398.147	92.56
398.371	91.56
398.595	89.56
398.82	85.56
399.044	85.56
399.268	89.56
399.492	90.56
399.717	83.56
399.941	82.56
400.165	85.56
400.389	88.56
400.613	91.56
400.837	92.56
401.062	103.56
401.286	75.56
401.51	88.56
401.734	94.56
401.958	90.56
402.182	115.56
402.406	149.56
402.63	113.56
402.854	93.56
403.078	97.56
403.302	94.56
403.526	89.56
403.75	82.56
403.974	92.56
404.198	92.56
404.422	88.56
404.645	72.56
404.869	82.56
405.093	98.56
405.317	101.56
405.541	95.56
405.765	83.56
405.988	113.56
406.212	169.56
406.436	203.56
406.66	129.56
406.883	108.56
407.107	89.56
407.331	91.56
407.555	99.56
407.778	94.56
408.002	91.56
408.226	93.56
408.449	82.56
408.673	92.56
408.896	85.56
409.12	95.56
409.344	97.56
409.567	73.56
409.791	83.56
410.014	87.56
410.238	88.56
410.461	92.56
410.685	81.56
410.908	105.56
411.132	112.56
411.355	97.56
411.578	97.56
411.802	96.56
412.025	95.56
412.249	82.56
412.472	90.56
412.695	83.56
412.919	83.56
413.142	91.56
413.365	84.56
413.589	75.56
413.812	94.56
414.035	87.56
414.258	84.56
414.482	91.56
414.705	83.56
414.928	92.56
415.151	83.56
415.374	100.56
415.597	99.56
415.821	88.56
416.044	91.56
416.267	80.56
416.49	84.56
416.713	74.56
416.936	82.56
417.159	98.56
417.382	88.56
417.605	84.56
417.828	84.56
418.051	95.56
418.274	94.56
418.497	79.56
418.72	73.56
418.943	99.56
419.166	78.56
419.389	80.56
419.611	99.56
419.834	84.56
420.057	97.56
420.28	107.56
420.503	90.56
420.726	97.56
420.948	93.56
421.171	98.56
421.394	95.56
421.617	86.56
421.839	102.56
422.062	79.56
422.285	100.56
422.507	84.56
422.73	109.56
422.953	95.56
423.175	89.56
423.398	87.56
423.621	86.56
423.843	92.56
424.066	81.56
424.288	105.56
424.511	80.56
424.733	96.56
424.956	108.56
425.178	101.56
425.401	98.56
425.623	97.56
425.846	92.56
426.068	85.56
426.291	103.56
426.513	91.56
426.735	92.56
426.958	94.56
427.18	120.56
427.402	135.56
427.625	159.56
427.847	129.56
428.069	94.56
428.292	81.56
428.514	89.56
428.736	84.56
428.958	67.56
429.181	92.56
429.403	79.56
429.625	92.56
429.847	96.56
430.069	102.56
430.292	99.56
430.514	83.56
430.736	83.56
430.958	91.56
431.18	87.56
431.402	77.56
431.624	82.56
431.846	92.56
432.068	100.56
432.29	91.56
432.512	98.56
432.734	84.56
432.956	79.56
433.178	87.56
433.4	95.56
433.622	95.56
433.844	96.56
434.066	96.56
434.287	88.56
434.509	90.56
434.731	96.56
434.953	90.56
435.175	88.56
435.397	78.56
435.618	85.56
435.84	101.56
436.062	128.56
436.284	123.56
436.505	108.56
436.727	97.56
436.949	81.56
437.17	96.56
437.392	94.56
437.614	94.56
437.835	107.56
438.057	107.56
438.278	104.56
438.5	83.56
438.721	119.56
438.943	99.56
439.165	87.56
439.386	74.56
439.608	87.56
439.829	99.56
440.05	121.56
440.272	140.56
440.493	98.56
440.715	77.56
440.936	97.56
441.158	93.56
441.379	76.56
441.6	78.56
441.822	105.56
442.043	79.56
442.264	103.56
442.486	76.56
442.707	96.56
442.928	113.56
443.149	120.56
443.371	130.56
443.592	106.56
443.813	125.56
444.034	107.56
444.255	91.56
444.476	76.56
444.698	97.56
444.919	78.56
445.14	124.56
445.361	101.56
445.582	105.56
445.803	133.56
446.024	140.56
446.245	137.56
446.466	104.56
446.687	96.56
446.908	81.56
447.129	85.56
447.35	82.56
447.571	100.56
447.792	90.56
448.013	105.56
448.234	88.56
448.455	93.56
448.675	123.56
448.896	104.56
449.117	100.56
449.338	104.56
449.559	117.56
449.779	122.56
450	101.56
450.221	97.56
450.442	84.56
450.662	88.56
450.883	95.56
451.104	114.56
451.324	100.56
451.545	97.56
451.766	88.56
451.986	89.56
452.207	93.56
452.428	97.56
452.648	99.56
452.869	95.56
453.089	114.56
453.31	114.56
453.53	99.56
453.751	98.56
453.971	99.56
454.192	104.56
454.412	89.56
454.633	99.56
454.853	84.56
455.073	87.56
455.294	82.56
455.514	89.56
455.734	75.56
455.955	95.56
456.175	87.56
456.395	84.56
456.616	73.56
456.836	82.56
457.056	81.56
457.276	91.56
457.497	71.56
457.717	76.56
457.937	93.56
458.157	83.56
458.377	77.56
458.598	106.56
458.818	119.56
459.038	141.56
459.258	103.56
459.478	95.56
459.698	89.56
459.918	94.56
460.138	75.56
460.358	86.56
460.578	86.56
460.798	83.56
461.018	85.56
461.238	83.56
461.458	100.56
461.678	78.56
461.898	80.56
462.118	79.56
462.338	69.56
462.558	86.56
462.777	97.56
462.997	82.56
463.217	90.56
463.437	78.56
463.657	84.56
463.876	82.56
464.096	85.56
464.316	102.56
464.536	82.56
464.755	95.56
464.975	99.56
465.195	142.56
465.414	162.56
465.634	92.56
465.854	105.56
466.073	88.56
466.293	93.56
466.512	86.56
466.732	85.56
466.951	81.56
467.171	76.56
467.391	102.56
467.61	88.56
467.829	95.56
468.049	81.56
468.268	85.56
468.488	82.56
468.707	83.56
468.927	88.56
469.146	97.56
469.365	102.56
469.585	92.56
469.804	90.56
470.023	83.56
470.243	90.56
470.462	83.56
470.681	103.56
470.901	79.56
471.12	84.56
471.339	94.56
471.558	97.56
471.777	85.56
471.997	80.56
472.216	80.56
472.435	90.56
472.654	79.56
472.873	79.56
473.092	78.56
473.311	75.56
473.53	95.56
473.749	91.56
473.968	98.56
474.187	94.56
474.406	98.56
474.625	100.56
474.844	84.56
475.063	82.56
475.282	84.56
475.501	75.56
475.72	86.56
475.939	82.56
476.158	88.56
476.377	67.56
476.596	93.56
476.814	103.56
477.033	90.56
477.252	84.56
477.471	85.56
477.69	95.56
477.908	85.56
478.127	98.56
478.346	84.56
478.564	75.56
478.783	98.56
479.002	81.56
479.22	90.56
479.439	101.56
479.658	99.56
479.876	91.56
480.095	92.56
480.313	90.56
480.532	100.56
480.751	108.56
480.969	91.56
481.188	95.56
481.406	89.56
481.624	72.56
481.843	92.56
482.061	90.56
482.28	91.56
482.498	65.56
482.717	105.56
482.935	93.56
483.153	109.56
483.372	90.56
483.59	91.56
483.808	90.56
484.027	83.56
484.245	96.56
484.463	83.56
484.681	83.56
484.9	84.56
485.118	83.56
485.336	92.56
485.554	86.56
485.772	91.56
485.99	100.56
486.209	101.56
486.427	103.56
486.645	103.56
486.863	105.56
487.081	100.56
487.299	98.56
487.517	109.56
487.735	108.56
487.953	96.56
488.171	90.56
488.389	90.56
488.607	96.56
488.825	84.56
489.043	94.56
489.261	87.56
489.479	93.56
489.696	89.56
489.914	91.56
490.132	91.56
490.35	82.56
490.568	88.56
490.786	89.56
491.003	84.56
491.221	84.56
491.439	93.56
491.657	91.56
491.874	98.56
492.092	92.56
492.31	95.56
492.527	97.56
492.745	80.56
492.963	83.56
493.18	90.56
493.398	87.56
493.615	91.56
493.833	92.56
494.05	91.56
494.268	83.56
494.485	89.56
494.703	83.56
494.92	89.56
495.138	102.56
495.355	97.56
495.573	90.56
495.79	90.56
496.008	104.56
496.225	89.56
496.442	92.56
496.66	78.56
496.877	90.56
497.094	85.56
497.312	87.56
497.529	86.56
497.746	85.56
497.963	88.56
498.181	100.56
498.398	90.56
498.615	114.56
498.832	99.56
499.049	92.56
499.267	96.56
499.484	96.56
499.701	91.56
499.918	105.56
500.135	97.56
500.352	100.56
500.569	90.56
500.786	89.56
501.003	92.56
501.22	103.56
501.437	89.56
501.654	66.56
501.871	113.56
502.088	101.56
502.305	97.56
502.522	80.56
502.739	101.56
502.956	95.56
503.172	99.56
503.389	94.56
503.606	97.56
503.823	90.56
504.04	71.56
504.256	72.56
504.473	95.56
504.69	84.56
504.907	95.56
505.123	87.56
505.34	92.56
505.557	83.56
505.773	85.56
505.99	84.56
506.207	77.56
506.423	99.56
506.64	74.56
506.856	91.56
507.073	87.56
507.289	105.56
507.506	104.56
507.722	123.56
507.939	108.56
508.155	87.56
508.372	77.56
508.588	90.56
508.805	94.56
509.021	85.56
509.238	85.56
509.454	94.56
509.67	98.56
509.887	101.56
510.103	117.56
510.319	218.56
510.536	731.56
510.752	2276.56
510.968	631.56
511.184	147.56
511.401	103.56
511.617	95.56
511.833	86.56
512.049	87.56
512.265	104.56
512.481	85.56
512.698	87.56
512.914	92.56
513.13	110.56
513.346	92.56
513.562	88.56
513.778	94.56
513.994	90.56
514.21	110.56
514.426	114.56
514.642	136.56
514.858	111.56
515.074	156.56
515.29	432.56
515.506	1373.56
515.721	493.56
515.937	148.56
516.153	111.56
516.369	100.56
516.585	101.56
516.801	93.56
517.016	94.56
517.232	88.56
517.448	86.56
517.664	93.56
517.879	84.56
518.095	75.56
518.311	100.56
518.527	104.56
518.742	80.56
518.958	91.56
519.173	98.56
519.389	83.56
519.605	91.56
519.82	95.56
520.036	97.56
520.251	127.56
520.467	104.56
520.682	114.56
520.898	111.56
521.113	122.56
521.329	119.56
521.544	194.56
521.76	520.56
521.975	2276.56
522.19	1349.56
522.406	303.56
522.621	113.56
522.836	99.56
523.052	82.56
523.267	92.56
523.482	96.56
523.698	102.56
523.913	131.56
524.128	106.56
524.343	92.56
524.559	90.56
524.774	92.56
524.989	91.56
525.204	103.56
525.419	98.56
525.634	106.56
525.849	90.56
526.064	82.56
526.28	105.56
526.495	105.56
526.71	85.56
526.925	79.56
527.14	93.56
527.355	99.56
527.57	90.56
527.785	93.56
527.999	97.56
528.214	99.56
528.429	89.56
528.644	89.56
528.859	85.56
529.074	88.56
529.289	120.56
529.503	173.56
529.718	116.56
529.933	93.56
530.148	89.56
530.363	94.56
530.577	96.56
530.792	95.56
531.007	91.56
531.221	89.56
531.436	89.56
531.651	97.56
531.865	96.56
532.08	89.56
532.295	97.56
532.509	85.56
532.724	95.56
532.938	91.56
533.153	86.56
533.367	92.56
533.582	93.56
533.796	98.56
534.011	103.56
534.225	96.56
534.44	100.56
534.654	93.56
534.868	85.56
535.083	95.56
535.297	89.56
535.511	99.56
535.726	100.56
535.94	112.56
536.154	94.56
536.369	76.56
536.583	83.56
536.797	92.56
537.011	74.56
537.225	98.56
537.44	95.56
537.654	85.56
537.868	70.56
538.082	85.56
538.296	89.56
538.51	100.56
538.724	88.56
538.938	99.56
539.153	97.56
539.367	106.56
539.581	87.56
539.795	76.56
540.009	100.56
540.222	92.56
540.436	101.56
540.65	97.56
540.864	91.56
541.078	86.56
541.292	89.56
541.506	93.56
541.72	78.56
541.934	98.56
542.147	90.56
542.361	90.56
542.575	90.56
542.789	83.56
543.002	88.56
543.216	89.56
543.43	82.56
543.644	103.56
543.857	86.56
544.071	95.56
544.285	90.56
544.498	90.56
544.712	92.56
544.925	96.56
545.139	104.56
545.352	79.56
545.566	85.56
545.779	90.56
545.993	98.56
546.206	103.56
546.42	96.56
546.633	96.56
546.847	84.56
547.06	101.56
547.274	87.56
547.487	98.56
547.7	89.56
547.914	103.56
548.127	92.56
548.34	86.56
548.554	85.56
548.767	88.56
548.98	95.56
549.193	68.56
549.407	65.56
549.62	92.56
549.833	87.56
550.046	96.56
550.259	81.56
550.473	88.56
550.686	82.56
550.899	80.56
551.112	85.56
551.325	83.56
551.538	77.56
551.751	101.56
551.964	112.56
552.177	100.56
552.39	94.56
552.603	91.56
552.816	83.56
553.029	90.56
553.242	105.56
553.455	93.56
553.667	94.56
553.88	99.56
554.093	93.56
554.306	95.56
554.519	79.56
554.732	97.56
554.944	82.56
555.157	95.56
555.37	86.56
555.583	114.56
555.795	88.56
556.008	87.56
556.221	81.56
556.433	82.56
556.646	96.56
556.859	88.56
557.071	104.56
557.284	83.56
557.496	93.56
557.709	98.56
557.921	96.56
558.134	94.56
558.346	92.56
558.559	100.56
558.771	101.56
558.984	88.56
559.196	87.56
559.409	82.56
559.621	93.56
559.833	96.56
560.046	85.56
560.258	86.56
560.47	78.56
560.683	80.56
560.895	68.56
561.107	105.56
561.32	85.56
561.532	78.56
561.744	97.56
561.956	105.56
562.168	87.56
562.381	87.56
562.593	87.56
562.805	78.56
563.017	87.56
563.229	106.56
563.441	85.56
563.653	91.56
563.865	94.56
564.077	99.56
564.289	77.56
564.501	93.56
564.713	97.56
564.925	98.56
565.137	99.56
565.349	82.56
565.561	102.56
565.773	97.56
565.985	86.56
566.197	76.56
566.408	64.56
566.62	79.56
566.832	81.56
567.044	82.56
567.255	93.56
567.467	98.56
567.679	79.56
567.891	96.56
568.102	71.56
568.314	87.56
568.526	95.56
568.737	95.56
568.949	86.56
569.161	78.56
569.372	89.56
569.584	84.56
569.795	101.56
570.007	118.56
570.218	230.56
570.43	130.56
570.641	95.56
570.853	89.56
571.064	87.56
571.276	91.56
571.487	86.56
571.698	90.56
571.91	86.56
572.121	91.56
572.333	78.56
572.544	91.56
572.755	85.56
572.966	84.56
573.178	99.56
573.389	91.56
573.6	89.56
573.811	96.56
574.023	88.56
574.234	84.56
574.445	87.56
574.656	83.56
574.867	84.56
575.078	81.56
575.289	74.56
575.501	89.56
575.712	90.56
575.923	96.56
576.134	106.56
576.345	89.56
576.556	74.56
576.767	81.56
576.978	89.56
577.188	107.56
577.399	89.56
577.61	83.56
577.821	93.56
578.032	122.56
578.243	271.56
578.454	719.56
578.665	225.56
578.875	106.56
579.086	80.56
579.297	89.56
579.508	73.56
579.718	79.56
579.929	91.56
580.14	94.56
580.35	97.56
580.561	88.56
580.772	90.56
580.982	81.56
581.193	87.56
581.403	82.56
581.614	90.56
581.825	84.56
582.035	89.56
582.246	88.56
582.456	86.56
582.667	84.56
582.877	81.56
583.087	97.56
583.298	81.56
583.508	84.56
583.719	91.56
583.929	91.56
584.139	88.56
584.35	75.56
584.56	99.56
584.77	97.56
584.981	82.56
585.191	79.56
585.401	86.56
585.611	95.56
585.821	85.56
586.032	102.56
586.242	97.56
586.452	90.56
586.662	89.56
586.872	100.56
587.082	87.56
587.292	87.56
587.502	94.56
587.713	80.56
587.923	81.56
588.133	90.56
588.343	84.56
588.553	85.56
588.762	75.56
588.972	75.56
589.182	83.56
589.392	76.56
589.602	95.56
589.812	88.56
590.022	76.56
590.232	93.56
590.441	83.56
590.651	86.56
590.861	75.56
591.071	80.56
591.281	80.56
591.49	88.56
591.7	88.56
591.91	92.56
592.119	92.56
592.329	87.56
592.539	101.56
592.748	82.56
592.958	79.56
593.167	76.56
593.377	83.56
593.587	89.56
593.796	105.56
594.006	95.56
594.215	83.56
594.424	84.56
594.634	86.56
594.843	90.56
595.053	86.56
595.262	86.56
595.472	79.56
595.681	87.56
595.89	88.56
596.1	85.56
596.309	88.56
596.518	81.56
596.727	83.56
596.937	93.56
597.146	79.56
597.355	94.56
597.564	90.56
597.774	97.56
597.983	97.56
598.192	75.56
598.401	81.56
598.61	91.56
598.819	66.56
599.028	87.56
599.237	76.56
599.446	77.56
599.655	71.56
599.864	91.56
600.073	84.56
600.282	89.56
600.491	76.56
600.7	82.56
600.909	96.56
601.118	85.56
601.327	87.56
601.536	82.56
601.745	91.56
601.953	75.56
602.162	90.56
602.371	99.56
602.58	92.56
602.789	88.56
602.997	93.56
603.206	77.56
603.415	88.56
603.623	79.56
603.832	82.56
604.041	85.56
604.249	95.56
604.458	92.56
604.666	88.56
604.875	85.56
605.084	82.56
605.292	84.56
605.501	99.56
605.709	94.56
605.918	90.56
606.126	83.56
606.334	75.56
606.543	81.56
606.751	92.56
606.96	78.56
607.168	76.56
607.376	96.56
607.585	99.56
607.793	95.56
608.001	89.56
608.21	81.56
608.418	85.56
608.626	100.56
608.834	81.56
609.043	75.56
609.251	92.56
609.459	81.56
609.667	77.56
609.875	92.56
610.083	82.56
610.291	93.56
610.499	91.56
610.707	79.56
610.916	83.56
611.124	90.56
611.332	93.56
611.54	76.56
611.748	90.56
611.955	78.56
612.163	77.56
612.371	77.56
612.579	82.56
612.787	85.56
612.995	84.56
613.203	88.56
613.411	89.56
613.618	83.56
613.826	89.56
614.034	82.56
614.242	95.56
614.449	83.56
614.657	85.56
614.865	88.56
615.072	97.56
615.28	91.56
615.488	95.56
615.695	85.56
615.903	87.56
616.111	102.56
616.318	104.56
616.526	105.56
616.733	104.56
616.941	102.56
617.148	75.56
617.356	84.56
617.563	77.56
617.771	76.56
617.978	83.56
618.185	84.56
618.393	84.56
618.6	92.56
618.807	87.56
619.015	85.56
619.222	92.56
619.429	88.56
619.637	80.56
619.844	91.56
620.051	94.56
620.258	92.56
620.466	82.56
620.673	99.56
620.88	92.56
621.087	75.56
621.294	89.56
621.501	86.56
621.708	85.56
621.915	92.56
622.122	91.56
622.329	95.56
622.536	94.56
622.743	91.56
622.95	72.56
623.157	93.56
623.364	82.56
623.571	83.56
623.778	66.56
623.985	84.56
624.192	84.56
624.399	85.56
624.606	89.56
624.812	83.56
625.019	95.56
625.226	86.56
625.433	82.56
625.639	94.56
625.846	75.56
626.053	89.56
626.259	83.56
626.466	96.56
626.673	87.56
626.879	76.56
627.086	91.56
627.293	76.56
627.499	88.56
627.706	84.56
627.912	82.56
628.119	95.56
628.325	82.56
628.532	97.56
628.738	77.56
628.945	92.56
629.151	93.56
629.357	92.56
629.564	90.56
629.77	82.56
629.976	93.56
630.183	84.56
630.389	83.56
630.595	74.56
630.802	89.56
631.008	85.56
631.214	94.56
631.42	105.56
631.627	95.56
631.833	87.56
632.039	93.56
632.245	79.56
632.451	81.56
632.657	84.56
632.863	85.56
633.069	93.56
633.275	103.56
633.481	75.56
633.688	83.56
633.893	80.56
634.099	93.56
634.305	80.56
634.511	84.56
634.717	100.56
634.923	93.56
635.129	84.56
635.335	89.56
635.541	82.56
635.747	81.56
635.952	71.56
636.158	78.56
636.364	82.56
636.57	85.56
636.775	81.56
636.981	78.56
637.187	75.56
637.392	78.56
637.598	86.56
637.804	91.56
638.009	82.56
638.215	81.56
638.421	75.56
638.626	83.56
638.832	80.56
639.037	95.56
639.243	97.56
639.448	76.56
639.654	100.56
639.859	88.56
640.065	79.56
640.27	92.56
640.475	97.56
640.681	91.56
640.886	75.56
641.091	68.56
641.297	81.56
641.502	79.56
641.707	83.56
641.913	93.56
642.118	79.56
642.323	89.56
642.528	84.56
642.733	75.56
642.939	90.56
643.144	103.56
643.349	83.56
643.554	88.56
643.759	78.56
643.964	83.56
644.169	78.56
644.374	85.56
644.579	90.56
644.784	75.56
644.989	71.56
645.194	89.56
645.399	92.56
645.604	96.56
645.809	86.56
646.014	89.56
646.219	72.56
646.423	82.56
646.628	82.56
646.833	73.56
647.038	74.56
647.243	88.56
647.447	96.56
647.652	79.56
647.857	96.56
648.062	70.56
648.266	100.56
648.471	92.56
648.676	104.56
648.88	99.56
649.085	80.56
649.289	96.56
649.494	113.56
649.698	131.56
649.903	96.56
650.107	86.56
650.312	76.56
650.516	99.56
650.721	83.56
650.925	79.56
651.13	77.56
651.334	96.56
651.539	88.56
651.743	89.56
651.947	82.56
652.152	89.56
652.356	69.56
652.56	99.56
652.764	74.56
652.969	74.56
653.173	93.56
653.377	90.56
653.581	65.56
653.785	88.56
653.99	79.56
654.194	73.56
654.398	87.56
654.602	86.56
654.806	87.56
655.01	96.56
655.214	91.56
655.418	89.56
655.622	85.56
655.826	77.56
656.03	73.56
656.234	85.56
656.438	88.56
656.642	98.56
656.846	91.56
657.049	77.56
657.253	77.56
657.457	91.56
657.661	73.56
657.865	68.56
658.068	71.56
658.272	86.56
658.476	69.56
658.68	66.56
658.883	92.56
659.087	82.56
659.291	85.56
659.494	83.56
659.698	84.56
659.901	69.56
660.105	76.56
660.309	83.56
660.512	76.56
660.716	68.56
660.919	85.56
661.123	89.56
661.326	84.56
661.53	89.56
661.733	86.56
661.936	80.56
662.14	91.56
662.343	75.56
662.546	67.56
662.75	80.56
662.953	92.56
663.156	83.56
663.36	82.56
663.563	73.56
663.766	76.56
663.969	79.56
664.173	77.56
664.376	85.56
664.579	75.56
664.782	74.56
664.985	83.56
665.188	87.56
665.391	76.56
665.594	81.56
665.797	78.56
666	83.56
666.203	90.56
666.406	85.56
666.609	73.56
666.812	73.56
667.015	75.56
667.218	76.56
667.421	89.56
667.624	80.56
667.827	90.56
668.03	71.56
668.232	88.56
668.435	83.56
668.638	71.56
668.841	89.56
669.043	80.56
669.246	81.56
669.449	79.56
669.651	76.56
669.854	73.56
670.057	79.56
670.259	71.56
670.462	92.56
670.665	82.56
670.867	65.56
671.07	85.56
671.272	86.56
671.475	90.56
671.677	77.56
671.88	71.56
672.082	91.56
672.284	77.56
672.487	91.56
672.689	78.56
672.892	90.56
