Data from Circ_2000_H10_HRD10591_00040.txt Node
Date: Wed Jan 03 10:49:41 EST 2024
User: Yrep
Spectrometer: HR+D1059
Trigger mode: 1
Integration Time (sec): 1.000000E-1
Scans to average: 1
Electric dark correction enabled: true
Nonlinearity correction enabled: false
Boxcar width: 0
XAxis mode: Wavelengths
Number of Pixels in Spectrum: 2048
>>>>>Begin Spectral Data<<<<<
223.165	-12.88
223.4	-12.88
223.635	-12.88
223.869	-26.88
224.104	-19.88
224.338	-15.88
224.573	-11.88
224.808	-17.88
225.042	-4.88
225.277	-16.88
225.511	0.12
225.746	-2.88
225.98	10.12
226.215	8.12
226.449	22.12
226.683	17.12
226.918	38.12
227.152	34.12
227.387	25.12
227.621	40.12
227.856	46.12
228.09	51.12
228.324	48.12
228.559	78.12
228.793	67.12
229.027	76.12
229.262	66.12
229.496	70.12
229.73	83.12
229.964	92.12
230.199	78.12
230.433	76.12
230.667	92.12
230.901	91.12
231.136	86.12
231.37	80.12
231.604	73.12
231.838	58.12
232.072	93.12
232.306	78.12
232.541	84.12
232.775	77.12
233.009	88.12
233.243	93.12
233.477	90.12
233.711	96.12
233.945	69.12
234.179	83.12
234.413	74.12
234.647	67.12
234.881	86.12
235.115	77.12
235.349	77.12
235.583	85.12
235.817	87.12
236.051	88.12
236.285	83.12
236.519	81.12
236.753	62.12
236.987	76.12
237.221	80.12
237.455	87.12
237.689	80.12
237.922	80.12
238.156	80.12
238.39	79.12
238.624	73.12
238.858	66.12
239.091	85.12
239.325	74.12
239.559	87.12
239.793	80.12
240.027	91.12
240.26	95.12
240.494	83.12
240.728	74.12
240.961	82.12
241.195	92.12
241.429	69.12
241.662	68.12
241.896	74.12
242.13	82.12
242.363	74.12
242.597	77.12
242.83	74.12
243.064	78.12
243.298	75.12
243.531	72.12
243.765	74.12
243.998	70.12
244.232	84.12
244.465	85.12
244.699	71.12
244.932	73.12
245.166	77.12
245.399	74.12
245.633	92.12
245.866	77.12
246.099	98.12
246.333	83.12
246.566	83.12
246.8	74.12
247.033	92.12
247.266	84.12
247.5	80.12
247.733	80.12
247.966	69.12
248.2	76.12
248.433	82.12
248.666	61.12
248.899	98.12
249.133	96.12
249.366	94.12
249.599	120.12
249.832	87.12
250.066	75.12
250.299	89.12
250.532	81.12
250.765	83.12
250.998	78.12
251.231	80.12
251.465	70.12
251.698	73.12
251.931	84.12
252.164	72.12
252.397	88.12
252.63	77.12
252.863	83.12
253.096	96.12
253.329	72.12
253.562	84.12
253.795	75.12
254.028	67.12
254.261	85.12
254.494	93.12
254.727	86.12
254.96	73.12
255.193	88.12
255.426	62.12
255.659	89.12
255.892	94.12
256.124	83.12
256.357	94.12
256.59	89.12
256.823	70.12
257.056	99.12
257.289	93.12
257.521	87.12
257.754	81.12
257.987	83.12
258.22	89.12
258.452	86.12
258.685	68.12
258.918	76.12
259.151	85.12
259.383	84.12
259.616	87.12
259.849	78.12
260.081	86.12
260.314	92.12
260.547	84.12
260.779	104.12
261.012	93.12
261.244	102.12
261.477	92.12
261.71	77.12
261.942	128.12
262.175	142.12
262.407	103.12
262.64	85.12
262.872	84.12
263.105	78.12
263.337	93.12
263.57	82.12
263.802	94.12
264.035	82.12
264.267	73.12
264.499	88.12
264.732	88.12
264.964	82.12
265.197	68.12
265.429	75.12
265.661	78.12
265.894	90.12
266.126	80.12
266.358	85.12
266.591	84.12
266.823	91.12
267.055	102.12
267.287	86.12
267.52	93.12
267.752	81.12
267.984	83.12
268.216	76.12
268.448	89.12
268.681	77.12
268.913	87.12
269.145	72.12
269.377	78.12
269.609	76.12
269.841	81.12
270.073	91.12
270.306	86.12
270.538	83.12
270.77	86.12
271.002	87.12
271.234	73.12
271.466	100.12
271.698	96.12
271.93	81.12
272.162	92.12
272.394	90.12
272.626	91.12
272.858	101.12
273.09	97.12
273.322	82.12
273.553	98.12
273.785	88.12
274.017	69.12
274.249	71.12
274.481	77.12
274.713	89.12
274.945	92.12
275.176	96.12
275.408	92.12
275.64	94.12
275.872	105.12
276.104	91.12
276.335	93.12
276.567	101.12
276.799	121.12
277.031	151.12
277.262	148.12
277.494	117.12
277.726	99.12
277.957	84.12
278.189	97.12
278.421	83.12
278.652	95.12
278.884	94.12
279.115	89.12
279.347	87.12
279.579	70.12
279.81	106.12
280.042	116.12
280.273	172.12
280.505	127.12
280.736	102.12
280.968	99.12
281.199	94.12
281.431	89.12
281.662	80.12
281.894	95.12
282.125	106.12
282.356	135.12
282.588	182.12
282.819	126.12
283.051	94.12
283.282	90.12
283.513	94.12
283.745	89.12
283.976	85.12
284.207	82.12
284.439	88.12
284.67	83.12
284.901	92.12
285.132	80.12
285.364	98.12
285.595	96.12
285.826	87.12
286.057	87.12
286.288	83.12
286.52	90.12
286.751	93.12
286.982	76.12
287.213	90.12
287.444	96.12
287.675	97.12
287.906	85.12
288.138	102.12
288.369	85.12
288.6	98.12
288.831	94.12
289.062	88.12
289.293	90.12
289.524	72.12
289.755	88.12
289.986	82.12
290.217	81.12
290.448	87.12
290.679	94.12
290.91	87.12
291.141	104.12
291.371	66.12
291.602	92.12
291.833	83.12
292.064	78.12
292.295	80.12
292.526	77.12
292.757	86.12
292.987	84.12
293.218	80.12
293.449	107.12
293.68	98.12
293.91	88.12
294.141	74.12
294.372	98.12
294.603	91.12
294.833	91.12
295.064	97.12
295.295	97.12
295.525	93.12
295.756	106.12
295.987	135.12
296.217	150.12
296.448	152.12
296.679	85.12
296.909	91.12
297.14	86.12
297.37	99.12
297.601	98.12
297.831	84.12
298.062	90.12
298.292	93.12
298.523	86.12
298.753	100.12
298.984	72.12
299.214	99.12
299.445	96.12
299.675	93.12
299.905	98.12
300.136	85.12
300.366	92.12
300.597	91.12
300.827	89.12
301.057	92.12
301.288	120.12
301.518	103.12
301.748	80.12
301.979	99.12
302.209	101.12
302.439	82.12
302.669	82.12
302.9	98.12
303.13	102.12
303.36	98.12
303.59	101.12
303.82	130.12
304.051	106.12
304.281	105.12
304.511	98.12
304.741	89.12
304.971	82.12
305.201	99.12
305.431	92.12
305.661	89.12
305.891	98.12
306.121	100.12
306.352	113.12
306.582	111.12
306.812	85.12
307.042	103.12
307.272	119.12
307.502	135.12
307.731	136.12
307.961	108.12
308.191	88.12
308.421	94.12
308.651	101.12
308.881	99.12
309.111	95.12
309.341	106.12
309.571	98.12
309.8	114.12
310.03	96.12
310.26	115.12
310.49	102.12
310.72	113.12
310.949	109.12
311.179	112.12
311.409	110.12
311.639	109.12
311.868	117.12
312.098	109.12
312.328	100.12
312.557	116.12
312.787	103.12
313.017	106.12
313.246	109.12
313.476	105.12
313.706	99.12
313.935	84.12
314.165	98.12
314.394	105.12
314.624	94.12
314.853	99.12
315.083	75.12
315.312	99.12
315.542	96.12
315.771	99.12
316.001	91.12
316.23	99.12
316.46	83.12
316.689	95.12
316.919	92.12
317.148	92.12
317.377	107.12
317.607	97.12
317.836	94.12
318.065	90.12
318.295	110.12
318.524	92.12
318.753	85.12
318.983	96.12
319.212	88.12
319.441	118.12
319.67	121.12
319.9	89.12
320.129	101.12
320.358	102.12
320.587	96.12
320.816	105.12
321.046	104.12
321.275	95.12
321.504	95.12
321.733	105.12
321.962	101.12
322.191	109.12
322.42	109.12
322.649	132.12
322.878	122.12
323.108	131.12
323.337	139.12
323.566	148.12
323.795	179.12
324.024	228.12
324.253	479.12
324.482	1035.12
324.71	2185.12
324.939	2886.12
325.168	1052.12
325.397	300.12
325.626	183.12
325.855	137.12
326.084	153.12
326.313	137.12
326.542	194.12
326.77	237.12
326.999	542.12
327.228	1160.12
327.457	2152.12
327.686	1679.12
327.914	504.12
328.143	386.12
328.372	425.12
328.6	265.12
328.829	165.12
329.058	180.12
329.287	172.12
329.515	151.12
329.744	186.12
329.972	324.12
330.201	544.12
330.43	814.12
330.658	415.12
330.887	249.12
331.115	180.12
331.344	134.12
331.572	102.12
331.801	126.12
332.03	112.12
332.258	112.12
332.486	93.12
332.715	118.12
332.943	114.12
333.172	112.12
333.4	103.12
333.629	141.12
333.857	192.12
334.085	284.12
334.314	532.12
334.542	969.12
334.771	954.12
334.999	272.12
335.227	148.12
335.455	126.12
335.684	105.12
335.912	93.12
336.14	95.12
336.369	117.12
336.597	96.12
336.825	108.12
337.053	102.12
337.281	101.12
337.51	99.12
337.738	89.12
337.966	89.12
338.194	96.12
338.422	95.12
338.65	93.12
338.878	90.12
339.106	91.12
339.334	94.12
339.562	109.12
339.79	84.12
340.018	96.12
340.246	95.12
340.474	87.12
340.702	95.12
340.93	101.12
341.158	87.12
341.386	108.12
341.614	94.12
341.842	92.12
342.07	83.12
342.298	94.12
342.526	83.12
342.754	85.12
342.981	88.12
343.209	99.12
343.437	99.12
343.665	84.12
343.893	87.12
344.12	90.12
344.348	105.12
344.576	88.12
344.804	99.12
345.031	96.12
345.259	93.12
345.487	117.12
345.714	97.12
345.942	82.12
346.17	97.12
346.397	103.12
346.625	97.12
346.853	94.12
347.08	90.12
347.308	106.12
347.535	93.12
347.763	107.12
347.99	92.12
348.218	107.12
348.445	106.12
348.673	104.12
348.9	91.12
349.128	98.12
349.355	101.12
349.583	92.12
349.81	84.12
350.037	105.12
350.265	103.12
350.492	80.12
350.72	102.12
350.947	100.12
351.174	124.12
351.402	118.12
351.629	109.12
351.856	108.12
352.083	118.12
352.311	108.12
352.538	112.12
352.765	127.12
352.992	109.12
353.22	118.12
353.447	112.12
353.674	109.12
353.901	91.12
354.128	94.12
354.355	91.12
354.583	97.12
354.81	98.12
355.037	89.12
355.264	106.12
355.491	84.12
355.718	94.12
355.945	91.12
356.172	99.12
356.399	101.12
356.626	98.12
356.853	77.12
357.08	92.12
357.307	79.12
357.534	82.12
357.761	78.12
357.988	90.12
358.215	94.12
358.441	106.12
358.668	89.12
358.895	83.12
359.122	102.12
359.349	85.12
359.576	101.12
359.802	95.12
360.029	136.12
360.256	120.12
360.483	108.12
360.709	87.12
360.936	86.12
361.163	103.12
361.39	93.12
361.616	106.12
361.843	101.12
362.07	114.12
362.296	99.12
362.523	92.12
362.749	98.12
362.976	93.12
363.203	106.12
363.429	88.12
363.656	90.12
363.882	82.12
364.109	87.12
364.335	91.12
364.562	101.12
364.788	96.12
365.015	109.12
365.241	114.12
365.468	101.12
365.694	124.12
365.92	97.12
366.147	106.12
366.373	100.12
366.599	82.12
366.826	83.12
367.052	89.12
367.278	91.12
367.505	94.12
367.731	106.12
367.957	98.12
368.184	97.12
368.41	107.12
368.636	128.12
368.862	146.12
369.089	128.12
369.315	103.12
369.541	88.12
369.767	113.12
369.993	92.12
370.219	92.12
370.445	80.12
370.672	83.12
370.898	95.12
371.124	92.12
371.35	94.12
371.576	90.12
371.802	73.12
372.028	100.12
372.254	90.12
372.48	81.12
372.706	86.12
372.932	89.12
373.158	83.12
373.384	89.12
373.61	87.12
373.835	82.12
374.061	85.12
374.287	96.12
374.513	96.12
374.739	82.12
374.965	80.12
375.191	85.12
375.416	83.12
375.642	98.12
375.868	94.12
376.094	77.12
376.319	83.12
376.545	77.12
376.771	87.12
376.997	86.12
377.222	86.12
377.448	113.12
377.674	83.12
377.899	92.12
378.125	94.12
378.35	92.12
378.576	93.12
378.802	86.12
379.027	101.12
379.253	96.12
379.478	88.12
379.704	111.12
379.929	105.12
380.155	91.12
380.38	88.12
380.606	84.12
380.831	100.12
381.057	105.12
381.282	99.12
381.507	98.12
381.733	89.12
381.958	97.12
382.184	112.12
382.409	101.12
382.634	93.12
382.86	104.12
383.085	108.12
383.31	89.12
383.535	90.12
383.761	94.12
383.986	92.12
384.211	104.12
384.436	102.12
384.662	91.12
384.887	108.12
385.112	98.12
385.337	111.12
385.562	116.12
385.787	105.12
386.013	125.12
386.238	132.12
386.463	118.12
386.688	134.12
386.913	113.12
387.138	112.12
387.363	103.12
387.588	113.12
387.813	92.12
388.038	122.12
388.263	125.12
388.488	110.12
388.713	92.12
388.938	86.12
389.163	99.12
389.387	84.12
389.612	106.12
389.837	106.12
390.062	87.12
390.287	91.12
390.512	102.12
390.736	92.12
390.961	93.12
391.186	87.12
391.411	82.12
391.636	86.12
391.86	61.12
392.085	77.12
392.31	85.12
392.534	94.12
392.759	75.12
392.984	89.12
393.208	89.12
393.433	97.12
393.658	84.12
393.882	86.12
394.107	86.12
394.331	83.12
394.556	88.12
394.78	95.12
395.005	89.12
395.229	85.12
395.454	87.12
395.678	82.12
395.903	98.12
396.127	94.12
396.352	94.12
396.576	96.12
396.801	86.12
397.025	78.12
397.249	83.12
397.474	81.12
397.698	90.12
397.922	84.12
398.147	93.12
398.371	96.12
398.595	84.12
398.82	93.12
399.044	78.12
399.268	82.12
399.492	86.12
399.717	100.12
399.941	92.12
400.165	101.12
400.389	93.12
400.613	76.12
400.837	82.12
401.062	91.12
401.286	95.12
401.51	86.12
401.734	108.12
401.958	105.12
402.182	154.12
402.406	186.12
402.63	144.12
402.854	85.12
403.078	102.12
403.302	89.12
403.526	94.12
403.75	83.12
403.974	73.12
404.198	81.12
404.422	97.12
404.645	83.12
404.869	85.12
405.093	120.12
405.317	132.12
405.541	120.12
405.765	115.12
405.988	133.12
406.212	202.12
406.436	295.12
406.66	188.12
406.883	114.12
407.107	99.12
407.331	100.12
407.555	100.12
407.778	97.12
408.002	87.12
408.226	104.12
408.449	98.12
408.673	99.12
408.896	108.12
409.12	96.12
409.344	87.12
409.567	86.12
409.791	81.12
410.014	107.12
410.238	86.12
410.461	88.12
410.685	80.12
410.908	82.12
411.132	93.12
411.355	107.12
411.578	87.12
411.802	82.12
412.025	89.12
412.249	85.12
412.472	113.12
412.695	119.12
412.919	102.12
413.142	83.12
413.365	103.12
413.589	97.12
413.812	93.12
414.035	90.12
414.258	107.12
414.482	95.12
414.705	94.12
414.928	95.12
415.151	113.12
415.374	91.12
415.597	93.12
415.821	96.12
416.044	85.12
416.267	77.12
416.49	92.12
416.713	80.12
416.936	86.12
417.159	108.12
417.382	89.12
417.605	100.12
417.828	108.12
418.051	103.12
418.274	86.12
418.497	85.12
418.72	81.12
418.943	73.12
419.166	84.12
419.389	91.12
419.611	79.12
419.834	91.12
420.057	106.12
420.28	98.12
420.503	92.12
420.726	80.12
420.948	94.12
421.171	104.12
421.394	85.12
421.617	97.12
421.839	94.12
422.062	107.12
422.285	88.12
422.507	100.12
422.73	105.12
422.953	110.12
423.175	85.12
423.398	98.12
423.621	106.12
423.843	85.12
424.066	98.12
424.288	74.12
424.511	88.12
424.733	84.12
424.956	120.12
425.178	93.12
425.401	93.12
425.623	96.12
425.846	100.12
426.068	109.12
426.291	97.12
426.513	94.12
426.735	74.12
426.958	83.12
427.18	117.12
427.402	174.12
427.625	226.12
427.847	205.12
428.069	192.12
428.292	108.12
428.514	106.12
428.736	88.12
428.958	92.12
429.181	79.12
429.403	94.12
429.625	85.12
429.847	96.12
430.069	101.12
430.292	88.12
430.514	80.12
430.736	73.12
430.958	83.12
431.18	66.12
431.402	95.12
431.624	85.12
431.846	75.12
432.068	87.12
432.29	92.12
432.512	82.12
432.734	96.12
432.956	92.12
433.178	88.12
433.4	111.12
433.622	105.12
433.844	81.12
434.066	91.12
434.287	83.12
434.509	93.12
434.731	102.12
434.953	88.12
435.175	101.12
435.397	92.12
435.618	98.12
435.84	99.12
436.062	122.12
436.284	108.12
436.505	106.12
436.727	99.12
436.949	88.12
437.17	90.12
437.392	99.12
437.614	106.12
437.835	116.12
438.057	141.12
438.278	115.12
438.5	111.12
438.721	148.12
438.943	112.12
439.165	85.12
439.386	77.12
439.608	84.12
439.829	104.12
440.05	145.12
440.272	180.12
440.493	109.12
440.715	97.12
440.936	100.12
441.158	81.12
441.379	90.12
441.6	102.12
441.822	101.12
442.043	96.12
442.264	117.12
442.486	112.12
442.707	95.12
442.928	131.12
443.149	171.12
443.371	169.12
443.592	141.12
443.813	122.12
444.034	120.12
444.255	105.12
444.476	80.12
444.698	92.12
444.919	87.12
445.14	130.12
445.361	120.12
445.582	136.12
445.803	169.12
446.024	184.12
446.245	163.12
446.466	120.12
446.687	91.12
446.908	106.12
447.129	93.12
447.35	106.12
447.571	83.12
447.792	108.12
448.013	99.12
448.234	124.12
448.455	116.12
448.675	116.12
448.896	142.12
449.117	111.12
449.338	125.12
449.559	132.12
449.779	149.12
450	95.12
450.221	82.12
450.442	104.12
450.662	102.12
450.883	140.12
451.104	135.12
451.324	87.12
451.545	102.12
451.766	85.12
451.986	108.12
452.207	102.12
452.428	108.12
452.648	113.12
452.869	129.12
453.089	132.12
453.31	135.12
453.53	114.12
453.751	100.12
453.971	116.12
454.192	117.12
454.412	95.12
454.633	90.12
454.853	91.12
455.073	99.12
455.294	92.12
455.514	100.12
455.734	88.12
455.955	91.12
456.175	70.12
456.395	84.12
456.616	85.12
456.836	76.12
457.056	85.12
457.276	74.12
457.497	87.12
457.717	98.12
457.937	93.12
458.157	86.12
458.377	97.12
458.598	113.12
458.818	201.12
459.038	208.12
459.258	148.12
459.478	90.12
459.698	93.12
459.918	76.12
460.138	83.12
460.358	86.12
460.578	102.12
460.798	101.12
461.018	89.12
461.238	83.12
461.458	85.12
461.678	100.12
461.898	86.12
462.118	89.12
462.338	92.12
462.558	90.12
462.777	96.12
462.997	90.12
463.217	100.12
463.437	85.12
463.657	83.12
463.876	95.12
464.096	93.12
464.316	100.12
464.536	96.12
464.755	119.12
464.975	113.12
465.195	214.12
465.414	226.12
465.634	101.12
465.854	94.12
466.073	96.12
466.293	100.12
466.512	89.12
466.732	76.12
466.951	96.12
467.171	94.12
467.391	100.12
467.61	124.12
467.829	172.12
468.049	341.12
468.268	486.12
468.488	155.12
468.707	104.12
468.927	78.12
469.146	85.12
469.365	92.12
469.585	91.12
469.804	111.12
470.023	104.12
470.243	107.12
470.462	122.12
470.681	131.12
470.901	90.12
471.12	92.12
471.339	101.12
471.558	112.12
471.777	123.12
471.997	204.12
472.216	611.12
472.435	1340.12
472.654	356.12
472.873	132.12
473.092	100.12
473.311	97.12
473.53	75.12
473.749	95.12
473.968	108.12
474.187	115.12
474.406	88.12
474.625	85.12
474.844	93.12
475.063	84.12
475.282	95.12
475.501	80.12
475.72	97.12
475.939	89.12
476.158	98.12
476.377	104.12
476.596	89.12
476.814	110.12
477.033	106.12
477.252	93.12
477.471	95.12
477.69	107.12
477.908	101.12
478.127	93.12
478.346	106.12
478.564	96.12
478.783	116.12
479.002	117.12
479.22	107.12
479.439	115.12
479.658	105.12
479.876	131.12
480.095	89.12
480.313	108.12
480.532	122.12
480.751	196.12
480.969	579.12
481.188	2282.12
481.406	1360.12
481.624	252.12
481.843	117.12
482.061	101.12
482.28	98.12
482.498	99.12
482.717	95.12
482.935	93.12
483.153	91.12
483.372	92.12
483.59	89.12
483.808	97.12
484.027	79.12
484.245	100.12
484.463	84.12
484.681	105.12
484.9	96.12
485.118	90.12
485.336	97.12
485.554	93.12
485.772	108.12
485.99	106.12
486.209	106.12
486.427	105.12
486.645	134.12
486.863	125.12
487.081	119.12
487.299	101.12
487.517	85.12
487.735	87.12
487.953	100.12
488.171	105.12
488.389	113.12
488.607	94.12
488.825	99.12
489.043	89.12
489.261	101.12
489.479	96.12
489.696	85.12
489.914	95.12
490.132	78.12
490.35	96.12
490.568	96.12
490.786	100.12
491.003	85.12
491.221	92.12
491.439	95.12
491.657	105.12
491.874	104.12
492.092	97.12
492.31	107.12
492.527	94.12
492.745	93.12
492.963	87.12
493.18	91.12
493.398	97.12
493.615	105.12
493.833	93.12
494.05	83.12
494.268	97.12
494.485	112.12
494.703	95.12
494.92	90.12
495.138	88.12
495.355	108.12
495.573	93.12
495.79	96.12
496.008	103.12
496.225	79.12
496.442	111.12
496.66	100.12
496.877	98.12
497.094	82.12
497.312	81.12
497.529	85.12
497.746	83.12
497.963	98.12
498.181	87.12
498.398	103.12
498.615	105.12
498.832	106.12
499.049	91.12
499.267	88.12
499.484	101.12
499.701	111.12
499.918	92.12
500.135	98.12
500.352	83.12
500.569	105.12
500.786	82.12
501.003	83.12
501.22	88.12
501.437	95.12
501.654	112.12
501.871	125.12
502.088	95.12
502.305	102.12
502.522	98.12
502.739	74.12
502.956	88.12
503.172	98.12
503.389	105.12
503.606	112.12
503.823	117.12
504.04	92.12
504.256	88.12
504.473	88.12
504.69	84.12
504.907	93.12
505.123	95.12
505.34	93.12
505.557	100.12
505.773	106.12
505.99	80.12
506.207	86.12
506.423	88.12
506.64	103.12
506.856	87.12
507.073	89.12
507.289	91.12
507.506	101.12
507.722	130.12
507.939	128.12
508.155	104.12
508.372	109.12
508.588	94.12
508.805	113.12
509.021	119.12
509.238	106.12
509.454	100.12
509.67	98.12
509.887	102.12
510.103	134.12
510.319	245.12
510.536	925.12
510.752	3176.12
510.968	864.12
511.184	192.12
511.401	110.12
511.617	114.12
511.833	107.12
512.049	81.12
512.265	84.12
512.481	95.12
512.698	104.12
512.914	92.12
513.13	92.12
513.346	103.12
513.562	110.12
513.778	116.12
513.994	105.12
514.21	89.12
514.426	133.12
514.642	179.12
514.858	150.12
515.074	216.12
515.29	664.12
515.506	2490.12
515.721	872.12
515.937	222.12
516.153	141.12
516.369	91.12
516.585	111.12
516.801	102.12
517.016	95.12
517.232	93.12
517.448	103.12
517.664	104.12
517.879	97.12
518.095	92.12
518.311	102.12
518.527	95.12
518.742	94.12
518.958	98.12
519.173	97.12
519.389	98.12
519.605	115.12
519.82	108.12
520.036	116.12
520.251	155.12
520.467	146.12
520.682	111.12
520.898	116.12
521.113	119.12
521.329	186.12
521.544	278.12
521.76	879.12
521.975	4077.12
522.19	2423.12
522.406	496.12
522.621	144.12
522.836	101.12
523.052	100.12
523.267	102.12
523.482	97.12
523.698	108.12
523.913	158.12
524.128	112.12
524.343	91.12
524.559	104.12
524.774	102.12
524.989	102.12
525.204	132.12
525.419	111.12
525.634	90.12
525.849	82.12
526.064	96.12
526.28	96.12
526.495	82.12
526.71	85.12
526.925	99.12
527.14	99.12
527.355	84.12
527.57	77.12
527.785	98.12
527.999	87.12
528.214	96.12
528.429	96.12
528.644	98.12
528.859	97.12
529.074	83.12
529.289	133.12
529.503	256.12
529.718	106.12
529.933	88.12
530.148	93.12
530.363	90.12
530.577	104.12
530.792	92.12
531.007	99.12
531.221	98.12
531.436	90.12
531.651	86.12
531.865	91.12
532.08	96.12
532.295	90.12
532.509	92.12
532.724	97.12
532.938	96.12
533.153	102.12
533.367	93.12
533.582	96.12
533.796	104.12
534.011	86.12
534.225	104.12
534.44	92.12
534.654	106.12
534.868	90.12
535.083	93.12
535.297	114.12
535.511	108.12
535.726	115.12
535.94	104.12
536.154	106.12
536.369	88.12
536.583	90.12
536.797	86.12
537.011	83.12
537.225	96.12
537.44	102.12
537.654	87.12
537.868	92.12
538.082	84.12
538.296	85.12
538.51	82.12
538.724	84.12
538.938	88.12
539.153	96.12
539.367	114.12
539.581	102.12
539.795	78.12
540.009	105.12
540.222	79.12
540.436	90.12
540.65	90.12
540.864	109.12
541.078	110.12
541.292	70.12
541.506	94.12
541.72	96.12
541.934	83.12
542.147	82.12
542.361	87.12
542.575	92.12
542.789	79.12
543.002	96.12
543.216	104.12
543.43	89.12
543.644	93.12
543.857	79.12
544.071	84.12
544.285	94.12
544.498	84.12
544.712	90.12
544.925	104.12
545.139	91.12
545.352	89.12
545.566	85.12
545.779	90.12
545.993	88.12
546.206	94.12
546.42	77.12
546.633	93.12
546.847	87.12
547.06	94.12
547.274	83.12
547.487	80.12
547.7	84.12
547.914	94.12
548.127	90.12
548.34	98.12
548.554	98.12
548.767	97.12
548.98	85.12
549.193	94.12
549.407	68.12
549.62	84.12
549.833	95.12
550.046	81.12
550.259	77.12
550.473	93.12
550.686	89.12
550.899	94.12
551.112	81.12
551.325	88.12
551.538	100.12
551.751	98.12
551.964	91.12
552.177	84.12
552.39	113.12
552.603	98.12
552.816	91.12
553.029	93.12
553.242	94.12
553.455	102.12
553.667	105.12
553.88	103.12
554.093	110.12
554.306	98.12
554.519	95.12
554.732	94.12
554.944	92.12
555.157	96.12
555.37	86.12
555.583	99.12
555.795	89.12
556.008	88.12
556.221	98.12
556.433	90.12
556.646	101.12
556.859	97.12
557.071	100.12
557.284	100.12
557.496	80.12
557.709	93.12
557.921	78.12
558.134	88.12
558.346	74.12
558.559	88.12
558.771	78.12
558.984	79.12
559.196	102.12
559.409	89.12
559.621	90.12
559.833	96.12
560.046	84.12
560.258	99.12
560.47	113.12
560.683	113.12
560.895	101.12
561.107	109.12
561.32	93.12
561.532	100.12
561.744	84.12
561.956	87.12
562.168	83.12
562.381	80.12
562.593	96.12
562.805	103.12
563.017	91.12
563.229	100.12
563.441	86.12
563.653	92.12
563.865	89.12
564.077	93.12
564.289	84.12
564.501	96.12
564.713	90.12
564.925	99.12
565.137	105.12
565.349	81.12
565.561	97.12
565.773	97.12
565.985	85.12
566.197	86.12
566.408	88.12
566.62	85.12
566.832	91.12
567.044	87.12
567.255	81.12
567.467	93.12
567.679	87.12
567.891	85.12
568.102	89.12
568.314	95.12
568.526	79.12
568.737	102.12
568.949	100.12
569.161	86.12
569.372	87.12
569.584	98.12
569.795	98.12
570.007	125.12
570.218	302.12
570.43	150.12
570.641	99.12
570.853	100.12
571.064	93.12
571.276	91.12
571.487	82.12
571.698	100.12
571.91	77.12
572.121	88.12
572.333	85.12
572.544	80.12
572.755	92.12
572.966	84.12
573.178	87.12
573.389	94.12
573.6	101.12
573.811	89.12
574.023	83.12
574.234	82.12
574.445	98.12
574.656	81.12
574.867	78.12
575.078	83.12
575.289	81.12
575.501	86.12
575.712	88.12
575.923	98.12
576.134	82.12
576.345	98.12
576.556	94.12
576.767	90.12
576.978	100.12
577.188	107.12
577.399	107.12
577.61	93.12
577.821	97.12
578.032	117.12
578.243	305.12
578.454	1033.12
578.665	261.12
578.875	115.12
579.086	87.12
579.297	82.12
579.508	101.12
579.718	87.12
579.929	92.12
580.14	80.12
580.35	78.12
580.561	88.12
580.772	88.12
580.982	97.12
581.193	93.12
581.403	89.12
581.614	76.12
581.825	95.12
582.035	93.12
582.246	93.12
582.456	91.12
582.667	84.12
582.877	77.12
583.087	88.12
583.298	97.12
583.508	89.12
583.719	108.12
583.929	94.12
584.139	99.12
584.35	70.12
584.56	92.12
584.77	85.12
584.981	81.12
585.191	95.12
585.401	98.12
585.611	79.12
585.821	84.12
586.032	104.12
586.242	85.12
586.452	76.12
586.662	86.12
586.872	62.12
587.082	80.12
587.292	78.12
587.502	80.12
587.713	88.12
587.923	91.12
588.133	80.12
588.343	87.12
588.553	83.12
588.762	80.12
588.972	106.12
589.182	132.12
589.392	111.12
589.602	88.12
589.812	99.12
590.022	91.12
590.232	79.12
590.441	86.12
590.651	83.12
590.861	85.12
591.071	104.12
591.281	96.12
591.49	81.12
591.7	84.12
591.91	84.12
592.119	86.12
592.329	89.12
592.539	102.12
592.748	93.12
592.958	98.12
593.167	85.12
593.377	73.12
593.587	101.12
593.796	77.12
594.006	75.12
594.215	91.12
594.424	87.12
594.634	80.12
594.843	84.12
595.053	89.12
595.262	73.12
595.472	71.12
595.681	78.12
595.89	80.12
596.1	89.12
596.309	88.12
596.518	76.12
596.727	89.12
596.937	86.12
597.146	86.12
597.355	95.12
597.564	81.12
597.774	89.12
597.983	74.12
598.192	87.12
598.401	88.12
598.61	88.12
598.819	87.12
599.028	80.12
599.237	84.12
599.446	85.12
599.655	83.12
599.864	84.12
600.073	91.12
600.282	92.12
600.491	67.12
600.7	80.12
600.909	100.12
601.118	84.12
601.327	83.12
601.536	83.12
601.745	93.12
601.953	82.12
602.162	76.12
602.371	88.12
602.58	91.12
602.789	90.12
602.997	91.12
603.206	72.12
603.415	86.12
603.623	68.12
603.832	82.12
604.041	79.12
604.249	84.12
604.458	100.12
604.666	87.12
604.875	77.12
605.084	78.12
605.292	83.12
605.501	93.12
605.709	79.12
605.918	78.12
606.126	75.12
606.334	78.12
606.543	90.12
606.751	95.12
606.96	89.12
607.168	96.12
607.376	91.12
607.585	96.12
607.793	105.12
608.001	92.12
608.21	82.12
608.418	88.12
608.626	88.12
608.834	82.12
609.043	72.12
609.251	86.12
609.459	80.12
609.667	94.12
609.875	64.12
610.083	72.12
610.291	76.12
610.499	86.12
610.707	83.12
610.916	86.12
611.124	90.12
611.332	82.12
611.54	89.12
611.748	82.12
611.955	78.12
612.163	80.12
612.371	87.12
612.579	83.12
612.787	93.12
612.995	87.12
613.203	81.12
613.411	79.12
613.618	80.12
613.826	98.12
614.034	85.12
614.242	85.12
614.449	91.12
614.657	93.12
614.865	90.12
615.072	73.12
615.28	89.12
615.488	98.12
615.695	97.12
615.903	99.12
616.111	83.12
616.318	98.12
616.526	97.12
616.733	86.12
616.941	93.12
617.148	93.12
617.356	94.12
617.563	74.12
617.771	98.12
617.978	90.12
618.185	87.12
618.393	95.12
618.6	76.12
618.807	88.12
619.015	85.12
619.222	87.12
619.429	91.12
619.637	97.12
619.844	96.12
620.051	86.12
620.258	81.12
620.466	89.12
620.673	78.12
620.88	89.12
621.087	94.12
621.294	67.12
621.501	83.12
621.708	80.12
621.915	85.12
622.122	90.12
622.329	93.12
622.536	73.12
622.743	72.12
622.95	80.12
623.157	88.12
623.364	89.12
623.571	77.12
623.778	87.12
623.985	101.12
624.192	80.12
624.399	74.12
624.606	94.12
624.812	75.12
625.019	78.12
625.226	93.12
625.433	95.12
625.639	93.12
625.846	85.12
626.053	77.12
626.259	98.12
626.466	80.12
626.673	81.12
626.879	84.12
627.086	91.12
627.293	92.12
627.499	78.12
627.706	93.12
627.912	88.12
628.119	86.12
628.325	94.12
628.532	91.12
628.738	73.12
628.945	85.12
629.151	83.12
629.357	91.12
629.564	80.12
629.77	77.12
629.976	92.12
630.183	75.12
630.389	87.12
630.595	78.12
630.802	83.12
631.008	76.12
631.214	84.12
631.42	81.12
631.627	79.12
631.833	85.12
632.039	76.12
632.245	81.12
632.451	88.12
632.657	74.12
632.863	98.12
633.069	84.12
633.275	93.12
633.481	106.12
633.688	78.12
633.893	90.12
634.099	79.12
634.305	82.12
634.511	84.12
634.717	88.12
634.923	91.12
635.129	66.12
635.335	86.12
635.541	87.12
635.747	82.12
635.952	88.12
636.158	113.12
636.364	220.12
636.57	216.12
636.775	112.12
636.981	84.12
637.187	92.12
637.392	84.12
637.598	73.12
637.804	72.12
638.009	90.12
638.215	92.12
638.421	82.12
638.626	87.12
638.832	80.12
639.037	85.12
639.243	83.12
639.448	83.12
639.654	76.12
639.859	89.12
640.065	81.12
640.27	93.12
640.475	82.12
640.681	81.12
640.886	84.12
641.091	92.12
641.297	87.12
641.502	90.12
641.707	84.12
641.913	85.12
642.118	75.12
642.323	77.12
642.528	88.12
642.733	85.12
642.939	88.12
643.144	77.12
643.349	84.12
643.554	82.12
643.759	93.12
643.964	72.12
644.169	77.12
644.374	65.12
644.579	81.12
644.784	92.12
644.989	90.12
645.194	87.12
645.399	93.12
645.604	96.12
645.809	77.12
646.014	80.12
646.219	83.12
646.423	84.12
646.628	93.12
646.833	89.12
647.038	89.12
647.243	102.12
647.447	93.12
647.652	82.12
647.857	96.12
648.062	89.12
648.266	90.12
648.471	80.12
648.676	88.12
648.88	89.12
649.085	89.12
649.289	87.12
649.494	105.12
649.698	145.12
649.903	105.12
650.107	74.12
650.312	91.12
650.516	84.12
650.721	78.12
650.925	82.12
651.13	80.12
651.334	84.12
651.539	89.12
651.743	88.12
651.947	69.12
652.152	93.12
652.356	107.12
652.56	85.12
652.764	82.12
652.969	86.12
653.173	70.12
653.377	80.12
653.581	72.12
653.785	80.12
653.99	86.12
654.194	87.12
654.398	82.12
654.602	86.12
654.806	94.12
655.01	108.12
655.214	84.12
655.418	88.12
655.622	84.12
655.826	86.12
656.03	89.12
656.234	90.12
656.438	95.12
656.642	91.12
656.846	90.12
657.049	90.12
657.253	83.12
657.457	81.12
657.661	87.12
657.865	84.12
658.068	89.12
658.272	91.12
658.476	81.12
658.68	85.12
658.883	83.12
659.087	80.12
659.291	95.12
659.494	77.12
659.698	85.12
659.901	76.12
660.105	84.12
660.309	70.12
660.512	84.12
660.716	90.12
660.919	74.12
661.123	86.12
661.326	86.12
661.53	69.12
661.733	82.12
661.936	77.12
662.14	72.12
662.343	76.12
662.546	72.12
662.75	84.12
662.953	77.12
663.156	76.12
663.36	76.12
663.563	83.12
663.766	90.12
663.969	98.12
664.173	80.12
664.376	76.12
664.579	72.12
664.782	77.12
664.985	97.12
665.188	93.12
665.391	76.12
665.594	78.12
665.797	94.12
666	76.12
666.203	91.12
666.406	85.12
666.609	78.12
666.812	83.12
667.015	85.12
667.218	78.12
667.421	80.12
667.624	86.12
667.827	92.12
668.03	71.12
668.232	77.12
668.435	87.12
668.638	77.12
668.841	67.12
669.043	90.12
669.246	74.12
669.449	84.12
669.651	90.12
669.854	80.12
670.057	75.12
670.259	76.12
670.462	85.12
670.665	88.12
670.867	83.12
671.07	91.12
671.272	73.12
671.475	100.12
671.677	70.12
671.88	87.12
672.082	61.12
672.284	71.12
672.487	90.12
672.689	86.12
672.892	74.12
