Data from Circ_1984_H10_HRD10591_00100.txt Node
Date: Wed Jan 03 12:23:02 EST 2024
User: Yrep
Spectrometer: HR+D1059
Trigger mode: 1
Integration Time (sec): 1.000000E-1
Scans to average: 1
Electric dark correction enabled: true
Nonlinearity correction enabled: false
Boxcar width: 0
XAxis mode: Wavelengths
Number of Pixels in Spectrum: 2048
>>>>>Begin Spectral Data<<<<<
223.165	-26.25
223.4	-26.25
223.635	-26.25
223.869	-17.25
224.104	-20.25
224.338	-22.25
224.573	-12.25
224.808	-18.25
225.042	-9.25
225.277	-10.25
225.511	-4.25
225.746	21.75
225.98	7.75
226.215	17.75
226.449	7.75
226.683	19.75
226.918	29.75
227.152	35.75
227.387	23.75
227.621	52.75
227.856	52.75
228.09	45.75
228.324	40.75
228.559	63.75
228.793	57.75
229.027	63.75
229.262	63.75
229.496	72.75
229.73	81.75
229.964	80.75
230.199	78.75
230.433	60.75
230.667	85.75
230.901	90.75
231.136	81.75
231.37	77.75
231.604	76.75
231.838	78.75
232.072	80.75
232.306	89.75
232.541	80.75
232.775	84.75
233.009	81.75
233.243	79.75
233.477	65.75
233.711	81.75
233.945	92.75
234.179	77.75
234.413	83.75
234.647	82.75
234.881	69.75
235.115	89.75
235.349	85.75
235.583	97.75
235.817	80.75
236.051	76.75
236.285	68.75
236.519	58.75
236.753	65.75
236.987	79.75
237.221	82.75
237.455	64.75
237.689	76.75
237.922	71.75
238.156	78.75
238.39	67.75
238.624	67.75
238.858	74.75
239.091	79.75
239.325	71.75
239.559	68.75
239.793	82.75
240.027	89.75
240.26	68.75
240.494	87.75
240.728	64.75
240.961	80.75
241.195	62.75
241.429	76.75
241.662	81.75
241.896	76.75
242.13	90.75
242.363	88.75
242.597	85.75
242.83	84.75
243.064	84.75
243.298	86.75
243.531	80.75
243.765	73.75
243.998	77.75
244.232	84.75
244.465	74.75
244.699	68.75
244.932	85.75
245.166	70.75
245.399	65.75
245.633	81.75
245.866	76.75
246.099	87.75
246.333	77.75
246.566	79.75
246.8	92.75
247.033	81.75
247.266	86.75
247.5	65.75
247.733	68.75
247.966	73.75
248.2	91.75
248.433	72.75
248.666	75.75
248.899	72.75
249.133	100.75
249.366	97.75
249.599	98.75
249.832	77.75
250.066	80.75
250.299	81.75
250.532	80.75
250.765	74.75
250.998	83.75
251.231	79.75
251.465	83.75
251.698	68.75
251.931	74.75
252.164	80.75
252.397	105.75
252.63	82.75
252.863	73.75
253.096	82.75
253.329	80.75
253.562	82.75
253.795	81.75
254.028	83.75
254.261	78.75
254.494	76.75
254.727	82.75
254.96	85.75
255.193	66.75
255.426	73.75
255.659	90.75
255.892	83.75
256.124	76.75
256.357	79.75
256.59	79.75
256.823	76.75
257.056	89.75
257.289	84.75
257.521	89.75
257.754	76.75
257.987	87.75
258.22	95.75
258.452	85.75
258.685	86.75
258.918	66.75
259.151	89.75
259.383	84.75
259.616	89.75
259.849	90.75
260.081	65.75
260.314	81.75
260.547	82.75
260.779	83.75
261.012	90.75
261.244	79.75
261.477	72.75
261.71	96.75
261.942	114.75
262.175	105.75
262.407	83.75
262.64	76.75
262.872	79.75
263.105	76.75
263.337	92.75
263.57	85.75
263.802	81.75
264.035	81.75
264.267	80.75
264.499	71.75
264.732	84.75
264.964	86.75
265.197	73.75
265.429	79.75
265.661	81.75
265.894	63.75
266.126	99.75
266.358	80.75
266.591	85.75
266.823	86.75
267.055	82.75
267.287	86.75
267.52	86.75
267.752	87.75
267.984	80.75
268.216	76.75
268.448	69.75
268.681	84.75
268.913	83.75
269.145	88.75
269.377	92.75
269.609	88.75
269.841	75.75
270.073	83.75
270.306	77.75
270.538	84.75
270.77	79.75
271.002	87.75
271.234	93.75
271.466	89.75
271.698	95.75
271.93	93.75
272.162	92.75
272.394	88.75
272.626	97.75
272.858	76.75
273.09	79.75
273.322	92.75
273.553	77.75
273.785	77.75
274.017	86.75
274.249	85.75
274.481	75.75
274.713	99.75
274.945	83.75
275.176	79.75
275.408	90.75
275.64	99.75
275.872	93.75
276.104	90.75
276.335	95.75
276.567	95.75
276.799	95.75
277.031	96.75
277.262	97.75
277.494	103.75
277.726	92.75
277.957	81.75
278.189	83.75
278.421	91.75
278.652	83.75
278.884	96.75
279.115	85.75
279.347	91.75
279.579	90.75
279.81	83.75
280.042	96.75
280.273	105.75
280.505	93.75
280.736	86.75
280.968	88.75
281.199	89.75
281.431	79.75
281.662	79.75
281.894	75.75
282.125	99.75
282.356	113.75
282.588	122.75
282.819	110.75
283.051	73.75
283.282	73.75
283.513	100.75
283.745	83.75
283.976	80.75
284.207	89.75
284.439	101.75
284.67	87.75
284.901	81.75
285.132	88.75
285.364	71.75
285.595	73.75
285.826	85.75
286.057	84.75
286.288	81.75
286.52	85.75
286.751	99.75
286.982	94.75
287.213	91.75
287.444	92.75
287.675	97.75
287.906	83.75
288.138	96.75
288.369	103.75
288.6	89.75
288.831	81.75
289.062	83.75
289.293	87.75
289.524	75.75
289.755	86.75
289.986	91.75
290.217	73.75
290.448	74.75
290.679	83.75
290.91	84.75
291.141	91.75
291.371	91.75
291.602	84.75
291.833	85.75
292.064	79.75
292.295	98.75
292.526	94.75
292.757	85.75
292.987	100.75
293.218	94.75
293.449	86.75
293.68	99.75
293.91	83.75
294.141	100.75
294.372	88.75
294.603	85.75
294.833	93.75
295.064	92.75
295.295	77.75
295.525	98.75
295.756	96.75
295.987	115.75
296.217	113.75
296.448	113.75
296.679	80.75
296.909	88.75
297.14	81.75
297.37	100.75
297.601	85.75
297.831	92.75
298.062	92.75
298.292	83.75
298.523	91.75
298.753	87.75
298.984	81.75
299.214	92.75
299.445	83.75
299.675	89.75
299.905	82.75
300.136	83.75
300.366	90.75
300.597	98.75
300.827	88.75
301.057	93.75
301.288	118.75
301.518	88.75
301.748	90.75
301.979	105.75
302.209	104.75
302.439	102.75
302.669	84.75
302.9	83.75
303.13	95.75
303.36	92.75
303.59	112.75
303.82	99.75
304.051	101.75
304.281	96.75
304.511	94.75
304.741	87.75
304.971	92.75
305.201	92.75
305.431	90.75
305.661	73.75
305.891	88.75
306.121	99.75
306.352	105.75
306.582	99.75
306.812	105.75
307.042	105.75
307.272	109.75
307.502	119.75
307.731	123.75
307.961	100.75
308.191	95.75
308.421	82.75
308.651	89.75
308.881	91.75
309.111	89.75
309.341	87.75
309.571	106.75
309.8	117.75
310.03	83.75
310.26	98.75
310.49	97.75
310.72	99.75
310.949	102.75
311.179	73.75
311.409	83.75
311.639	82.75
311.868	85.75
312.098	91.75
312.328	86.75
312.557	109.75
312.787	108.75
313.017	93.75
313.246	92.75
313.476	87.75
313.706	96.75
313.935	91.75
314.165	100.75
314.394	89.75
314.624	98.75
314.853	85.75
315.083	100.75
315.312	93.75
315.542	96.75
315.771	88.75
316.001	87.75
316.23	91.75
316.46	88.75
316.689	88.75
316.919	100.75
317.148	93.75
317.377	102.75
317.607	104.75
317.836	82.75
318.065	72.75
318.295	96.75
318.524	94.75
318.753	85.75
318.983	96.75
319.212	81.75
319.441	109.75
319.67	104.75
319.9	94.75
320.129	98.75
320.358	101.75
320.587	119.75
320.816	107.75
321.046	100.75
321.275	97.75
321.504	109.75
321.733	99.75
321.962	91.75
322.191	102.75
322.42	113.75
322.649	99.75
322.878	104.75
323.108	103.75
323.337	100.75
323.566	130.75
323.795	150.75
324.024	164.75
324.253	311.75
324.482	682.75
324.71	1359.75
324.939	1772.75
325.168	673.75
325.397	219.75
325.626	139.75
325.855	128.75
326.084	127.75
326.313	116.75
326.542	143.75
326.77	200.75
326.999	376.75
327.228	744.75
327.457	1389.75
327.686	1075.75
327.914	326.75
328.143	223.75
328.372	215.75
328.6	152.75
328.829	123.75
329.058	128.75
329.287	113.75
329.515	98.75
329.744	122.75
329.972	187.75
330.201	249.75
330.43	328.75
330.658	194.75
330.887	153.75
331.115	124.75
331.344	113.75
331.572	98.75
331.801	105.75
332.03	102.75
332.258	98.75
332.486	89.75
332.715	104.75
332.943	108.75
333.172	96.75
333.4	84.75
333.629	113.75
333.857	134.75
334.085	165.75
334.314	240.75
334.542	425.75
334.771	386.75
334.999	162.75
335.227	118.75
335.455	95.75
335.684	95.75
335.912	100.75
336.14	101.75
336.369	95.75
336.597	104.75
336.825	112.75
337.053	105.75
337.281	98.75
337.51	80.75
337.738	98.75
337.966	91.75
338.194	101.75
338.422	96.75
338.65	101.75
338.878	91.75
339.106	86.75
339.334	80.75
339.562	92.75
339.79	78.75
340.018	84.75
340.246	105.75
340.474	99.75
340.702	108.75
340.93	90.75
341.158	107.75
341.386	102.75
341.614	88.75
341.842	97.75
342.07	97.75
342.298	86.75
342.526	97.75
342.754	92.75
342.981	87.75
343.209	87.75
343.437	104.75
343.665	105.75
343.893	83.75
344.12	106.75
344.348	106.75
344.576	86.75
344.804	90.75
345.031	90.75
345.259	96.75
345.487	99.75
345.714	102.75
345.942	90.75
346.17	97.75
346.397	100.75
346.625	89.75
346.853	89.75
347.08	89.75
347.308	98.75
347.535	90.75
347.763	101.75
347.99	84.75
348.218	91.75
348.445	101.75
348.673	99.75
348.9	81.75
349.128	112.75
349.355	96.75
349.583	94.75
349.81	85.75
350.037	88.75
350.265	95.75
350.492	109.75
350.72	101.75
350.947	107.75
351.174	98.75
351.402	115.75
351.629	98.75
351.856	114.75
352.083	100.75
352.311	108.75
352.538	105.75
352.765	110.75
352.992	114.75
353.22	111.75
353.447	97.75
353.674	105.75
353.901	97.75
354.128	100.75
354.355	84.75
354.583	96.75
354.81	103.75
355.037	93.75
355.264	97.75
355.491	95.75
355.718	85.75
355.945	103.75
356.172	100.75
356.399	88.75
356.626	81.75
356.853	92.75
357.08	103.75
357.307	98.75
357.534	89.75
357.761	86.75
357.988	84.75
358.215	99.75
358.441	103.75
358.668	80.75
358.895	99.75
359.122	89.75
359.349	96.75
359.576	93.75
359.802	98.75
360.029	101.75
360.256	99.75
360.483	91.75
360.709	82.75
360.936	84.75
361.163	81.75
361.39	106.75
361.616	90.75
361.843	100.75
362.07	101.75
362.296	99.75
362.523	83.75
362.749	100.75
362.976	87.75
363.203	102.75
363.429	85.75
363.656	83.75
363.882	89.75
364.109	107.75
364.335	83.75
364.562	86.75
364.788	93.75
365.015	97.75
365.241	97.75
365.468	106.75
365.694	103.75
365.92	113.75
366.147	88.75
366.373	99.75
366.599	86.75
366.826	95.75
367.052	83.75
367.278	110.75
367.505	96.75
367.731	88.75
367.957	91.75
368.184	84.75
368.41	96.75
368.636	106.75
368.862	109.75
369.089	106.75
369.315	92.75
369.541	108.75
369.767	92.75
369.993	89.75
370.219	90.75
370.445	87.75
370.672	89.75
370.898	75.75
371.124	91.75
371.35	108.75
371.576	94.75
371.802	75.75
372.028	90.75
372.254	99.75
372.48	87.75
372.706	99.75
372.932	87.75
373.158	91.75
373.384	86.75
373.61	91.75
373.835	87.75
374.061	103.75
374.287	83.75
374.513	92.75
374.739	101.75
374.965	104.75
375.191	99.75
375.416	84.75
375.642	91.75
375.868	91.75
376.094	88.75
376.319	87.75
376.545	88.75
376.771	90.75
376.997	90.75
377.222	91.75
377.448	93.75
377.674	93.75
377.899	83.75
378.125	86.75
378.35	77.75
378.576	91.75
378.802	83.75
379.027	96.75
379.253	96.75
379.478	89.75
379.704	86.75
379.929	99.75
380.155	92.75
380.38	89.75
380.606	100.75
380.831	99.75
381.057	97.75
381.282	102.75
381.507	99.75
381.733	86.75
381.958	93.75
382.184	84.75
382.409	91.75
382.634	101.75
382.86	83.75
383.085	83.75
383.31	111.75
383.535	116.75
383.761	94.75
383.986	93.75
384.211	95.75
384.436	95.75
384.662	109.75
384.887	87.75
385.112	93.75
385.337	95.75
385.562	83.75
385.787	99.75
386.013	99.75
386.238	109.75
386.463	101.75
386.688	106.75
386.913	85.75
387.138	116.75
387.363	102.75
387.588	104.75
387.813	92.75
388.038	106.75
388.263	100.75
388.488	111.75
388.713	98.75
388.938	94.75
389.163	86.75
389.387	92.75
389.612	86.75
389.837	91.75
390.062	101.75
390.287	97.75
390.512	95.75
390.736	97.75
390.961	93.75
391.186	93.75
391.411	96.75
391.636	83.75
391.86	73.75
392.085	83.75
392.31	81.75
392.534	70.75
392.759	95.75
392.984	83.75
393.208	86.75
393.433	96.75
393.658	105.75
393.882	95.75
394.107	84.75
394.331	80.75
394.556	91.75
394.78	86.75
395.005	90.75
395.229	79.75
395.454	100.75
395.678	83.75
395.903	84.75
396.127	78.75
396.352	73.75
396.576	81.75
396.801	79.75
397.025	95.75
397.249	83.75
397.474	88.75
397.698	92.75
397.922	85.75
398.147	88.75
398.371	107.75
398.595	90.75
398.82	87.75
399.044	80.75
399.268	88.75
399.492	86.75
399.717	85.75
399.941	81.75
400.165	91.75
400.389	79.75
400.613	97.75
400.837	94.75
401.062	99.75
401.286	91.75
401.51	83.75
401.734	91.75
401.958	98.75
402.182	113.75
402.406	121.75
402.63	107.75
402.854	87.75
403.078	91.75
403.302	103.75
403.526	77.75
403.75	74.75
403.974	86.75
404.198	87.75
404.422	87.75
404.645	88.75
404.869	80.75
405.093	89.75
405.317	108.75
405.541	82.75
405.765	104.75
405.988	110.75
406.212	143.75
406.436	203.75
406.66	136.75
406.883	95.75
407.107	91.75
407.331	104.75
407.555	92.75
407.778	107.75
408.002	75.75
408.226	84.75
408.449	83.75
408.673	92.75
408.896	91.75
409.12	97.75
409.344	92.75
409.567	90.75
409.791	87.75
410.014	91.75
410.238	88.75
410.461	92.75
410.685	104.75
410.908	99.75
411.132	109.75
411.355	101.75
411.578	98.75
411.802	90.75
412.025	94.75
412.249	89.75
412.472	106.75
412.695	116.75
412.919	104.75
413.142	96.75
413.365	90.75
413.589	67.75
413.812	88.75
414.035	96.75
414.258	95.75
414.482	87.75
414.705	77.75
414.928	98.75
415.151	104.75
415.374	112.75
415.597	94.75
415.821	82.75
416.044	81.75
416.267	89.75
416.49	87.75
416.713	96.75
416.936	97.75
417.159	95.75
417.382	80.75
417.605	89.75
417.828	101.75
418.051	82.75
418.274	83.75
418.497	89.75
418.72	83.75
418.943	75.75
419.166	85.75
419.389	83.75
419.611	95.75
419.834	88.75
420.057	89.75
420.28	91.75
420.503	79.75
420.726	86.75
420.948	93.75
421.171	77.75
421.394	84.75
421.617	83.75
421.839	70.75
422.062	95.75
422.285	85.75
422.507	109.75
422.73	102.75
422.953	91.75
423.175	93.75
423.398	85.75
423.621	115.75
423.843	80.75
424.066	85.75
424.288	100.75
424.511	99.75
424.733	89.75
424.956	113.75
425.178	100.75
425.401	95.75
425.623	103.75
425.846	96.75
426.068	92.75
426.291	96.75
426.513	94.75
426.735	83.75
426.958	89.75
427.18	103.75
427.402	118.75
427.625	153.75
427.847	143.75
428.069	132.75
428.292	97.75
428.514	85.75
428.736	77.75
428.958	92.75
429.181	87.75
429.403	95.75
429.625	91.75
429.847	85.75
430.069	74.75
430.292	79.75
430.514	81.75
430.736	91.75
430.958	101.75
431.18	87.75
431.402	93.75
431.624	81.75
431.846	89.75
432.068	73.75
432.29	99.75
432.512	86.75
432.734	87.75
432.956	92.75
433.178	103.75
433.4	99.75
433.622	92.75
433.844	92.75
434.066	94.75
434.287	99.75
434.509	90.75
434.731	88.75
434.953	83.75
435.175	102.75
435.397	92.75
435.618	81.75
435.84	96.75
436.062	102.75
436.284	106.75
436.505	96.75
436.727	103.75
436.949	96.75
437.17	81.75
437.392	86.75
437.614	89.75
437.835	92.75
438.057	104.75
438.278	108.75
438.5	100.75
438.721	109.75
438.943	96.75
439.165	85.75
439.386	78.75
439.608	109.75
439.829	87.75
440.05	99.75
440.272	117.75
440.493	92.75
440.715	88.75
440.936	104.75
441.158	92.75
441.379	99.75
441.6	85.75
441.822	85.75
442.043	86.75
442.264	100.75
442.486	87.75
442.707	87.75
442.928	89.75
443.149	119.75
443.371	108.75
443.592	109.75
443.813	113.75
444.034	120.75
444.255	97.75
444.476	91.75
444.698	76.75
444.919	86.75
445.14	127.75
445.361	97.75
445.582	114.75
445.803	115.75
446.024	121.75
446.245	105.75
446.466	114.75
446.687	101.75
446.908	101.75
447.129	90.75
447.35	80.75
447.571	90.75
447.792	91.75
448.013	100.75
448.234	110.75
448.455	99.75
448.675	101.75
448.896	107.75
449.117	85.75
449.338	91.75
449.559	106.75
449.779	103.75
450	92.75
450.221	83.75
450.442	71.75
450.662	95.75
450.883	86.75
451.104	115.75
451.324	106.75
451.545	92.75
451.766	84.75
451.986	85.75
452.207	86.75
452.428	91.75
452.648	83.75
452.869	102.75
453.089	102.75
453.31	111.75
453.53	94.75
453.751	98.75
453.971	89.75
454.192	91.75
454.412	106.75
454.633	88.75
454.853	80.75
455.073	96.75
455.294	82.75
455.514	102.75
455.734	96.75
455.955	89.75
456.175	87.75
456.395	96.75
456.616	71.75
456.836	88.75
457.056	85.75
457.276	86.75
457.497	90.75
457.717	81.75
457.937	89.75
458.157	84.75
458.377	83.75
458.598	101.75
458.818	129.75
459.038	158.75
459.258	105.75
459.478	95.75
459.698	98.75
459.918	97.75
460.138	85.75
460.358	88.75
460.578	77.75
460.798	92.75
461.018	82.75
461.238	95.75
461.458	76.75
461.678	81.75
461.898	77.75
462.118	79.75
462.338	84.75
462.558	107.75
462.777	84.75
462.997	77.75
463.217	84.75
463.437	95.75
463.657	89.75
463.876	87.75
464.096	88.75
464.316	84.75
464.536	74.75
464.755	78.75
464.975	104.75
465.195	144.75
465.414	134.75
465.634	91.75
465.854	79.75
466.073	86.75
466.293	75.75
466.512	82.75
466.732	91.75
466.951	92.75
467.171	99.75
467.391	100.75
467.61	100.75
467.829	107.75
468.049	173.75
468.268	218.75
468.488	89.75
468.707	95.75
468.927	76.75
469.146	85.75
469.365	75.75
469.585	75.75
469.804	97.75
470.023	87.75
470.243	86.75
470.462	101.75
470.681	92.75
470.901	71.75
471.12	91.75
471.339	77.75
471.558	100.75
471.777	98.75
471.997	137.75
472.216	283.75
472.435	555.75
472.654	189.75
472.873	105.75
473.092	88.75
473.311	86.75
473.53	95.75
473.749	106.75
473.968	88.75
474.187	85.75
474.406	82.75
474.625	91.75
474.844	69.75
475.063	84.75
475.282	86.75
475.501	87.75
475.72	89.75
475.939	86.75
476.158	84.75
476.377	97.75
476.596	84.75
476.814	101.75
477.033	84.75
477.252	89.75
477.471	97.75
477.69	94.75
477.908	93.75
478.127	81.75
478.346	86.75
478.564	83.75
478.783	92.75
479.002	90.75
479.22	105.75
479.439	102.75
479.658	112.75
479.876	92.75
480.095	89.75
480.313	88.75
480.532	97.75
480.751	125.75
480.969	295.75
481.188	953.75
481.406	578.75
481.624	127.75
481.843	91.75
482.061	91.75
482.28	81.75
482.498	91.75
482.717	100.75
482.935	89.75
483.153	101.75
483.372	81.75
483.59	93.75
483.808	95.75
484.027	79.75
484.245	96.75
484.463	103.75
484.681	95.75
484.9	104.75
485.118	100.75
485.336	95.75
485.554	102.75
485.772	103.75
485.99	100.75
486.209	103.75
486.427	106.75
486.645	116.75
486.863	103.75
487.081	93.75
487.299	87.75
487.517	89.75
487.735	96.75
487.953	88.75
488.171	102.75
488.389	90.75
488.607	102.75
488.825	88.75
489.043	90.75
489.261	93.75
489.479	97.75
489.696	88.75
489.914	87.75
490.132	93.75
490.35	96.75
490.568	89.75
490.786	82.75
491.003	85.75
491.221	85.75
491.439	84.75
491.657	104.75
491.874	99.75
492.092	96.75
492.31	81.75
492.527	87.75
492.745	94.75
492.963	94.75
493.18	93.75
493.398	79.75
493.615	99.75
493.833	96.75
494.05	86.75
494.268	83.75
494.485	86.75
494.703	93.75
494.92	85.75
495.138	99.75
495.355	88.75
495.573	83.75
495.79	76.75
496.008	92.75
496.225	90.75
496.442	96.75
496.66	105.75
496.877	84.75
497.094	101.75
497.312	89.75
497.529	85.75
497.746	91.75
497.963	90.75
498.181	95.75
498.398	97.75
498.615	98.75
498.832	107.75
499.049	85.75
499.267	92.75
499.484	93.75
499.701	94.75
499.918	85.75
500.135	82.75
500.352	89.75
500.569	83.75
500.786	96.75
501.003	87.75
501.22	80.75
501.437	96.75
501.654	88.75
501.871	94.75
502.088	97.75
502.305	79.75
502.522	74.75
502.739	87.75
502.956	93.75
503.172	97.75
503.389	92.75
503.606	97.75
503.823	86.75
504.04	95.75
504.256	93.75
504.473	81.75
504.69	91.75
504.907	88.75
505.123	89.75
505.34	89.75
505.557	98.75
505.773	98.75
505.99	90.75
506.207	77.75
506.423	99.75
506.64	96.75
506.856	95.75
507.073	79.75
507.289	85.75
507.506	98.75
507.722	99.75
507.939	108.75
508.155	92.75
508.372	88.75
508.588	83.75
508.805	93.75
509.021	90.75
509.238	97.75
509.454	105.75
509.67	112.75
509.887	114.75
510.103	120.75
510.319	188.75
510.536	628.75
510.752	1925.75
510.968	555.75
511.184	149.75
511.401	107.75
511.617	95.75
511.833	93.75
512.049	100.75
512.265	96.75
512.481	99.75
512.698	75.75
512.914	102.75
513.13	97.75
513.346	101.75
513.562	80.75
513.778	98.75
513.994	104.75
514.21	101.75
514.426	105.75
514.642	120.75
514.858	115.75
515.074	146.75
515.29	365.75
515.506	1145.75
515.721	433.75
515.937	146.75
516.153	106.75
516.369	90.75
516.585	100.75
516.801	98.75
517.016	97.75
517.232	100.75
517.448	88.75
517.664	89.75
517.879	90.75
518.095	96.75
518.311	80.75
518.527	101.75
518.742	86.75
518.958	98.75
519.173	98.75
519.389	104.75
519.605	99.75
519.82	98.75
520.036	107.75
520.251	109.75
520.467	119.75
520.682	102.75
520.898	90.75
521.113	97.75
521.329	124.75
521.544	181.75
521.76	454.75
521.975	1870.75
522.19	1129.75
522.406	261.75
522.621	119.75
522.836	110.75
523.052	111.75
523.267	86.75
523.482	98.75
523.698	95.75
523.913	106.75
524.128	106.75
524.343	101.75
524.559	93.75
524.774	106.75
524.989	100.75
525.204	91.75
525.419	105.75
525.634	86.75
525.849	86.75
526.064	85.75
526.28	97.75
526.495	90.75
526.71	97.75
526.925	83.75
527.14	84.75
527.355	83.75
527.57	89.75
527.785	99.75
527.999	81.75
528.214	91.75
528.429	97.75
528.644	101.75
528.859	97.75
529.074	103.75
529.289	109.75
529.503	149.75
529.718	91.75
529.933	93.75
530.148	89.75
530.363	89.75
530.577	104.75
530.792	91.75
531.007	98.75
531.221	76.75
531.436	86.75
531.651	99.75
531.865	90.75
532.08	92.75
532.295	89.75
532.509	94.75
532.724	105.75
532.938	93.75
533.153	97.75
533.367	93.75
533.582	81.75
533.796	86.75
534.011	88.75
534.225	91.75
534.44	92.75
534.654	91.75
534.868	89.75
535.083	103.75
535.297	88.75
535.511	93.75
535.726	89.75
535.94	100.75
536.154	93.75
536.369	100.75
536.583	94.75
536.797	96.75
537.011	94.75
537.225	84.75
537.44	87.75
537.654	93.75
537.868	98.75
538.082	99.75
538.296	87.75
538.51	98.75
538.724	85.75
538.938	82.75
539.153	111.75
539.367	96.75
539.581	102.75
539.795	79.75
540.009	91.75
540.222	94.75
540.436	91.75
540.65	88.75
540.864	90.75
541.078	79.75
541.292	84.75
541.506	97.75
541.72	91.75
541.934	90.75
542.147	85.75
542.361	90.75
542.575	92.75
542.789	75.75
543.002	94.75
543.216	92.75
543.43	99.75
543.644	92.75
543.857	98.75
544.071	97.75
544.285	93.75
544.498	88.75
544.712	96.75
544.925	101.75
545.139	90.75
545.352	76.75
545.566	91.75
545.779	85.75
545.993	83.75
546.206	90.75
546.42	85.75
546.633	95.75
546.847	83.75
547.06	92.75
547.274	75.75
547.487	89.75
547.7	96.75
547.914	84.75
548.127	89.75
548.34	93.75
548.554	101.75
548.767	84.75
548.98	95.75
549.193	91.75
549.407	88.75
549.62	81.75
549.833	87.75
550.046	91.75
550.259	86.75
550.473	90.75
550.686	102.75
550.899	67.75
551.112	101.75
551.325	101.75
551.538	91.75
551.751	87.75
551.964	82.75
552.177	90.75
552.39	83.75
552.603	88.75
552.816	81.75
553.029	80.75
553.242	99.75
553.455	90.75
553.667	121.75
553.88	99.75
554.093	93.75
554.306	96.75
554.519	103.75
554.732	82.75
554.944	83.75
555.157	93.75
555.37	87.75
555.583	90.75
555.795	94.75
556.008	89.75
556.221	111.75
556.433	81.75
556.646	81.75
556.859	100.75
557.071	98.75
557.284	99.75
557.496	97.75
557.709	88.75
557.921	84.75
558.134	88.75
558.346	90.75
558.559	89.75
558.771	89.75
558.984	92.75
559.196	80.75
559.409	88.75
559.621	102.75
559.833	97.75
560.046	95.75
560.258	90.75
560.47	98.75
560.683	97.75
560.895	92.75
561.107	95.75
561.32	85.75
561.532	102.75
561.744	102.75
561.956	73.75
562.168	90.75
562.381	97.75
562.593	85.75
562.805	86.75
563.017	87.75
563.229	92.75
563.441	92.75
563.653	86.75
563.865	91.75
564.077	98.75
564.289	88.75
564.501	95.75
564.713	93.75
564.925	83.75
565.137	105.75
565.349	88.75
565.561	105.75
565.773	96.75
565.985	94.75
566.197	90.75
566.408	79.75
566.62	85.75
566.832	74.75
567.044	81.75
567.255	89.75
567.467	94.75
567.679	83.75
567.891	83.75
568.102	84.75
568.314	91.75
568.526	89.75
568.737	85.75
568.949	79.75
569.161	78.75
569.372	75.75
569.584	84.75
569.795	101.75
570.007	112.75
570.218	187.75
570.43	107.75
570.641	91.75
570.853	97.75
571.064	87.75
571.276	95.75
571.487	95.75
571.698	90.75
571.91	86.75
572.121	101.75
572.333	73.75
572.544	104.75
572.755	83.75
572.966	90.75
573.178	79.75
573.389	100.75
573.6	89.75
573.811	89.75
574.023	90.75
574.234	95.75
574.445	90.75
574.656	91.75
574.867	84.75
575.078	95.75
575.289	84.75
575.501	98.75
575.712	85.75
575.923	90.75
576.134	105.75
576.345	100.75
576.556	88.75
576.767	101.75
576.978	99.75
577.188	93.75
577.399	95.75
577.61	87.75
577.821	103.75
578.032	113.75
578.243	228.75
578.454	587.75
578.665	162.75
578.875	102.75
579.086	93.75
579.297	80.75
579.508	87.75
579.718	86.75
579.929	81.75
580.14	107.75
580.35	79.75
580.561	91.75
580.772	86.75
580.982	91.75
581.193	98.75
581.403	85.75
581.614	82.75
581.825	94.75
582.035	101.75
582.246	83.75
582.456	88.75
582.667	87.75
582.877	87.75
583.087	92.75
583.298	75.75
583.508	82.75
583.719	84.75
583.929	99.75
584.139	96.75
584.35	85.75
584.56	95.75
584.77	69.75
584.981	90.75
585.191	92.75
585.401	90.75
585.611	82.75
585.821	96.75
586.032	93.75
586.242	77.75
586.452	83.75
586.662	99.75
586.872	92.75
587.082	87.75
587.292	81.75
587.502	87.75
587.713	85.75
587.923	89.75
588.133	72.75
588.343	97.75
588.553	85.75
588.762	88.75
588.972	79.75
589.182	106.75
589.392	89.75
589.602	80.75
589.812	84.75
590.022	93.75
590.232	92.75
590.441	102.75
590.651	92.75
590.861	101.75
591.071	101.75
591.281	76.75
591.49	81.75
591.7	91.75
591.91	89.75
592.119	93.75
592.329	84.75
592.539	99.75
592.748	96.75
592.958	93.75
593.167	91.75
593.377	81.75
593.587	99.75
593.796	100.75
594.006	88.75
594.215	75.75
594.424	81.75
594.634	96.75
594.843	84.75
595.053	87.75
595.262	81.75
595.472	85.75
595.681	91.75
595.89	91.75
596.1	92.75
596.309	88.75
596.518	97.75
596.727	89.75
596.937	85.75
597.146	81.75
597.355	81.75
597.564	79.75
597.774	96.75
597.983	93.75
598.192	91.75
598.401	81.75
598.61	95.75
598.819	73.75
599.028	71.75
599.237	73.75
599.446	84.75
599.655	91.75
599.864	92.75
600.073	94.75
600.282	83.75
600.491	90.75
600.7	79.75
600.909	83.75
601.118	92.75
601.327	92.75
601.536	93.75
601.745	92.75
601.953	91.75
602.162	99.75
602.371	91.75
602.58	98.75
602.789	94.75
602.997	89.75
603.206	91.75
603.415	95.75
603.623	88.75
603.832	97.75
604.041	92.75
604.249	90.75
604.458	93.75
604.666	93.75
604.875	89.75
605.084	87.75
605.292	62.75
605.501	81.75
605.709	95.75
605.918	82.75
606.126	100.75
606.334	81.75
606.543	80.75
606.751	81.75
606.96	72.75
607.168	86.75
607.376	76.75
607.585	98.75
607.793	84.75
608.001	90.75
608.21	86.75
608.418	87.75
608.626	81.75
608.834	78.75
609.043	92.75
609.251	86.75
609.459	91.75
609.667	77.75
609.875	75.75
610.083	67.75
610.291	88.75
610.499	85.75
610.707	78.75
610.916	89.75
611.124	87.75
611.332	75.75
611.54	87.75
611.748	97.75
611.955	99.75
612.163	91.75
612.371	93.75
612.579	84.75
612.787	87.75
612.995	72.75
613.203	88.75
613.411	96.75
613.618	84.75
613.826	83.75
614.034	87.75
614.242	83.75
614.449	93.75
614.657	89.75
614.865	83.75
615.072	83.75
615.28	89.75
615.488	100.75
615.695	90.75
615.903	96.75
616.111	93.75
616.318	107.75
616.526	81.75
616.733	98.75
616.941	87.75
617.148	84.75
617.356	87.75
617.563	90.75
617.771	87.75
617.978	85.75
618.185	94.75
618.393	82.75
618.6	85.75
618.807	90.75
619.015	92.75
619.222	92.75
619.429	74.75
619.637	84.75
619.844	88.75
620.051	85.75
620.258	88.75
620.466	79.75
620.673	81.75
620.88	83.75
621.087	76.75
621.294	87.75
621.501	93.75
621.708	92.75
621.915	89.75
622.122	95.75
622.329	86.75
622.536	71.75
622.743	89.75
622.95	75.75
623.157	81.75
623.364	79.75
623.571	87.75
623.778	85.75
623.985	81.75
624.192	88.75
624.399	89.75
624.606	85.75
624.812	83.75
625.019	92.75
625.226	76.75
625.433	97.75
625.639	90.75
625.846	87.75
626.053	78.75
626.259	90.75
626.466	73.75
626.673	81.75
626.879	86.75
627.086	97.75
627.293	90.75
627.499	93.75
627.706	89.75
627.912	76.75
628.119	85.75
628.325	86.75
628.532	91.75
628.738	91.75
628.945	87.75
629.151	90.75
629.357	84.75
629.564	74.75
629.77	81.75
629.976	81.75
630.183	92.75
630.389	82.75
630.595	99.75
630.802	90.75
631.008	72.75
631.214	89.75
631.42	81.75
631.627	90.75
631.833	88.75
632.039	72.75
632.245	90.75
632.451	99.75
632.657	71.75
632.863	84.75
633.069	83.75
633.275	85.75
633.481	97.75
633.688	86.75
633.893	87.75
634.099	68.75
634.305	93.75
634.511	63.75
634.717	89.75
634.923	73.75
635.129	88.75
635.335	91.75
635.541	76.75
635.747	95.75
635.952	100.75
636.158	84.75
636.364	140.75
636.57	128.75
636.775	93.75
636.981	87.75
637.187	87.75
637.392	92.75
637.598	76.75
637.804	97.75
638.009	80.75
638.215	80.75
638.421	80.75
638.626	88.75
638.832	93.75
639.037	71.75
639.243	93.75
639.448	81.75
639.654	91.75
639.859	89.75
640.065	72.75
640.27	100.75
640.475	79.75
640.681	72.75
640.886	79.75
641.091	79.75
641.297	96.75
641.502	76.75
641.707	95.75
641.913	92.75
642.118	76.75
642.323	85.75
642.528	97.75
642.733	76.75
642.939	93.75
643.144	75.75
643.349	78.75
643.554	87.75
643.759	89.75
643.964	87.75
644.169	88.75
644.374	79.75
644.579	94.75
644.784	74.75
644.989	80.75
645.194	76.75
645.399	91.75
645.604	91.75
645.809	86.75
646.014	105.75
646.219	74.75
646.423	76.75
646.628	81.75
646.833	91.75
647.038	96.75
647.243	87.75
647.447	81.75
647.652	71.75
647.857	103.75
648.062	84.75
648.266	87.75
648.471	87.75
648.676	87.75
648.88	79.75
649.085	97.75
649.289	87.75
649.494	103.75
649.698	107.75
649.903	84.75
650.107	89.75
650.312	91.75
650.516	76.75
650.721	72.75
650.925	80.75
651.13	88.75
651.334	89.75
651.539	84.75
651.743	84.75
651.947	72.75
652.152	76.75
652.356	84.75
652.56	76.75
652.764	78.75
652.969	87.75
653.173	94.75
653.377	83.75
653.581	101.75
653.785	86.75
653.99	79.75
654.194	81.75
654.398	82.75
654.602	80.75
654.806	90.75
655.01	86.75
655.214	79.75
655.418	81.75
655.622	79.75
655.826	93.75
656.03	83.75
656.234	106.75
656.438	102.75
656.642	96.75
656.846	106.75
657.049	85.75
657.253	96.75
657.457	81.75
657.661	71.75
657.865	95.75
658.068	91.75
658.272	82.75
658.476	90.75
658.68	85.75
658.883	75.75
659.087	69.75
659.291	87.75
659.494	77.75
659.698	77.75
659.901	81.75
660.105	79.75
660.309	81.75
660.512	83.75
660.716	74.75
660.919	91.75
661.123	88.75
661.326	91.75
661.53	75.75
661.733	90.75
661.936	83.75
662.14	85.75
662.343	73.75
662.546	64.75
662.75	73.75
662.953	78.75
663.156	83.75
663.36	84.75
663.563	90.75
663.766	87.75
663.969	75.75
664.173	99.75
664.376	79.75
664.579	96.75
664.782	93.75
664.985	79.75
665.188	83.75
665.391	93.75
665.594	73.75
665.797	80.75
666	87.75
666.203	68.75
666.406	85.75
666.609	85.75
666.812	95.75
667.015	91.75
667.218	87.75
667.421	75.75
667.624	82.75
667.827	88.75
668.03	70.75
668.232	82.75
668.435	75.75
668.638	77.75
668.841	85.75
669.043	81.75
669.246	74.75
669.449	76.75
669.651	89.75
669.854	80.75
670.057	73.75
670.259	65.75
670.462	82.75
670.665	94.75
670.867	93.75
671.07	84.75
671.272	80.75
671.475	89.75
671.677	73.75
671.88	75.75
672.082	85.75
672.284	87.75
672.487	72.75
672.689	93.75
672.892	87.75
