Data from Circ_1984_H10_HRD10591_00027.txt Node
Date: Wed Jan 03 12:22:47 EST 2024
User: Yrep
Spectrometer: HR+D1059
Trigger mode: 1
Integration Time (sec): 1.000000E-1
Scans to average: 1
Electric dark correction enabled: true
Nonlinearity correction enabled: false
Boxcar width: 0
XAxis mode: Wavelengths
Number of Pixels in Spectrum: 2048
>>>>>Begin Spectral Data<<<<<
223.165	-27.5
223.4	-27.5
223.635	-27.5
223.869	-7.5
224.104	-23.5
224.338	-32.5
224.573	-17.5
224.808	-15.5
225.042	-8.5
225.277	-7.5
225.511	0.5
225.746	11.5
225.98	13.5
226.215	6.5
226.449	23.5
226.683	27.5
226.918	37.5
227.152	19.5
227.387	28.5
227.621	35.5
227.856	33.5
228.09	30.5
228.324	26.5
228.559	43.5
228.793	43.5
229.027	55.5
229.262	50.5
229.496	53.5
229.73	60.5
229.964	66.5
230.199	83.5
230.433	77.5
230.667	81.5
230.901	72.5
231.136	70.5
231.37	69.5
231.604	69.5
231.838	71.5
232.072	75.5
232.306	73.5
232.541	86.5
232.775	75.5
233.009	72.5
233.243	69.5
233.477	66.5
233.711	74.5
233.945	76.5
234.179	79.5
234.413	65.5
234.647	75.5
234.881	73.5
235.115	87.5
235.349	82.5
235.583	81.5
235.817	79.5
236.051	73.5
236.285	85.5
236.519	78.5
236.753	88.5
236.987	67.5
237.221	87.5
237.455	81.5
237.689	67.5
237.922	60.5
238.156	60.5
238.39	74.5
238.624	60.5
238.858	59.5
239.091	66.5
239.325	63.5
239.559	84.5
239.793	78.5
240.027	77.5
240.26	73.5
240.494	64.5
240.728	73.5
240.961	81.5
241.195	74.5
241.429	75.5
241.662	74.5
241.896	82.5
242.13	62.5
242.363	62.5
242.597	66.5
242.83	66.5
243.064	85.5
243.298	74.5
243.531	75.5
243.765	71.5
243.998	81.5
244.232	74.5
244.465	77.5
244.699	66.5
244.932	70.5
245.166	84.5
245.399	77.5
245.633	78.5
245.866	66.5
246.099	69.5
246.333	80.5
246.566	65.5
246.8	81.5
247.033	70.5
247.266	65.5
247.5	83.5
247.733	79.5
247.966	76.5
248.2	68.5
248.433	58.5
248.666	71.5
248.899	66.5
249.133	81.5
249.366	86.5
249.599	80.5
249.832	81.5
250.066	82.5
250.299	68.5
250.532	64.5
250.765	66.5
250.998	58.5
251.231	71.5
251.465	79.5
251.698	62.5
251.931	73.5
252.164	73.5
252.397	82.5
252.63	85.5
252.863	74.5
253.096	81.5
253.329	81.5
253.562	78.5
253.795	75.5
254.028	63.5
254.261	70.5
254.494	74.5
254.727	76.5
254.96	70.5
255.193	78.5
255.426	75.5
255.659	82.5
255.892	83.5
256.124	64.5
256.357	83.5
256.59	72.5
256.823	80.5
257.056	70.5
257.289	71.5
257.521	66.5
257.754	77.5
257.987	78.5
258.22	67.5
258.452	81.5
258.685	72.5
258.918	77.5
259.151	69.5
259.383	77.5
259.616	70.5
259.849	99.5
260.081	82.5
260.314	81.5
260.547	63.5
260.779	79.5
261.012	82.5
261.244	83.5
261.477	83.5
261.71	78.5
261.942	97.5
262.175	95.5
262.407	84.5
262.64	95.5
262.872	65.5
263.105	79.5
263.337	74.5
263.57	76.5
263.802	68.5
264.035	67.5
264.267	65.5
264.499	75.5
264.732	64.5
264.964	74.5
265.197	67.5
265.429	85.5
265.661	85.5
265.894	75.5
266.126	76.5
266.358	75.5
266.591	68.5
266.823	81.5
267.055	77.5
267.287	79.5
267.52	76.5
267.752	89.5
267.984	74.5
268.216	84.5
268.448	77.5
268.681	79.5
268.913	83.5
269.145	80.5
269.377	81.5
269.609	85.5
269.841	89.5
270.073	87.5
270.306	80.5
270.538	60.5
270.77	77.5
271.002	87.5
271.234	69.5
271.466	78.5
271.698	77.5
271.93	89.5
272.162	81.5
272.394	83.5
272.626	81.5
272.858	85.5
273.09	78.5
273.322	79.5
273.553	75.5
273.785	90.5
274.017	100.5
274.249	78.5
274.481	87.5
274.713	66.5
274.945	72.5
275.176	87.5
275.408	87.5
275.64	80.5
275.872	81.5
276.104	81.5
276.335	91.5
276.567	87.5
276.799	98.5
277.031	99.5
277.262	85.5
277.494	85.5
277.726	77.5
277.957	97.5
278.189	78.5
278.421	79.5
278.652	71.5
278.884	72.5
279.115	77.5
279.347	78.5
279.579	85.5
279.81	93.5
280.042	79.5
280.273	98.5
280.505	83.5
280.736	84.5
280.968	71.5
281.199	82.5
281.431	76.5
281.662	81.5
281.894	82.5
282.125	93.5
282.356	110.5
282.588	120.5
282.819	110.5
283.051	81.5
283.282	77.5
283.513	89.5
283.745	91.5
283.976	71.5
284.207	86.5
284.439	87.5
284.67	76.5
284.901	74.5
285.132	84.5
285.364	77.5
285.595	64.5
285.826	86.5
286.057	80.5
286.288	92.5
286.52	73.5
286.751	83.5
286.982	93.5
287.213	76.5
287.444	79.5
287.675	81.5
287.906	77.5
288.138	88.5
288.369	87.5
288.6	85.5
288.831	85.5
289.062	92.5
289.293	76.5
289.524	81.5
289.755	67.5
289.986	71.5
290.217	75.5
290.448	80.5
290.679	78.5
290.91	82.5
291.141	81.5
291.371	71.5
291.602	80.5
291.833	88.5
292.064	76.5
292.295	61.5
292.526	90.5
292.757	83.5
292.987	80.5
293.218	70.5
293.449	76.5
293.68	76.5
293.91	68.5
294.141	81.5
294.372	78.5
294.603	74.5
294.833	74.5
295.064	89.5
295.295	68.5
295.525	94.5
295.756	73.5
295.987	101.5
296.217	124.5
296.448	111.5
296.679	96.5
296.909	78.5
297.14	78.5
297.37	93.5
297.601	75.5
297.831	86.5
298.062	87.5
298.292	90.5
298.523	80.5
298.753	74.5
298.984	63.5
299.214	77.5
299.445	82.5
299.675	96.5
299.905	100.5
300.136	83.5
300.366	83.5
300.597	86.5
300.827	78.5
301.057	88.5
301.288	100.5
301.518	101.5
301.748	90.5
301.979	89.5
302.209	83.5
302.439	69.5
302.669	87.5
302.9	83.5
303.13	90.5
303.36	75.5
303.59	92.5
303.82	98.5
304.051	77.5
304.281	82.5
304.511	92.5
304.741	82.5
304.971	87.5
305.201	84.5
305.431	70.5
305.661	71.5
305.891	77.5
306.121	92.5
306.352	81.5
306.582	97.5
306.812	83.5
307.042	83.5
307.272	81.5
307.502	92.5
307.731	84.5
307.961	91.5
308.191	77.5
308.421	102.5
308.651	81.5
308.881	91.5
309.111	78.5
309.341	81.5
309.571	101.5
309.8	90.5
310.03	85.5
310.26	79.5
310.49	86.5
310.72	80.5
310.949	85.5
311.179	97.5
311.409	100.5
311.639	87.5
311.868	86.5
312.098	95.5
312.328	101.5
312.557	103.5
312.787	87.5
313.017	83.5
313.246	93.5
313.476	87.5
313.706	71.5
313.935	92.5
314.165	98.5
314.394	88.5
314.624	90.5
314.853	90.5
315.083	92.5
315.312	65.5
315.542	100.5
315.771	80.5
316.001	83.5
316.23	96.5
316.46	89.5
316.689	92.5
316.919	92.5
317.148	70.5
317.377	81.5
317.607	72.5
317.836	75.5
318.065	81.5
318.295	91.5
318.524	85.5
318.753	80.5
318.983	90.5
319.212	69.5
319.441	94.5
319.67	94.5
319.9	82.5
320.129	87.5
320.358	87.5
320.587	99.5
320.816	93.5
321.046	94.5
321.275	78.5
321.504	80.5
321.733	83.5
321.962	97.5
322.191	94.5
322.42	99.5
322.649	110.5
322.878	99.5
323.108	109.5
323.337	105.5
323.566	112.5
323.795	125.5
324.024	164.5
324.253	294.5
324.482	628.5
324.71	1273.5
324.939	1641.5
325.168	635.5
325.397	204.5
325.626	124.5
325.855	113.5
326.084	110.5
326.313	107.5
326.542	121.5
326.77	206.5
326.999	344.5
327.228	702.5
327.457	1268.5
327.686	1000.5
327.914	295.5
328.143	183.5
328.372	158.5
328.6	122.5
328.829	106.5
329.058	118.5
329.287	107.5
329.515	99.5
329.744	116.5
329.972	126.5
330.201	156.5
330.43	171.5
330.658	146.5
330.887	123.5
331.115	108.5
331.344	100.5
331.572	112.5
331.801	107.5
332.03	89.5
332.258	89.5
332.486	92.5
332.715	89.5
332.943	96.5
333.172	99.5
333.4	96.5
333.629	94.5
333.857	104.5
334.085	102.5
334.314	146.5
334.542	220.5
334.771	204.5
334.999	117.5
335.227	99.5
335.455	82.5
335.684	90.5
335.912	96.5
336.14	92.5
336.369	81.5
336.597	92.5
336.825	81.5
337.053	82.5
337.281	88.5
337.51	88.5
337.738	91.5
337.966	85.5
338.194	84.5
338.422	102.5
338.65	82.5
338.878	102.5
339.106	80.5
339.334	84.5
339.562	98.5
339.79	83.5
340.018	86.5
340.246	97.5
340.474	113.5
340.702	95.5
340.93	83.5
341.158	93.5
341.386	94.5
341.614	86.5
341.842	92.5
342.07	73.5
342.298	86.5
342.526	101.5
342.754	79.5
342.981	93.5
343.209	86.5
343.437	106.5
343.665	97.5
343.893	84.5
344.12	89.5
344.348	89.5
344.576	77.5
344.804	99.5
345.031	84.5
345.259	93.5
345.487	77.5
345.714	87.5
345.942	82.5
346.17	82.5
346.397	95.5
346.625	79.5
346.853	83.5
347.08	81.5
347.308	89.5
347.535	82.5
347.763	90.5
347.99	92.5
348.218	99.5
348.445	105.5
348.673	90.5
348.9	91.5
349.128	83.5
349.355	88.5
349.583	83.5
349.81	94.5
350.037	84.5
350.265	90.5
350.492	82.5
350.72	95.5
350.947	84.5
351.174	98.5
351.402	103.5
351.629	96.5
351.856	91.5
352.083	100.5
352.311	103.5
352.538	106.5
352.765	88.5
352.992	89.5
353.22	108.5
353.447	99.5
353.674	94.5
353.901	85.5
354.128	95.5
354.355	89.5
354.583	97.5
354.81	105.5
355.037	93.5
355.264	89.5
355.491	82.5
355.718	84.5
355.945	90.5
356.172	92.5
356.399	92.5
356.626	90.5
356.853	68.5
357.08	68.5
357.307	86.5
357.534	76.5
357.761	94.5
357.988	77.5
358.215	97.5
358.441	88.5
358.668	87.5
358.895	94.5
359.122	96.5
359.349	79.5
359.576	87.5
359.802	89.5
360.029	100.5
360.256	94.5
360.483	93.5
360.709	84.5
360.936	81.5
361.163	89.5
361.39	96.5
361.616	91.5
361.843	85.5
362.07	100.5
362.296	97.5
362.523	86.5
362.749	81.5
362.976	85.5
363.203	73.5
363.429	77.5
363.656	87.5
363.882	94.5
364.109	80.5
364.335	102.5
364.562	80.5
364.788	83.5
365.015	104.5
365.241	96.5
365.468	89.5
365.694	95.5
365.92	77.5
366.147	87.5
366.373	100.5
366.599	87.5
366.826	75.5
367.052	85.5
367.278	88.5
367.505	91.5
367.731	80.5
367.957	93.5
368.184	87.5
368.41	91.5
368.636	97.5
368.862	110.5
369.089	104.5
369.315	92.5
369.541	98.5
369.767	82.5
369.993	73.5
370.219	80.5
370.445	66.5
370.672	75.5
370.898	79.5
371.124	78.5
371.35	94.5
371.576	105.5
371.802	77.5
372.028	74.5
372.254	83.5
372.48	84.5
372.706	89.5
372.932	90.5
373.158	89.5
373.384	92.5
373.61	90.5
373.835	86.5
374.061	86.5
374.287	106.5
374.513	82.5
374.739	66.5
374.965	85.5
375.191	92.5
375.416	90.5
375.642	67.5
375.868	81.5
376.094	83.5
376.319	77.5
376.545	79.5
376.771	75.5
376.997	89.5
377.222	75.5
377.448	92.5
377.674	83.5
377.899	82.5
378.125	86.5
378.35	101.5
378.576	91.5
378.802	92.5
379.027	83.5
379.253	95.5
379.478	86.5
379.704	101.5
379.929	91.5
380.155	97.5
380.38	100.5
380.606	82.5
380.831	101.5
381.057	94.5
381.282	89.5
381.507	89.5
381.733	87.5
381.958	78.5
382.184	86.5
382.409	87.5
382.634	91.5
382.86	103.5
383.085	97.5
383.31	81.5
383.535	106.5
383.761	90.5
383.986	97.5
384.211	100.5
384.436	81.5
384.662	107.5
384.887	88.5
385.112	106.5
385.337	108.5
385.562	109.5
385.787	92.5
386.013	115.5
386.238	102.5
386.463	95.5
386.688	106.5
386.913	96.5
387.138	108.5
387.363	100.5
387.588	85.5
387.813	97.5
388.038	113.5
388.263	107.5
388.488	123.5
388.713	94.5
388.938	83.5
389.163	86.5
389.387	87.5
389.612	87.5
389.837	82.5
390.062	95.5
390.287	80.5
390.512	87.5
390.736	85.5
390.961	86.5
391.186	75.5
391.411	78.5
391.636	84.5
391.86	77.5
392.085	81.5
392.31	97.5
392.534	84.5
392.759	84.5
392.984	90.5
393.208	92.5
393.433	77.5
393.658	82.5
393.882	72.5
394.107	82.5
394.331	83.5
394.556	88.5
394.78	81.5
395.005	78.5
395.229	78.5
395.454	81.5
395.678	84.5
395.903	84.5
396.127	84.5
396.352	82.5
396.576	75.5
396.801	94.5
397.025	83.5
397.249	74.5
397.474	75.5
397.698	81.5
397.922	78.5
398.147	77.5
398.371	79.5
398.595	83.5
398.82	82.5
399.044	89.5
399.268	85.5
399.492	94.5
399.717	74.5
399.941	72.5
400.165	83.5
400.389	93.5
400.613	86.5
400.837	79.5
401.062	91.5
401.286	90.5
401.51	87.5
401.734	80.5
401.958	97.5
402.182	112.5
402.406	142.5
402.63	99.5
402.854	83.5
403.078	87.5
403.302	67.5
403.526	75.5
403.75	84.5
403.974	81.5
404.198	87.5
404.422	78.5
404.645	91.5
404.869	87.5
405.093	77.5
405.317	85.5
405.541	75.5
405.765	91.5
405.988	99.5
406.212	161.5
406.436	191.5
406.66	143.5
406.883	78.5
407.107	78.5
407.331	84.5
407.555	69.5
407.778	85.5
408.002	92.5
408.226	71.5
408.449	80.5
408.673	80.5
408.896	75.5
409.12	96.5
409.344	91.5
409.567	64.5
409.791	93.5
410.014	87.5
410.238	95.5
410.461	95.5
410.685	98.5
410.908	96.5
411.132	91.5
411.355	89.5
411.578	74.5
411.802	87.5
412.025	80.5
412.249	87.5
412.472	96.5
412.695	96.5
412.919	83.5
413.142	78.5
413.365	85.5
413.589	83.5
413.812	84.5
414.035	77.5
414.258	103.5
414.482	84.5
414.705	77.5
414.928	81.5
415.151	82.5
415.374	95.5
415.597	91.5
415.821	86.5
416.044	78.5
416.267	77.5
416.49	69.5
416.713	91.5
416.936	86.5
417.159	84.5
417.382	86.5
417.605	87.5
417.828	75.5
418.051	82.5
418.274	84.5
418.497	84.5
418.72	75.5
418.943	89.5
419.166	68.5
419.389	79.5
419.611	85.5
419.834	89.5
420.057	93.5
420.28	87.5
420.503	91.5
420.726	78.5
420.948	83.5
421.171	78.5
421.394	79.5
421.617	92.5
421.839	64.5
422.062	87.5
422.285	94.5
422.507	106.5
422.73	100.5
422.953	102.5
423.175	77.5
423.398	86.5
423.621	80.5
423.843	79.5
424.066	59.5
424.288	86.5
424.511	97.5
424.733	101.5
424.956	102.5
425.178	93.5
425.401	88.5
425.623	86.5
425.846	84.5
426.068	84.5
426.291	69.5
426.513	85.5
426.735	85.5
426.958	73.5
427.18	84.5
427.402	136.5
427.625	147.5
427.847	120.5
428.069	123.5
428.292	94.5
428.514	82.5
428.736	87.5
428.958	90.5
429.181	94.5
429.403	73.5
429.625	84.5
429.847	71.5
430.069	105.5
430.292	86.5
430.514	70.5
430.736	61.5
430.958	92.5
431.18	77.5
431.402	87.5
431.624	78.5
431.846	77.5
432.068	86.5
432.29	88.5
432.512	81.5
432.734	80.5
432.956	66.5
433.178	95.5
433.4	81.5
433.622	89.5
433.844	82.5
434.066	85.5
434.287	91.5
434.509	82.5
434.731	83.5
434.953	98.5
435.175	79.5
435.397	90.5
435.618	84.5
435.84	96.5
436.062	102.5
436.284	104.5
436.505	93.5
436.727	92.5
436.949	81.5
437.17	73.5
437.392	94.5
437.614	92.5
437.835	106.5
438.057	83.5
438.278	109.5
438.5	85.5
438.721	108.5
438.943	89.5
439.165	73.5
439.386	70.5
439.608	83.5
439.829	92.5
440.05	112.5
440.272	125.5
440.493	94.5
440.715	85.5
440.936	92.5
441.158	82.5
441.379	91.5
441.6	89.5
441.822	96.5
442.043	90.5
442.264	106.5
442.486	79.5
442.707	76.5
442.928	105.5
443.149	115.5
443.371	110.5
443.592	97.5
443.813	110.5
444.034	103.5
444.255	96.5
444.476	80.5
444.698	86.5
444.919	83.5
445.14	132.5
445.361	107.5
445.582	89.5
445.803	123.5
446.024	124.5
446.245	105.5
446.466	99.5
446.687	84.5
446.908	86.5
447.129	71.5
447.35	75.5
447.571	99.5
447.792	73.5
448.013	94.5
448.234	98.5
448.455	87.5
448.675	113.5
448.896	106.5
449.117	85.5
449.338	83.5
449.559	118.5
449.779	106.5
450	83.5
450.221	81.5
450.442	88.5
450.662	79.5
450.883	87.5
451.104	91.5
451.324	84.5
451.545	86.5
451.766	86.5
451.986	74.5
452.207	85.5
452.428	89.5
452.648	70.5
452.869	100.5
453.089	100.5
453.31	98.5
453.53	76.5
453.751	97.5
453.971	94.5
454.192	87.5
454.412	93.5
454.633	79.5
454.853	97.5
455.073	77.5
455.294	75.5
455.514	85.5
455.734	78.5
455.955	84.5
456.175	82.5
456.395	73.5
456.616	91.5
456.836	63.5
457.056	81.5
457.276	70.5
457.497	85.5
457.717	73.5
457.937	73.5
458.157	76.5
458.377	84.5
458.598	83.5
458.818	115.5
459.038	137.5
459.258	109.5
459.478	95.5
459.698	84.5
459.918	82.5
460.138	83.5
460.358	74.5
460.578	90.5
460.798	92.5
461.018	84.5
461.238	81.5
461.458	71.5
461.678	78.5
461.898	77.5
462.118	92.5
462.338	82.5
462.558	79.5
462.777	79.5
462.997	76.5
463.217	81.5
463.437	80.5
463.657	80.5
463.876	79.5
464.096	90.5
464.316	87.5
464.536	86.5
464.755	75.5
464.975	103.5
465.195	130.5
465.414	131.5
465.634	105.5
465.854	75.5
466.073	81.5
466.293	80.5
466.512	74.5
466.732	78.5
466.951	81.5
467.171	98.5
467.391	89.5
467.61	95.5
467.829	93.5
468.049	117.5
468.268	130.5
468.488	103.5
468.707	83.5
468.927	83.5
469.146	95.5
469.365	82.5
469.585	80.5
469.804	81.5
470.023	73.5
470.243	84.5
470.462	79.5
470.681	92.5
470.901	86.5
471.12	100.5
471.339	98.5
471.558	84.5
471.777	89.5
471.997	93.5
472.216	158.5
472.435	260.5
472.654	117.5
472.873	86.5
473.092	78.5
473.311	76.5
473.53	83.5
473.749	84.5
473.968	94.5
474.187	92.5
474.406	85.5
474.625	64.5
474.844	73.5
475.063	68.5
475.282	94.5
475.501	81.5
475.72	78.5
475.939	79.5
476.158	84.5
476.377	79.5
476.596	91.5
476.814	74.5
477.033	81.5
477.252	69.5
477.471	90.5
477.69	85.5
477.908	90.5
478.127	70.5
478.346	81.5
478.564	82.5
478.783	89.5
479.002	86.5
479.22	85.5
479.439	90.5
479.658	99.5
479.876	82.5
480.095	86.5
480.313	73.5
480.532	86.5
480.751	118.5
480.969	168.5
481.188	422.5
481.406	276.5
481.624	121.5
481.843	87.5
482.061	80.5
482.28	74.5
482.498	84.5
482.717	82.5
482.935	84.5
483.153	66.5
483.372	87.5
483.59	96.5
483.808	81.5
484.027	86.5
484.245	89.5
484.463	89.5
484.681	97.5
484.9	104.5
485.118	95.5
485.336	83.5
485.554	84.5
485.772	90.5
485.99	86.5
486.209	104.5
486.427	95.5
486.645	100.5
486.863	94.5
487.081	94.5
487.299	91.5
487.517	93.5
487.735	78.5
487.953	99.5
488.171	82.5
488.389	91.5
488.607	82.5
488.825	81.5
489.043	78.5
489.261	84.5
489.479	75.5
489.696	81.5
489.914	72.5
490.132	83.5
490.35	83.5
490.568	70.5
490.786	80.5
491.003	76.5
491.221	59.5
491.439	81.5
491.657	82.5
491.874	83.5
492.092	80.5
492.31	89.5
492.527	83.5
492.745	85.5
492.963	74.5
493.18	70.5
493.398	86.5
493.615	98.5
493.833	85.5
494.05	82.5
494.268	83.5
494.485	67.5
494.703	79.5
494.92	87.5
495.138	82.5
495.355	82.5
495.573	77.5
495.79	80.5
496.008	83.5
496.225	90.5
496.442	86.5
496.66	88.5
496.877	70.5
497.094	89.5
497.312	105.5
497.529	78.5
497.746	85.5
497.963	71.5
498.181	73.5
498.398	86.5
498.615	91.5
498.832	97.5
499.049	87.5
499.267	77.5
499.484	85.5
499.701	84.5
499.918	77.5
500.135	62.5
500.352	80.5
500.569	81.5
500.786	86.5
501.003	81.5
501.22	94.5
501.437	84.5
501.654	96.5
501.871	112.5
502.088	80.5
502.305	76.5
502.522	89.5
502.739	81.5
502.956	82.5
503.172	100.5
503.389	81.5
503.606	92.5
503.823	94.5
504.04	74.5
504.256	90.5
504.473	86.5
504.69	71.5
504.907	82.5
505.123	85.5
505.34	78.5
505.557	82.5
505.773	85.5
505.99	84.5
506.207	81.5
506.423	84.5
506.64	87.5
506.856	93.5
507.073	88.5
507.289	76.5
507.506	85.5
507.722	100.5
507.939	103.5
508.155	83.5
508.372	85.5
508.588	90.5
508.805	103.5
509.021	82.5
509.238	79.5
509.454	94.5
509.67	90.5
509.887	109.5
510.103	116.5
510.319	181.5
510.536	608.5
510.752	1975.5
510.968	542.5
511.184	133.5
511.401	96.5
511.617	105.5
511.833	89.5
512.049	86.5
512.265	68.5
512.481	88.5
512.698	83.5
512.914	86.5
513.13	89.5
513.346	90.5
513.562	78.5
513.778	73.5
513.994	73.5
514.21	92.5
514.426	92.5
514.642	115.5
514.858	98.5
515.074	132.5
515.29	344.5
515.506	1126.5
515.721	411.5
515.937	122.5
516.153	91.5
516.369	88.5
516.585	88.5
516.801	74.5
517.016	95.5
517.232	84.5
517.448	85.5
517.664	77.5
517.879	87.5
518.095	85.5
518.311	65.5
518.527	93.5
518.742	81.5
518.958	87.5
519.173	82.5
519.389	91.5
519.605	83.5
519.82	92.5
520.036	86.5
520.251	123.5
520.467	111.5
520.682	88.5
520.898	95.5
521.113	103.5
521.329	113.5
521.544	169.5
521.76	434.5
521.975	1883.5
522.19	1137.5
522.406	263.5
522.621	110.5
522.836	89.5
523.052	93.5
523.267	92.5
523.482	95.5
523.698	94.5
523.913	106.5
524.128	91.5
524.343	89.5
524.559	85.5
524.774	84.5
524.989	100.5
525.204	85.5
525.419	85.5
525.634	73.5
525.849	91.5
526.064	92.5
526.28	89.5
526.495	95.5
526.71	94.5
526.925	84.5
527.14	76.5
527.355	90.5
527.57	94.5
527.785	79.5
527.999	82.5
528.214	99.5
528.429	77.5
528.644	84.5
528.859	89.5
529.074	91.5
529.289	98.5
529.503	143.5
529.718	94.5
529.933	86.5
530.148	75.5
530.363	97.5
530.577	77.5
530.792	94.5
531.007	82.5
531.221	92.5
531.436	83.5
531.651	75.5
531.865	78.5
532.08	90.5
532.295	101.5
532.509	85.5
532.724	70.5
532.938	94.5
533.153	78.5
533.367	84.5
533.582	79.5
533.796	73.5
534.011	84.5
534.225	86.5
534.44	84.5
534.654	96.5
534.868	76.5
535.083	86.5
535.297	93.5
535.511	87.5
535.726	103.5
535.94	85.5
536.154	102.5
536.369	85.5
536.583	80.5
536.797	89.5
537.011	79.5
537.225	86.5
537.44	67.5
537.654	86.5
537.868	83.5
538.082	83.5
538.296	85.5
538.51	90.5
538.724	80.5
538.938	83.5
539.153	74.5
539.367	98.5
539.581	89.5
539.795	84.5
540.009	83.5
540.222	82.5
540.436	79.5
540.65	83.5
540.864	77.5
541.078	90.5
541.292	85.5
541.506	91.5
541.72	101.5
541.934	71.5
542.147	83.5
542.361	94.5
542.575	89.5
542.789	91.5
543.002	87.5
543.216	79.5
543.43	81.5
543.644	83.5
543.857	89.5
544.071	93.5
544.285	100.5
544.498	75.5
544.712	92.5
544.925	84.5
545.139	83.5
545.352	81.5
545.566	77.5
545.779	82.5
545.993	101.5
546.206	86.5
546.42	75.5
546.633	89.5
546.847	89.5
547.06	79.5
547.274	78.5
547.487	86.5
547.7	91.5
547.914	91.5
548.127	77.5
548.34	79.5
548.554	86.5
548.767	77.5
548.98	89.5
549.193	77.5
549.407	75.5
549.62	89.5
549.833	80.5
550.046	67.5
550.259	89.5
550.473	78.5
550.686	86.5
550.899	87.5
551.112	87.5
551.325	87.5
551.538	90.5
551.751	85.5
551.964	82.5
552.177	81.5
552.39	84.5
552.603	86.5
552.816	80.5
553.029	85.5
553.242	76.5
553.455	89.5
553.667	95.5
553.88	70.5
554.093	79.5
554.306	86.5
554.519	90.5
554.732	82.5
554.944	86.5
555.157	87.5
555.37	94.5
555.583	79.5
555.795	73.5
556.008	91.5
556.221	83.5
556.433	89.5
556.646	77.5
556.859	85.5
557.071	81.5
557.284	94.5
557.496	81.5
557.709	76.5
557.921	74.5
558.134	84.5
558.346	78.5
558.559	73.5
558.771	84.5
558.984	92.5
559.196	88.5
559.409	85.5
559.621	98.5
559.833	65.5
560.046	77.5
560.258	87.5
560.47	81.5
560.683	73.5
560.895	89.5
561.107	95.5
561.32	87.5
561.532	77.5
561.744	79.5
561.956	78.5
562.168	79.5
562.381	84.5
562.593	94.5
562.805	71.5
563.017	79.5
563.229	91.5
563.441	71.5
563.653	87.5
563.865	83.5
564.077	81.5
564.289	76.5
564.501	87.5
564.713	83.5
564.925	73.5
565.137	89.5
565.349	82.5
565.561	87.5
565.773	83.5
565.985	87.5
566.197	79.5
566.408	91.5
566.62	92.5
566.832	77.5
567.044	90.5
567.255	81.5
567.467	82.5
567.679	79.5
567.891	82.5
568.102	78.5
568.314	73.5
568.526	73.5
568.737	71.5
568.949	85.5
569.161	77.5
569.372	86.5
569.584	89.5
569.795	73.5
570.007	94.5
570.218	202.5
570.43	119.5
570.641	93.5
570.853	89.5
571.064	87.5
571.276	86.5
571.487	76.5
571.698	89.5
571.91	81.5
572.121	92.5
572.333	90.5
572.544	73.5
572.755	79.5
572.966	89.5
573.178	68.5
573.389	78.5
573.6	86.5
573.811	74.5
574.023	87.5
574.234	60.5
574.445	70.5
574.656	64.5
574.867	85.5
575.078	89.5
575.289	70.5
575.501	99.5
575.712	76.5
575.923	81.5
576.134	91.5
576.345	89.5
576.556	79.5
576.767	77.5
576.978	91.5
577.188	91.5
577.399	82.5
577.61	92.5
577.821	89.5
578.032	94.5
578.243	224.5
578.454	581.5
578.665	168.5
578.875	83.5
579.086	86.5
579.297	85.5
579.508	85.5
579.718	77.5
579.929	91.5
580.14	79.5
580.35	86.5
580.561	84.5
580.772	82.5
580.982	82.5
581.193	89.5
581.403	80.5
581.614	81.5
581.825	82.5
582.035	92.5
582.246	89.5
582.456	78.5
582.667	97.5
582.877	81.5
583.087	78.5
583.298	93.5
583.508	72.5
583.719	81.5
583.929	82.5
584.139	78.5
584.35	83.5
584.56	83.5
584.77	91.5
584.981	71.5
585.191	83.5
585.401	79.5
585.611	77.5
585.821	90.5
586.032	107.5
586.242	82.5
586.452	77.5
586.662	73.5
586.872	92.5
587.082	81.5
587.292	60.5
587.502	88.5
587.713	83.5
587.923	93.5
588.133	77.5
588.343	73.5
588.553	79.5
588.762	78.5
588.972	85.5
589.182	136.5
589.392	111.5
589.602	101.5
589.812	123.5
590.022	100.5
590.232	98.5
590.441	83.5
590.651	82.5
590.861	81.5
591.071	87.5
591.281	82.5
591.49	81.5
591.7	84.5
591.91	92.5
592.119	99.5
592.329	78.5
592.539	79.5
592.748	97.5
592.958	80.5
593.167	94.5
593.377	83.5
593.587	76.5
593.796	92.5
594.006	94.5
594.215	76.5
594.424	96.5
594.634	77.5
594.843	68.5
595.053	68.5
595.262	63.5
595.472	80.5
595.681	85.5
595.89	82.5
596.1	76.5
596.309	81.5
596.518	91.5
596.727	91.5
596.937	91.5
597.146	98.5
597.355	91.5
597.564	70.5
597.774	94.5
597.983	75.5
598.192	77.5
598.401	67.5
598.61	77.5
598.819	79.5
599.028	85.5
599.237	87.5
599.446	85.5
599.655	76.5
599.864	66.5
600.073	61.5
600.282	84.5
600.491	83.5
600.7	81.5
600.909	99.5
601.118	76.5
601.327	70.5
601.536	77.5
601.745	101.5
601.953	76.5
602.162	75.5
602.371	84.5
602.58	82.5
602.789	87.5
602.997	64.5
603.206	85.5
603.415	68.5
603.623	84.5
603.832	76.5
604.041	73.5
604.249	83.5
604.458	75.5
604.666	85.5
604.875	80.5
605.084	79.5
605.292	93.5
605.501	93.5
605.709	71.5
605.918	78.5
606.126	76.5
606.334	86.5
606.543	74.5
606.751	84.5
606.96	83.5
607.168	75.5
607.376	70.5
607.585	81.5
607.793	75.5
608.001	92.5
608.21	83.5
608.418	71.5
608.626	80.5
608.834	79.5
609.043	95.5
609.251	84.5
609.459	76.5
609.667	83.5
609.875	90.5
610.083	81.5
610.291	73.5
610.499	79.5
610.707	84.5
610.916	81.5
611.124	80.5
611.332	64.5
611.54	90.5
611.748	72.5
611.955	73.5
612.163	77.5
612.371	96.5
612.579	91.5
612.787	85.5
612.995	84.5
613.203	80.5
613.411	71.5
613.618	80.5
613.826	78.5
614.034	80.5
614.242	98.5
614.449	83.5
614.657	77.5
614.865	85.5
615.072	78.5
615.28	96.5
615.488	85.5
615.695	86.5
615.903	90.5
616.111	90.5
616.318	94.5
616.526	71.5
616.733	84.5
616.941	71.5
617.148	73.5
617.356	77.5
617.563	52.5
617.771	70.5
617.978	78.5
618.185	86.5
618.393	91.5
618.6	85.5
618.807	79.5
619.015	73.5
619.222	75.5
619.429	79.5
619.637	78.5
619.844	88.5
620.051	83.5
620.258	86.5
620.466	76.5
620.673	76.5
620.88	76.5
621.087	72.5
621.294	83.5
621.501	78.5
621.708	89.5
621.915	90.5
622.122	73.5
622.329	61.5
622.536	75.5
622.743	69.5
622.95	77.5
623.157	73.5
623.364	71.5
623.571	88.5
623.778	81.5
623.985	76.5
624.192	67.5
624.399	76.5
624.606	89.5
624.812	82.5
625.019	84.5
625.226	65.5
625.433	75.5
625.639	81.5
625.846	75.5
626.053	86.5
626.259	86.5
626.466	87.5
626.673	77.5
626.879	80.5
627.086	77.5
627.293	88.5
627.499	69.5
627.706	75.5
627.912	78.5
628.119	73.5
628.325	85.5
628.532	70.5
628.738	77.5
628.945	73.5
629.151	58.5
629.357	81.5
629.564	81.5
629.77	68.5
629.976	67.5
630.183	72.5
630.389	57.5
630.595	83.5
630.802	80.5
631.008	82.5
631.214	82.5
631.42	85.5
631.627	83.5
631.833	75.5
632.039	74.5
632.245	85.5
632.451	90.5
632.657	87.5
632.863	71.5
633.069	77.5
633.275	81.5
633.481	79.5
633.688	82.5
633.893	74.5
634.099	85.5
634.305	87.5
634.511	88.5
634.717	83.5
634.923	73.5
635.129	67.5
635.335	67.5
635.541	86.5
635.747	86.5
635.952	80.5
636.158	90.5
636.364	116.5
636.57	97.5
636.775	77.5
636.981	75.5
637.187	73.5
637.392	70.5
637.598	84.5
637.804	85.5
638.009	101.5
638.215	80.5
638.421	78.5
638.626	85.5
638.832	71.5
639.037	70.5
639.243	79.5
639.448	68.5
639.654	85.5
639.859	73.5
640.065	70.5
640.27	93.5
640.475	82.5
640.681	64.5
640.886	83.5
641.091	84.5
641.297	78.5
641.502	63.5
641.707	77.5
641.913	97.5
642.118	77.5
642.323	83.5
642.528	64.5
642.733	84.5
642.939	78.5
643.144	71.5
643.349	73.5
643.554	102.5
643.759	79.5
643.964	77.5
644.169	81.5
644.374	78.5
644.579	74.5
644.784	81.5
644.989	70.5
645.194	75.5
645.399	104.5
645.604	82.5
645.809	77.5
646.014	89.5
646.219	86.5
646.423	77.5
646.628	70.5
646.833	90.5
647.038	81.5
647.243	86.5
647.447	90.5
647.652	68.5
647.857	81.5
648.062	68.5
648.266	75.5
648.471	84.5
648.676	81.5
648.88	77.5
649.085	96.5
649.289	92.5
649.494	101.5
649.698	110.5
649.903	103.5
650.107	86.5
650.312	84.5
650.516	73.5
650.721	91.5
650.925	77.5
651.13	82.5
651.334	59.5
651.539	58.5
651.743	77.5
651.947	67.5
652.152	100.5
652.356	88.5
652.56	76.5
652.764	77.5
652.969	89.5
653.173	68.5
653.377	73.5
653.581	74.5
653.785	68.5
653.99	80.5
654.194	77.5
654.398	82.5
654.602	80.5
654.806	87.5
655.01	84.5
655.214	93.5
655.418	70.5
655.622	76.5
655.826	74.5
656.03	76.5
656.234	89.5
656.438	84.5
656.642	79.5
656.846	68.5
657.049	75.5
657.253	74.5
657.457	68.5
657.661	76.5
657.865	66.5
658.068	87.5
658.272	83.5
658.476	70.5
658.68	74.5
658.883	77.5
659.087	73.5
659.291	74.5
659.494	65.5
659.698	64.5
659.901	70.5
660.105	92.5
660.309	89.5
660.512	82.5
660.716	80.5
660.919	82.5
661.123	70.5
661.326	66.5
661.53	64.5
661.733	74.5
661.936	62.5
662.14	81.5
662.343	71.5
662.546	75.5
662.75	84.5
662.953	91.5
663.156	73.5
663.36	81.5
663.563	83.5
663.766	84.5
663.969	77.5
664.173	68.5
664.376	76.5
664.579	91.5
664.782	76.5
664.985	78.5
665.188	82.5
665.391	79.5
665.594	74.5
665.797	85.5
666	63.5
666.203	86.5
666.406	71.5
666.609	69.5
666.812	72.5
667.015	73.5
667.218	81.5
667.421	78.5
667.624	75.5
667.827	71.5
668.03	73.5
668.232	79.5
668.435	69.5
668.638	77.5
668.841	81.5
669.043	74.5
669.246	55.5
669.449	64.5
669.651	57.5
669.854	73.5
670.057	69.5
670.259	80.5
670.462	80.5
670.665	75.5
670.867	63.5
671.07	86.5
671.272	84.5
671.475	61.5
671.677	62.5
671.88	77.5
672.082	70.5
672.284	57.5
672.487	80.5
672.689	67.5
672.892	87.5
