Data from Circ_1984_H10_HRD10591_00050.txt Node
Date: Wed Jan 03 12:22:52 EST 2024
User: Yrep
Spectrometer: HR+D1059
Trigger mode: 1
Integration Time (sec): 1.000000E-1
Scans to average: 1
Electric dark correction enabled: true
Nonlinearity correction enabled: false
Boxcar width: 0
XAxis mode: Wavelengths
Number of Pixels in Spectrum: 2048
>>>>>Begin Spectral Data<<<<<
223.165	-11
223.4	-11
223.635	-11
223.869	-31
224.104	-14
224.338	-10
224.573	-19
224.808	-10
225.042	-9
225.277	-13
225.511	-13
225.746	-2
225.98	12
226.215	9
226.449	32
226.683	11
226.918	32
227.152	36
227.387	42
227.621	32
227.856	49
228.09	52
228.324	54
228.559	60
228.793	60
229.027	66
229.262	52
229.496	74
229.73	78
229.964	80
230.199	77
230.433	92
230.667	90
230.901	72
231.136	82
231.37	86
231.604	77
231.838	82
232.072	87
232.306	77
232.541	92
232.775	90
233.009	75
233.243	90
233.477	95
233.711	84
233.945	86
234.179	82
234.413	98
234.647	78
234.881	86
235.115	70
235.349	89
235.583	73
235.817	89
236.051	66
236.285	87
236.519	79
236.753	73
236.987	77
237.221	99
237.455	79
237.689	89
237.922	88
238.156	82
238.39	74
238.624	74
238.858	50
239.091	73
239.325	98
239.559	87
239.793	90
240.027	76
240.26	76
240.494	82
240.728	84
240.961	75
241.195	71
241.429	88
241.662	88
241.896	69
242.13	68
242.363	70
242.597	84
242.83	91
243.064	76
243.298	88
243.531	75
243.765	80
243.998	87
244.232	74
244.465	75
244.699	75
244.932	86
245.166	98
245.399	84
245.633	74
245.866	82
246.099	92
246.333	75
246.566	75
246.8	107
247.033	87
247.266	93
247.5	90
247.733	87
247.966	68
248.2	88
248.433	87
248.666	81
248.899	70
249.133	80
249.366	94
249.599	98
249.832	94
250.066	104
250.299	92
250.532	90
250.765	91
250.998	89
251.231	69
251.465	99
251.698	92
251.931	86
252.164	88
252.397	77
252.63	75
252.863	85
253.096	89
253.329	85
253.562	90
253.795	98
254.028	98
254.261	89
254.494	85
254.727	86
254.96	73
255.193	89
255.426	95
255.659	91
255.892	94
256.124	86
256.357	68
256.59	78
256.823	82
257.056	86
257.289	83
257.521	99
257.754	88
257.987	82
258.22	87
258.452	91
258.685	77
258.918	88
259.151	93
259.383	99
259.616	87
259.849	88
260.081	74
260.314	95
260.547	80
260.779	77
261.012	96
261.244	93
261.477	80
261.71	84
261.942	111
262.175	119
262.407	94
262.64	90
262.872	90
263.105	83
263.337	85
263.57	83
263.802	91
264.035	96
264.267	78
264.499	90
264.732	90
264.964	80
265.197	77
265.429	88
265.661	87
265.894	76
266.126	82
266.358	93
266.591	77
266.823	76
267.055	71
267.287	75
267.52	92
267.752	82
267.984	93
268.216	93
268.448	83
268.681	75
268.913	90
269.145	76
269.377	82
269.609	99
269.841	82
270.073	93
270.306	106
270.538	90
270.77	80
271.002	94
271.234	80
271.466	97
271.698	84
271.93	90
272.162	95
272.394	87
272.626	90
272.858	69
273.09	77
273.322	81
273.553	93
273.785	98
274.017	92
274.249	87
274.481	94
274.713	92
274.945	90
275.176	96
275.408	102
275.64	104
275.872	101
276.104	93
276.335	104
276.567	93
276.799	98
277.031	98
277.262	94
277.494	93
277.726	84
277.957	110
278.189	104
278.421	83
278.652	83
278.884	104
279.115	98
279.347	85
279.579	91
279.81	103
280.042	92
280.273	100
280.505	96
280.736	94
280.968	94
281.199	75
281.431	88
281.662	97
281.894	96
282.125	99
282.356	109
282.588	121
282.819	125
283.051	101
283.282	88
283.513	95
283.745	102
283.976	83
284.207	104
284.439	94
284.67	86
284.901	84
285.132	97
285.364	82
285.595	92
285.826	85
286.057	84
286.288	88
286.52	106
286.751	79
286.982	85
287.213	102
287.444	83
287.675	104
287.906	85
288.138	109
288.369	100
288.6	93
288.831	91
289.062	110
289.293	83
289.524	86
289.755	95
289.986	97
290.217	104
290.448	115
290.679	94
290.91	87
291.141	73
291.371	96
291.602	102
291.833	89
292.064	93
292.295	78
292.526	64
292.757	92
292.987	88
293.218	73
293.449	112
293.68	91
293.91	86
294.141	106
294.372	96
294.603	104
294.833	84
295.064	92
295.295	77
295.525	92
295.756	90
295.987	100
296.217	127
296.448	118
296.679	98
296.909	103
297.14	103
297.37	92
297.601	100
297.831	83
298.062	94
298.292	84
298.523	93
298.753	108
298.984	85
299.214	91
299.445	77
299.675	97
299.905	110
300.136	87
300.366	89
300.597	92
300.827	103
301.057	94
301.288	92
301.518	91
301.748	95
301.979	112
302.209	76
302.439	92
302.669	98
302.9	79
303.13	86
303.36	102
303.59	93
303.82	102
304.051	99
304.281	98
304.511	105
304.741	96
304.971	104
305.201	86
305.431	103
305.661	92
305.891	95
306.121	106
306.352	93
306.582	101
306.812	104
307.042	99
307.272	92
307.502	118
307.731	111
307.961	89
308.191	83
308.421	92
308.651	92
308.881	85
309.111	94
309.341	87
309.571	92
309.8	86
310.03	100
310.26	102
310.49	94
310.72	94
310.949	99
311.179	101
311.409	100
311.639	80
311.868	106
312.098	110
312.328	101
312.557	99
312.787	110
313.017	82
313.246	82
313.476	94
313.706	93
313.935	91
314.165	101
314.394	114
314.624	92
314.853	105
315.083	102
315.312	103
315.542	104
315.771	100
316.001	88
316.23	86
316.46	96
316.689	105
316.919	108
317.148	97
317.377	104
317.607	87
317.836	87
318.065	95
318.295	85
318.524	95
318.753	87
318.983	94
319.212	105
319.441	99
319.67	99
319.9	100
320.129	88
320.358	100
320.587	99
320.816	109
321.046	103
321.275	101
321.504	84
321.733	95
321.962	110
322.191	113
322.42	99
322.649	109
322.878	105
323.108	106
323.337	120
323.566	130
323.795	134
324.024	189
324.253	324
324.482	674
324.71	1412
324.939	1824
325.168	694
325.397	213
325.626	132
325.855	108
326.084	123
326.313	124
326.542	142
326.77	211
326.999	397
327.228	762
327.457	1426
327.686	1165
327.914	322
328.143	205
328.372	190
328.6	143
328.829	129
329.058	128
329.287	126
329.515	118
329.744	117
329.972	150
330.201	211
330.43	236
330.658	174
330.887	151
331.115	120
331.344	111
331.572	101
331.801	102
332.03	109
332.258	104
332.486	106
332.715	98
332.943	97
333.172	76
333.4	105
333.629	114
333.857	125
334.085	142
334.314	216
334.542	311
334.771	292
334.999	146
335.227	105
335.455	107
335.684	96
335.912	96
336.14	90
336.369	103
336.597	89
336.825	90
337.053	92
337.281	95
337.51	92
337.738	85
337.966	94
338.194	110
338.422	101
338.65	102
338.878	98
339.106	72
339.334	93
339.562	84
339.79	82
340.018	96
340.246	108
340.474	95
340.702	93
340.93	91
341.158	101
341.386	106
341.614	106
341.842	93
342.07	90
342.298	91
342.526	97
342.754	93
342.981	91
343.209	86
343.437	107
343.665	90
343.893	84
344.12	90
344.348	103
344.576	94
344.804	98
345.031	92
345.259	85
345.487	94
345.714	92
345.942	99
346.17	95
346.397	103
346.625	100
346.853	99
347.08	111
347.308	100
347.535	103
347.763	101
347.99	84
348.218	106
348.445	107
348.673	91
348.9	106
349.128	103
349.355	94
349.583	94
349.81	106
350.037	104
350.265	97
350.492	86
350.72	102
350.947	104
351.174	109
351.402	111
351.629	98
351.856	101
352.083	111
352.311	120
352.538	112
352.765	107
352.992	130
353.22	104
353.447	98
353.674	94
353.901	115
354.128	93
354.355	96
354.583	112
354.81	88
355.037	96
355.264	102
355.491	104
355.718	80
355.945	93
356.172	101
356.399	106
356.626	99
356.853	82
357.08	103
357.307	101
357.534	92
357.761	92
357.988	108
358.215	106
358.441	101
358.668	88
358.895	85
359.122	106
359.349	95
359.576	103
359.802	95
360.029	112
360.256	109
360.483	102
360.709	97
360.936	112
361.163	101
361.39	91
361.616	91
361.843	77
362.07	89
362.296	94
362.523	107
362.749	96
362.976	89
363.203	105
363.429	101
363.656	103
363.882	87
364.109	91
364.335	98
364.562	94
364.788	90
365.015	103
365.241	115
365.468	111
365.694	106
365.92	61
366.147	86
366.373	87
366.599	82
366.826	104
367.052	108
367.278	78
367.505	84
367.731	89
367.957	79
368.184	100
368.41	100
368.636	98
368.862	107
369.089	99
369.315	102
369.541	105
369.767	88
369.993	106
370.219	91
370.445	86
370.672	84
370.898	94
371.124	88
371.35	90
371.576	97
371.802	95
372.028	97
372.254	86
372.48	82
372.706	92
372.932	84
373.158	86
373.384	103
373.61	93
373.835	98
374.061	78
374.287	93
374.513	88
374.739	94
374.965	99
375.191	87
375.416	87
375.642	77
375.868	86
376.094	99
376.319	90
376.545	79
376.771	93
376.997	87
377.222	92
377.448	95
377.674	105
377.899	107
378.125	91
378.35	89
378.576	81
378.802	87
379.027	93
379.253	100
379.478	87
379.704	95
379.929	88
380.155	98
380.38	93
380.606	99
380.831	92
381.057	104
381.282	93
381.507	97
381.733	95
381.958	92
382.184	91
382.409	100
382.634	101
382.86	108
383.085	116
383.31	99
383.535	100
383.761	99
383.986	106
384.211	87
384.436	100
384.662	103
384.887	98
385.112	104
385.337	108
385.562	103
385.787	110
386.013	117
386.238	103
386.463	104
386.688	99
386.913	99
387.138	100
387.363	109
387.588	97
387.813	99
388.038	111
388.263	125
388.488	116
388.713	103
388.938	103
389.163	82
389.387	88
389.612	104
389.837	87
390.062	103
390.287	95
390.512	86
390.736	92
390.961	99
391.186	114
391.411	90
391.636	92
391.86	86
392.085	86
392.31	80
392.534	88
392.759	91
392.984	97
393.208	104
393.433	126
393.658	119
393.882	92
394.107	101
394.331	100
394.556	87
394.78	95
395.005	88
395.229	90
395.454	95
395.678	74
395.903	82
396.127	86
396.352	87
396.576	99
396.801	98
397.025	97
397.249	96
397.474	99
397.698	78
397.922	91
398.147	90
398.371	95
398.595	91
398.82	84
399.044	95
399.268	98
399.492	87
399.717	100
399.941	76
400.165	98
400.389	114
400.613	90
400.837	83
401.062	96
401.286	100
401.51	82
401.734	111
401.958	98
402.182	110
402.406	154
402.63	111
402.854	102
403.078	86
403.302	84
403.526	87
403.75	90
403.974	103
404.198	96
404.422	89
404.645	103
404.869	90
405.093	102
405.317	97
405.541	85
405.765	107
405.988	110
406.212	155
406.436	205
406.66	128
406.883	104
407.107	98
407.331	100
407.555	102
407.778	103
408.002	93
408.226	89
408.449	103
408.673	100
408.896	84
409.12	90
409.344	105
409.567	70
409.791	84
410.014	111
410.238	101
410.461	110
410.685	95
410.908	100
411.132	110
411.355	97
411.578	93
411.802	94
412.025	98
412.249	100
412.472	103
412.695	104
412.919	99
413.142	94
413.365	90
413.589	87
413.812	90
414.035	98
414.258	90
414.482	95
414.705	96
414.928	93
415.151	104
415.374	93
415.597	84
415.821	105
416.044	87
416.267	84
416.49	91
416.713	90
416.936	91
417.159	82
417.382	93
417.605	102
417.828	92
418.051	94
418.274	101
418.497	92
418.72	98
418.943	95
419.166	94
419.389	80
419.611	91
419.834	101
420.057	94
420.28	94
420.503	93
420.726	105
420.948	103
421.171	101
421.394	95
421.617	86
421.839	104
422.062	94
422.285	106
422.507	104
422.73	107
422.953	102
423.175	98
423.398	92
423.621	98
423.843	90
424.066	88
424.288	95
424.511	103
424.733	111
424.956	93
425.178	98
425.401	98
425.623	98
425.846	86
426.068	101
426.291	100
426.513	90
426.735	94
426.958	85
427.18	93
427.402	127
427.625	157
427.847	147
428.069	120
428.292	107
428.514	98
428.736	96
428.958	89
429.181	88
429.403	95
429.625	85
429.847	90
430.069	101
430.292	100
430.514	88
430.736	92
430.958	91
431.18	85
431.402	89
431.624	93
431.846	87
432.068	90
432.29	82
432.512	85
432.734	100
432.956	91
433.178	99
433.4	97
433.622	108
433.844	103
434.066	94
434.287	100
434.509	91
434.731	100
434.953	90
435.175	88
435.397	95
435.618	90
435.84	112
436.062	121
436.284	120
436.505	99
436.727	98
436.949	89
437.17	92
437.392	108
437.614	111
437.835	95
438.057	123
438.278	99
438.5	95
438.721	115
438.943	103
439.165	91
439.386	93
439.608	96
439.829	99
440.05	117
440.272	123
440.493	90
440.715	96
440.936	92
441.158	82
441.379	94
441.6	104
441.822	97
442.043	99
442.264	99
442.486	103
442.707	77
442.928	102
443.149	110
443.371	117
443.592	97
443.813	103
444.034	107
444.255	99
444.476	85
444.698	93
444.919	84
445.14	135
445.361	116
445.582	111
445.803	132
446.024	126
446.245	130
446.466	110
446.687	86
446.908	76
447.129	84
447.35	104
447.571	112
447.792	103
448.013	104
448.234	114
448.455	92
448.675	112
448.896	126
449.117	112
449.338	110
449.559	126
449.779	126
450	87
450.221	84
450.442	91
450.662	98
450.883	104
451.104	109
451.324	88
451.545	89
451.766	93
451.986	91
452.207	80
452.428	98
452.648	97
452.869	103
453.089	94
453.31	93
453.53	102
453.751	106
453.971	100
454.192	109
454.412	98
454.633	84
454.853	100
455.073	82
455.294	93
455.514	105
455.734	80
455.955	86
456.175	80
456.395	106
456.616	86
456.836	95
457.056	86
457.276	78
457.497	75
457.717	95
457.937	93
458.157	80
458.377	101
458.598	113
458.818	149
459.038	131
459.258	97
459.478	103
459.698	84
459.918	89
460.138	92
460.358	94
460.578	108
460.798	91
461.018	105
461.238	111
461.458	83
461.678	94
461.898	87
462.118	98
462.338	80
462.558	102
462.777	85
462.997	92
463.217	82
463.437	90
463.657	92
463.876	115
464.096	90
464.316	100
464.536	106
464.755	98
464.975	110
465.195	154
465.414	151
465.634	98
465.854	91
466.073	78
466.293	78
466.512	95
466.732	97
466.951	110
467.171	87
467.391	85
467.61	98
467.829	101
468.049	146
468.268	178
468.488	109
468.707	84
468.927	101
469.146	83
469.365	93
469.585	110
469.804	99
470.023	102
470.243	93
470.462	100
470.681	102
470.901	110
471.12	99
471.339	90
471.558	91
471.777	92
471.997	128
472.216	231
472.435	395
472.654	150
472.873	101
473.092	104
473.311	100
473.53	90
473.749	84
473.968	98
474.187	110
474.406	94
474.625	91
474.844	85
475.063	106
475.282	90
475.501	84
475.72	99
475.939	75
476.158	86
476.377	91
476.596	89
476.814	79
477.033	97
477.252	103
477.471	96
477.69	82
477.908	102
478.127	86
478.346	82
478.564	92
478.783	98
479.002	97
479.22	96
479.439	108
479.658	95
479.876	119
480.095	104
480.313	97
480.532	109
480.751	142
480.969	235
481.188	654
481.406	420
481.624	122
481.843	101
482.061	88
482.28	82
482.498	93
482.717	96
482.935	88
483.153	84
483.372	96
483.59	102
483.808	91
484.027	88
484.245	96
484.463	88
484.681	98
484.9	91
485.118	98
485.336	88
485.554	106
485.772	112
485.99	96
486.209	109
486.427	98
486.645	123
486.863	112
487.081	93
487.299	108
487.517	99
487.735	92
487.953	107
488.171	93
488.389	93
488.607	95
488.825	89
489.043	99
489.261	98
489.479	93
489.696	90
489.914	83
490.132	79
490.35	91
490.568	82
490.786	92
491.003	92
491.221	83
491.439	90
491.657	90
491.874	104
492.092	91
492.31	90
492.527	90
492.745	106
492.963	87
493.18	90
493.398	95
493.615	104
493.833	98
494.05	94
494.268	102
494.485	96
494.703	96
494.92	87
495.138	69
495.355	84
495.573	107
495.79	102
496.008	102
496.225	85
496.442	92
496.66	105
496.877	81
497.094	86
497.312	95
497.529	100
497.746	85
497.963	86
498.181	90
498.398	91
498.615	107
498.832	104
499.049	93
499.267	93
499.484	97
499.701	76
499.918	82
500.135	91
500.352	101
500.569	104
500.786	96
501.003	91
501.22	91
501.437	104
501.654	96
501.871	100
502.088	95
502.305	87
502.522	94
502.739	87
502.956	74
503.172	90
503.389	94
503.606	94
503.823	100
504.04	95
504.256	80
504.473	90
504.69	88
504.907	97
505.123	99
505.34	79
505.557	120
505.773	102
505.99	102
506.207	89
506.423	82
506.64	100
506.856	106
507.073	87
507.289	88
507.506	94
507.722	121
507.939	102
508.155	105
508.372	96
508.588	93
508.805	104
509.021	87
509.238	100
509.454	95
509.67	99
509.887	109
510.103	126
510.319	196
510.536	641
510.752	2058
510.968	561
511.184	164
511.401	107
511.617	102
511.833	100
512.049	88
512.265	84
512.481	100
512.698	113
512.914	87
513.13	100
513.346	89
513.562	96
513.778	108
513.994	92
514.21	103
514.426	116
514.642	136
514.858	112
515.074	141
515.29	371
515.506	1210
515.721	452
515.937	134
516.153	83
516.369	100
516.585	101
516.801	99
517.016	98
517.232	87
517.448	86
517.664	96
517.879	104
518.095	95
518.311	101
518.527	98
518.742	96
518.958	104
519.173	104
519.389	107
519.605	89
519.82	105
520.036	108
520.251	110
520.467	117
520.682	93
520.898	95
521.113	101
521.329	129
521.544	186
521.76	497
521.975	2013
522.19	1228
522.406	276
522.621	119
522.836	100
523.052	107
523.267	102
523.482	101
523.698	95
523.913	121
524.128	116
524.343	92
524.559	92
524.774	90
524.989	117
525.204	95
525.419	90
525.634	94
525.849	104
526.064	104
526.28	94
526.495	77
526.71	97
526.925	95
527.14	98
527.355	85
527.57	80
527.785	94
527.999	91
528.214	101
528.429	114
528.644	84
528.859	102
529.074	100
529.289	120
529.503	148
529.718	117
529.933	117
530.148	93
530.363	86
530.577	92
530.792	110
531.007	98
531.221	106
531.436	94
531.651	100
531.865	102
532.08	100
532.295	99
532.509	91
532.724	89
532.938	90
533.153	74
533.367	85
533.582	91
533.796	104
534.011	79
534.225	88
534.44	96
534.654	96
534.868	101
535.083	85
535.297	123
535.511	104
535.726	102
535.94	112
536.154	108
536.369	102
536.583	86
536.797	89
537.011	84
537.225	105
537.44	100
537.654	102
537.868	88
538.082	97
538.296	102
538.51	89
538.724	85
538.938	102
539.153	98
539.367	99
539.581	96
539.795	86
540.009	93
540.222	85
540.436	89
540.65	88
540.864	97
541.078	84
541.292	94
541.506	91
541.72	82
541.934	91
542.147	86
542.361	92
542.575	86
542.789	75
543.002	88
543.216	101
543.43	95
543.644	87
543.857	107
544.071	94
544.285	91
544.498	98
544.712	94
544.925	92
545.139	80
545.352	78
545.566	98
545.779	80
545.993	82
546.206	96
546.42	90
546.633	90
546.847	94
547.06	95
547.274	92
547.487	87
547.7	94
547.914	86
548.127	99
548.34	100
548.554	111
548.767	98
548.98	83
549.193	102
549.407	98
549.62	99
549.833	93
550.046	79
550.259	86
550.473	87
550.686	106
550.899	103
551.112	93
551.325	95
551.538	93
551.751	92
551.964	91
552.177	102
552.39	88
552.603	97
552.816	103
553.029	104
553.242	85
553.455	94
553.667	109
553.88	93
554.093	89
554.306	92
554.519	96
554.732	86
554.944	88
555.157	97
555.37	95
555.583	84
555.795	107
556.008	92
556.221	95
556.433	95
556.646	90
556.859	85
557.071	91
557.284	85
557.496	86
557.709	92
557.921	89
558.134	80
558.346	97
558.559	95
558.771	102
558.984	99
559.196	100
559.409	100
559.621	72
559.833	89
560.046	95
560.258	108
560.47	83
560.683	86
560.895	96
561.107	87
561.32	97
561.532	84
561.744	99
561.956	104
562.168	84
562.381	98
562.593	85
562.805	102
563.017	95
563.229	89
563.441	97
563.653	92
563.865	95
564.077	100
564.289	79
564.501	97
564.713	97
564.925	103
565.137	98
565.349	88
565.561	100
565.773	102
565.985	79
566.197	82
566.408	102
566.62	85
566.832	89
567.044	73
567.255	98
567.467	94
567.679	103
567.891	88
568.102	93
568.314	86
568.526	90
568.737	90
568.949	93
569.161	94
569.372	90
569.584	100
569.795	90
570.007	119
570.218	204
570.43	120
570.641	98
570.853	82
571.064	78
571.276	87
571.487	79
571.698	94
571.91	91
572.121	85
572.333	80
572.544	101
572.755	84
572.966	100
573.178	89
573.389	83
573.6	96
573.811	95
574.023	83
574.234	99
574.445	88
574.656	87
574.867	96
575.078	80
575.289	88
575.501	101
575.712	100
575.923	85
576.134	83
576.345	106
576.556	102
576.767	83
576.978	79
577.188	100
577.399	88
577.61	95
577.821	115
578.032	114
578.243	234
578.454	608
578.665	186
578.875	109
579.086	98
579.297	87
579.508	92
579.718	97
579.929	92
580.14	98
580.35	87
580.561	98
580.772	96
580.982	100
581.193	88
581.403	86
581.614	90
581.825	103
582.035	82
582.246	84
582.456	85
582.667	101
582.877	90
583.087	100
583.298	83
583.508	69
583.719	104
583.929	98
584.139	91
584.35	84
584.56	96
584.77	83
584.981	84
585.191	94
585.401	91
585.611	87
585.821	99
586.032	89
586.242	87
586.452	91
586.662	93
586.872	91
587.082	85
587.292	88
587.502	87
587.713	86
587.923	83
588.133	102
588.343	102
588.553	79
588.762	109
588.972	102
589.182	154
589.392	106
589.602	100
589.812	117
590.022	104
590.232	97
590.441	95
590.651	98
590.861	96
591.071	88
591.281	90
591.49	89
591.7	96
591.91	89
592.119	101
592.329	86
592.539	84
592.748	87
592.958	81
593.167	92
593.377	100
593.587	109
593.796	79
594.006	80
594.215	88
594.424	92
594.634	94
594.843	88
595.053	85
595.262	95
595.472	90
595.681	83
595.89	88
596.1	91
596.309	93
596.518	84
596.727	89
596.937	95
597.146	92
597.355	101
597.564	86
597.774	92
597.983	94
598.192	84
598.401	73
598.61	92
598.819	82
599.028	92
599.237	87
599.446	95
599.655	96
599.864	76
600.073	83
600.282	88
600.491	90
600.7	88
600.909	88
601.118	88
601.327	95
601.536	89
601.745	92
601.953	88
602.162	94
602.371	92
602.58	90
602.789	71
602.997	92
603.206	99
603.415	89
603.623	75
603.832	82
604.041	92
604.249	86
604.458	98
604.666	76
604.875	96
605.084	86
605.292	96
605.501	93
605.709	89
605.918	103
606.126	83
606.334	93
606.543	90
606.751	85
606.96	89
607.168	92
607.376	77
607.585	92
607.793	75
608.001	94
608.21	86
608.418	81
608.626	79
608.834	92
609.043	94
609.251	94
609.459	96
609.667	90
609.875	84
610.083	87
610.291	84
610.499	94
610.707	83
610.916	91
611.124	80
611.332	84
611.54	77
611.748	84
611.955	82
612.163	92
612.371	86
612.579	89
612.787	91
612.995	95
613.203	93
613.411	85
613.618	94
613.826	88
614.034	86
614.242	91
614.449	87
614.657	90
614.865	79
615.072	84
615.28	99
615.488	83
615.695	95
615.903	99
616.111	98
616.318	90
616.526	97
616.733	99
616.941	82
617.148	88
617.356	87
617.563	83
617.771	100
617.978	85
618.185	100
618.393	92
618.6	97
618.807	75
619.015	90
619.222	79
619.429	77
619.637	95
619.844	92
620.051	72
620.258	90
620.466	98
620.673	79
620.88	98
621.087	90
621.294	80
621.501	81
621.708	97
621.915	94
622.122	96
622.329	101
622.536	96
622.743	93
622.95	88
623.157	100
623.364	88
623.571	79
623.778	87
623.985	87
624.192	94
624.399	76
624.606	100
624.812	88
625.019	87
625.226	84
625.433	86
625.639	78
625.846	94
626.053	100
626.259	105
626.466	98
626.673	96
626.879	95
627.086	94
627.293	87
627.499	100
627.706	71
627.912	89
628.119	89
628.325	100
628.532	96
628.738	87
628.945	89
629.151	90
629.357	94
629.564	80
629.77	98
629.976	78
630.183	80
630.389	92
630.595	79
630.802	94
631.008	94
631.214	96
631.42	62
631.627	88
631.833	86
632.039	89
632.245	84
632.451	89
632.657	85
632.863	93
633.069	90
633.275	90
633.481	87
633.688	88
633.893	91
634.099	86
634.305	95
634.511	93
634.717	82
634.923	76
635.129	87
635.335	70
635.541	92
635.747	96
635.952	91
636.158	86
636.364	112
636.57	108
636.775	88
636.981	76
637.187	89
637.392	91
637.598	77
637.804	98
638.009	104
638.215	87
638.421	73
638.626	88
638.832	94
639.037	83
639.243	90
639.448	94
639.654	88
639.859	91
640.065	79
640.27	81
640.475	70
640.681	70
640.886	100
641.091	83
641.297	93
641.502	79
641.707	94
641.913	95
642.118	83
642.323	91
642.528	94
642.733	93
642.939	83
643.144	88
643.349	86
643.554	86
643.759	80
643.964	92
644.169	72
644.374	89
644.579	88
644.784	73
644.989	82
645.194	84
645.399	92
645.604	104
645.809	104
646.014	89
646.219	93
646.423	102
646.628	85
646.833	100
647.038	91
647.243	89
647.447	84
647.652	95
647.857	72
648.062	93
648.266	80
648.471	95
648.676	88
648.88	98
649.085	89
649.289	75
649.494	107
649.698	137
649.903	117
650.107	87
650.312	84
650.516	91
650.721	86
650.925	89
651.13	78
651.334	80
651.539	93
651.743	89
651.947	94
652.152	87
652.356	77
652.56	79
652.764	74
652.969	94
653.173	80
653.377	71
653.581	81
653.785	82
653.99	75
654.194	94
654.398	88
654.602	87
654.806	92
655.01	109
655.214	103
655.418	85
655.622	80
655.826	77
656.03	95
656.234	90
656.438	79
656.642	85
656.846	94
657.049	97
657.253	80
657.457	86
657.661	77
657.865	72
658.068	82
658.272	86
658.476	80
658.68	77
658.883	89
659.087	86
659.291	91
659.494	86
659.698	94
659.901	89
660.105	83
660.309	100
660.512	79
660.716	86
660.919	94
661.123	78
661.326	85
661.53	84
661.733	87
661.936	95
662.14	99
662.343	92
662.546	87
662.75	94
662.953	83
663.156	88
663.36	70
663.563	87
663.766	84
663.969	89
664.173	70
664.376	76
664.579	74
664.782	90
664.985	89
665.188	95
665.391	78
665.594	76
665.797	91
666	89
666.203	86
666.406	83
666.609	87
666.812	89
667.015	84
667.218	76
667.421	86
667.624	90
667.827	90
668.03	84
668.232	95
668.435	75
668.638	88
668.841	85
669.043	88
669.246	94
669.449	81
669.651	95
669.854	68
670.057	79
670.259	110
670.462	77
670.665	81
670.867	92
671.07	71
671.272	75
671.475	82
671.677	94
671.88	77
672.082	82
672.284	92
672.487	92
672.689	91
672.892	78
