Data from Circ_1984_H10_HRD10591_00019.txt Node
Date: Wed Jan 03 12:22:45 EST 2024
User: Yrep
Spectrometer: HR+D1059
Trigger mode: 1
Integration Time (sec): 1.000000E-1
Scans to average: 1
Electric dark correction enabled: true
Nonlinearity correction enabled: false
Boxcar width: 0
XAxis mode: Wavelengths
Number of Pixels in Spectrum: 2048
>>>>>Begin Spectral Data<<<<<
223.165	-23.5
223.4	-23.5
223.635	-23.5
223.869	-19.5
224.104	-14.5
224.338	-15.5
224.573	-18.5
224.808	-6.5
225.042	-16.5
225.277	-0.5
225.511	-3.5
225.746	2.5
225.98	7.5
226.215	16.5
226.449	8.5
226.683	23.5
226.918	23.5
227.152	36.5
227.387	46.5
227.621	41.5
227.856	73.5
228.09	53.5
228.324	51.5
228.559	56.5
228.793	65.5
229.027	52.5
229.262	70.5
229.496	68.5
229.73	87.5
229.964	72.5
230.199	77.5
230.433	102.5
230.667	72.5
230.901	84.5
231.136	87.5
231.37	79.5
231.604	75.5
231.838	88.5
232.072	92.5
232.306	91.5
232.541	94.5
232.775	89.5
233.009	88.5
233.243	86.5
233.477	90.5
233.711	78.5
233.945	95.5
234.179	72.5
234.413	92.5
234.647	87.5
234.881	85.5
235.115	81.5
235.349	89.5
235.583	86.5
235.817	89.5
236.051	77.5
236.285	81.5
236.519	73.5
236.753	80.5
236.987	69.5
237.221	71.5
237.455	78.5
237.689	102.5
237.922	78.5
238.156	79.5
238.39	67.5
238.624	84.5
238.858	86.5
239.091	73.5
239.325	80.5
239.559	77.5
239.793	79.5
240.027	98.5
240.26	81.5
240.494	77.5
240.728	68.5
240.961	76.5
241.195	84.5
241.429	83.5
241.662	80.5
241.896	91.5
242.13	86.5
242.363	83.5
242.597	75.5
242.83	95.5
243.064	81.5
243.298	84.5
243.531	95.5
243.765	87.5
243.998	85.5
244.232	79.5
244.465	96.5
244.699	92.5
244.932	71.5
245.166	86.5
245.399	92.5
245.633	89.5
245.866	74.5
246.099	77.5
246.333	94.5
246.566	79.5
246.8	84.5
247.033	84.5
247.266	85.5
247.5	79.5
247.733	92.5
247.966	86.5
248.2	80.5
248.433	86.5
248.666	88.5
248.899	73.5
249.133	78.5
249.366	96.5
249.599	106.5
249.832	74.5
250.066	91.5
250.299	76.5
250.532	86.5
250.765	79.5
250.998	86.5
251.231	84.5
251.465	77.5
251.698	86.5
251.931	80.5
252.164	77.5
252.397	88.5
252.63	79.5
252.863	75.5
253.096	92.5
253.329	82.5
253.562	86.5
253.795	94.5
254.028	95.5
254.261	76.5
254.494	86.5
254.727	80.5
254.96	73.5
255.193	72.5
255.426	74.5
255.659	76.5
255.892	77.5
256.124	77.5
256.357	80.5
256.59	82.5
256.823	88.5
257.056	88.5
257.289	95.5
257.521	90.5
257.754	86.5
257.987	94.5
258.22	94.5
258.452	88.5
258.685	71.5
258.918	90.5
259.151	79.5
259.383	88.5
259.616	74.5
259.849	97.5
260.081	80.5
260.314	88.5
260.547	81.5
260.779	92.5
261.012	91.5
261.244	91.5
261.477	94.5
261.71	92.5
261.942	98.5
262.175	109.5
262.407	94.5
262.64	88.5
262.872	80.5
263.105	88.5
263.337	76.5
263.57	92.5
263.802	93.5
264.035	92.5
264.267	78.5
264.499	85.5
264.732	88.5
264.964	87.5
265.197	90.5
265.429	87.5
265.661	98.5
265.894	80.5
266.126	87.5
266.358	91.5
266.591	93.5
266.823	92.5
267.055	82.5
267.287	86.5
267.52	80.5
267.752	86.5
267.984	80.5
268.216	81.5
268.448	89.5
268.681	77.5
268.913	90.5
269.145	82.5
269.377	97.5
269.609	68.5
269.841	87.5
270.073	92.5
270.306	91.5
270.538	89.5
270.77	91.5
271.002	76.5
271.234	92.5
271.466	87.5
271.698	85.5
271.93	90.5
272.162	89.5
272.394	92.5
272.626	85.5
272.858	85.5
273.09	81.5
273.322	100.5
273.553	90.5
273.785	85.5
274.017	84.5
274.249	80.5
274.481	75.5
274.713	88.5
274.945	92.5
275.176	91.5
275.408	89.5
275.64	86.5
275.872	97.5
276.104	93.5
276.335	101.5
276.567	97.5
276.799	106.5
277.031	113.5
277.262	90.5
277.494	97.5
277.726	91.5
277.957	79.5
278.189	84.5
278.421	96.5
278.652	83.5
278.884	102.5
279.115	97.5
279.347	109.5
279.579	88.5
279.81	94.5
280.042	105.5
280.273	86.5
280.505	97.5
280.736	90.5
280.968	96.5
281.199	92.5
281.431	77.5
281.662	65.5
281.894	87.5
282.125	111.5
282.356	120.5
282.588	118.5
282.819	100.5
283.051	91.5
283.282	87.5
283.513	96.5
283.745	88.5
283.976	91.5
284.207	96.5
284.439	78.5
284.67	88.5
284.901	84.5
285.132	78.5
285.364	89.5
285.595	103.5
285.826	74.5
286.057	97.5
286.288	101.5
286.52	91.5
286.751	99.5
286.982	101.5
287.213	77.5
287.444	88.5
287.675	87.5
287.906	85.5
288.138	87.5
288.369	96.5
288.6	88.5
288.831	90.5
289.062	96.5
289.293	91.5
289.524	96.5
289.755	96.5
289.986	95.5
290.217	91.5
290.448	98.5
290.679	93.5
290.91	92.5
291.141	88.5
291.371	94.5
291.602	92.5
291.833	101.5
292.064	101.5
292.295	95.5
292.526	100.5
292.757	88.5
292.987	92.5
293.218	96.5
293.449	103.5
293.68	97.5
293.91	104.5
294.141	96.5
294.372	92.5
294.603	90.5
294.833	81.5
295.064	85.5
295.295	105.5
295.525	76.5
295.756	106.5
295.987	110.5
296.217	126.5
296.448	120.5
296.679	89.5
296.909	93.5
297.14	85.5
297.37	100.5
297.601	95.5
297.831	98.5
298.062	103.5
298.292	94.5
298.523	88.5
298.753	86.5
298.984	91.5
299.214	101.5
299.445	91.5
299.675	93.5
299.905	94.5
300.136	97.5
300.366	96.5
300.597	91.5
300.827	85.5
301.057	110.5
301.288	105.5
301.518	91.5
301.748	80.5
301.979	85.5
302.209	108.5
302.439	98.5
302.669	93.5
302.9	92.5
303.13	101.5
303.36	94.5
303.59	92.5
303.82	95.5
304.051	78.5
304.281	82.5
304.511	87.5
304.741	96.5
304.971	92.5
305.201	97.5
305.431	87.5
305.661	98.5
305.891	91.5
306.121	95.5
306.352	101.5
306.582	101.5
306.812	111.5
307.042	94.5
307.272	93.5
307.502	103.5
307.731	102.5
307.961	100.5
308.191	95.5
308.421	96.5
308.651	92.5
308.881	102.5
309.111	109.5
309.341	97.5
309.571	107.5
309.8	99.5
310.03	107.5
310.26	95.5
310.49	104.5
310.72	98.5
310.949	92.5
311.179	105.5
311.409	105.5
311.639	101.5
311.868	102.5
312.098	105.5
312.328	89.5
312.557	115.5
312.787	104.5
313.017	107.5
313.246	84.5
313.476	94.5
313.706	101.5
313.935	96.5
314.165	103.5
314.394	95.5
314.624	97.5
314.853	99.5
315.083	102.5
315.312	94.5
315.542	100.5
315.771	93.5
316.001	100.5
316.23	107.5
316.46	89.5
316.689	92.5
316.919	101.5
317.148	102.5
317.377	97.5
317.607	100.5
317.836	93.5
318.065	90.5
318.295	110.5
318.524	82.5
318.753	102.5
318.983	84.5
319.212	96.5
319.441	102.5
319.67	92.5
319.9	105.5
320.129	98.5
320.358	101.5
320.587	108.5
320.816	101.5
321.046	91.5
321.275	102.5
321.504	98.5
321.733	100.5
321.962	108.5
322.191	113.5
322.42	100.5
322.649	100.5
322.878	118.5
323.108	124.5
323.337	109.5
323.566	117.5
323.795	139.5
324.024	174.5
324.253	284.5
324.482	610.5
324.71	1244.5
324.939	1654.5
325.168	623.5
325.397	194.5
325.626	137.5
325.855	132.5
326.084	117.5
326.313	122.5
326.542	142.5
326.77	192.5
326.999	376.5
327.228	705.5
327.457	1262.5
327.686	1012.5
327.914	300.5
328.143	179.5
328.372	140.5
328.6	128.5
328.829	112.5
329.058	117.5
329.287	102.5
329.515	120.5
329.744	118.5
329.972	113.5
330.201	148.5
330.43	164.5
330.658	129.5
330.887	126.5
331.115	128.5
331.344	109.5
331.572	117.5
331.801	98.5
332.03	103.5
332.258	101.5
332.486	100.5
332.715	103.5
332.943	99.5
333.172	94.5
333.4	110.5
333.629	116.5
333.857	131.5
334.085	129.5
334.314	153.5
334.542	191.5
334.771	188.5
334.999	102.5
335.227	92.5
335.455	89.5
335.684	104.5
335.912	105.5
336.14	110.5
336.369	91.5
336.597	103.5
336.825	96.5
337.053	105.5
337.281	79.5
337.51	94.5
337.738	109.5
337.966	85.5
338.194	85.5
338.422	80.5
338.65	106.5
338.878	102.5
339.106	82.5
339.334	99.5
339.562	89.5
339.79	107.5
340.018	86.5
340.246	90.5
340.474	97.5
340.702	97.5
340.93	104.5
341.158	111.5
341.386	94.5
341.614	91.5
341.842	117.5
342.07	90.5
342.298	98.5
342.526	94.5
342.754	91.5
342.981	89.5
343.209	87.5
343.437	119.5
343.665	103.5
343.893	98.5
344.12	86.5
344.348	85.5
344.576	103.5
344.804	97.5
345.031	114.5
345.259	101.5
345.487	98.5
345.714	103.5
345.942	92.5
346.17	98.5
346.397	91.5
346.625	105.5
346.853	111.5
347.08	84.5
347.308	104.5
347.535	104.5
347.763	108.5
347.99	108.5
348.218	85.5
348.445	86.5
348.673	96.5
348.9	89.5
349.128	112.5
349.355	114.5
349.583	98.5
349.81	98.5
350.037	93.5
350.265	96.5
350.492	89.5
350.72	93.5
350.947	106.5
351.174	99.5
351.402	105.5
351.629	79.5
351.856	103.5
352.083	104.5
352.311	116.5
352.538	104.5
352.765	114.5
352.992	115.5
353.22	116.5
353.447	105.5
353.674	106.5
353.901	108.5
354.128	96.5
354.355	95.5
354.583	106.5
354.81	100.5
355.037	95.5
355.264	81.5
355.491	97.5
355.718	92.5
355.945	89.5
356.172	102.5
356.399	103.5
356.626	101.5
356.853	90.5
357.08	110.5
357.307	93.5
357.534	95.5
357.761	104.5
357.988	89.5
358.215	110.5
358.441	99.5
358.668	70.5
358.895	101.5
359.122	91.5
359.349	95.5
359.576	96.5
359.802	103.5
360.029	98.5
360.256	106.5
360.483	93.5
360.709	86.5
360.936	89.5
361.163	99.5
361.39	93.5
361.616	113.5
361.843	92.5
362.07	92.5
362.296	84.5
362.523	89.5
362.749	95.5
362.976	89.5
363.203	90.5
363.429	104.5
363.656	94.5
363.882	90.5
364.109	97.5
364.335	74.5
364.562	80.5
364.788	84.5
365.015	90.5
365.241	95.5
365.468	108.5
365.694	105.5
365.92	101.5
366.147	105.5
366.373	87.5
366.599	96.5
366.826	71.5
367.052	77.5
367.278	101.5
367.505	92.5
367.731	94.5
367.957	97.5
368.184	106.5
368.41	108.5
368.636	82.5
368.862	106.5
369.089	105.5
369.315	99.5
369.541	94.5
369.767	81.5
369.993	90.5
370.219	86.5
370.445	94.5
370.672	91.5
370.898	77.5
371.124	92.5
371.35	96.5
371.576	96.5
371.802	93.5
372.028	102.5
372.254	89.5
372.48	94.5
372.706	94.5
372.932	94.5
373.158	104.5
373.384	101.5
373.61	100.5
373.835	103.5
374.061	97.5
374.287	93.5
374.513	102.5
374.739	95.5
374.965	96.5
375.191	99.5
375.416	101.5
375.642	95.5
375.868	92.5
376.094	104.5
376.319	81.5
376.545	80.5
376.771	92.5
376.997	103.5
377.222	92.5
377.448	82.5
377.674	101.5
377.899	111.5
378.125	103.5
378.35	92.5
378.576	101.5
378.802	100.5
379.027	92.5
379.253	93.5
379.478	98.5
379.704	108.5
379.929	102.5
380.155	97.5
380.38	98.5
380.606	104.5
380.831	98.5
381.057	97.5
381.282	101.5
381.507	111.5
381.733	98.5
381.958	99.5
382.184	92.5
382.409	105.5
382.634	110.5
382.86	111.5
383.085	107.5
383.31	111.5
383.535	110.5
383.761	105.5
383.986	108.5
384.211	106.5
384.436	109.5
384.662	109.5
384.887	101.5
385.112	97.5
385.337	108.5
385.562	101.5
385.787	121.5
386.013	128.5
386.238	122.5
386.463	109.5
386.688	126.5
386.913	100.5
387.138	119.5
387.363	109.5
387.588	112.5
387.813	103.5
388.038	117.5
388.263	118.5
388.488	108.5
388.713	87.5
388.938	86.5
389.163	98.5
389.387	96.5
389.612	98.5
389.837	98.5
390.062	91.5
390.287	87.5
390.512	96.5
390.736	94.5
390.961	98.5
391.186	103.5
391.411	116.5
391.636	78.5
391.86	92.5
392.085	88.5
392.31	88.5
392.534	78.5
392.759	88.5
392.984	95.5
393.208	96.5
393.433	121.5
393.658	96.5
393.882	84.5
394.107	86.5
394.331	86.5
394.556	88.5
394.78	94.5
395.005	88.5
395.229	76.5
395.454	97.5
395.678	90.5
395.903	76.5
396.127	100.5
396.352	81.5
396.576	81.5
396.801	109.5
397.025	109.5
397.249	100.5
397.474	107.5
397.698	94.5
397.922	93.5
398.147	94.5
398.371	94.5
398.595	99.5
398.82	88.5
399.044	101.5
399.268	93.5
399.492	84.5
399.717	99.5
399.941	87.5
400.165	101.5
400.389	88.5
400.613	88.5
400.837	95.5
401.062	86.5
401.286	79.5
401.51	96.5
401.734	86.5
401.958	95.5
402.182	119.5
402.406	147.5
402.63	109.5
402.854	101.5
403.078	102.5
403.302	96.5
403.526	91.5
403.75	92.5
403.974	88.5
404.198	93.5
404.422	94.5
404.645	76.5
404.869	97.5
405.093	97.5
405.317	99.5
405.541	112.5
405.765	80.5
405.988	111.5
406.212	136.5
406.436	170.5
406.66	123.5
406.883	101.5
407.107	108.5
407.331	94.5
407.555	106.5
407.778	95.5
408.002	100.5
408.226	100.5
408.449	80.5
408.673	89.5
408.896	105.5
409.12	95.5
409.344	101.5
409.567	105.5
409.791	85.5
410.014	106.5
410.238	97.5
410.461	104.5
410.685	98.5
410.908	107.5
411.132	95.5
411.355	103.5
411.578	102.5
411.802	104.5
412.025	89.5
412.249	89.5
412.472	96.5
412.695	93.5
412.919	103.5
413.142	97.5
413.365	95.5
413.589	96.5
413.812	98.5
414.035	79.5
414.258	108.5
414.482	101.5
414.705	89.5
414.928	92.5
415.151	92.5
415.374	92.5
415.597	98.5
415.821	98.5
416.044	95.5
416.267	101.5
416.49	93.5
416.713	86.5
416.936	101.5
417.159	100.5
417.382	101.5
417.605	97.5
417.828	87.5
418.051	84.5
418.274	89.5
418.497	82.5
418.72	90.5
418.943	88.5
419.166	94.5
419.389	98.5
419.611	101.5
419.834	86.5
420.057	92.5
420.28	69.5
420.503	78.5
420.726	87.5
420.948	88.5
421.171	92.5
421.394	92.5
421.617	101.5
421.839	95.5
422.062	90.5
422.285	84.5
422.507	93.5
422.73	101.5
422.953	114.5
423.175	88.5
423.398	97.5
423.621	92.5
423.843	86.5
424.066	84.5
424.288	92.5
424.511	81.5
424.733	96.5
424.956	100.5
425.178	102.5
425.401	100.5
425.623	100.5
425.846	91.5
426.068	100.5
426.291	89.5
426.513	88.5
426.735	104.5
426.958	101.5
427.18	120.5
427.402	114.5
427.625	145.5
427.847	129.5
428.069	110.5
428.292	91.5
428.514	84.5
428.736	98.5
428.958	94.5
429.181	86.5
429.403	82.5
429.625	85.5
429.847	87.5
430.069	103.5
430.292	81.5
430.514	86.5
430.736	94.5
430.958	86.5
431.18	92.5
431.402	90.5
431.624	86.5
431.846	89.5
432.068	94.5
432.29	96.5
432.512	100.5
432.734	97.5
432.956	84.5
433.178	100.5
433.4	97.5
433.622	92.5
433.844	89.5
434.066	112.5
434.287	81.5
434.509	96.5
434.731	91.5
434.953	110.5
435.175	99.5
435.397	100.5
435.618	85.5
435.84	102.5
436.062	114.5
436.284	101.5
436.505	104.5
436.727	103.5
436.949	111.5
437.17	89.5
437.392	89.5
437.614	100.5
437.835	117.5
438.057	118.5
438.278	116.5
438.5	107.5
438.721	125.5
438.943	102.5
439.165	98.5
439.386	94.5
439.608	93.5
439.829	110.5
440.05	104.5
440.272	117.5
440.493	112.5
440.715	90.5
440.936	95.5
441.158	92.5
441.379	84.5
441.6	100.5
441.822	106.5
442.043	103.5
442.264	98.5
442.486	89.5
442.707	99.5
442.928	103.5
443.149	113.5
443.371	121.5
443.592	98.5
443.813	105.5
444.034	88.5
444.255	107.5
444.476	100.5
444.698	100.5
444.919	92.5
445.14	135.5
445.361	119.5
445.582	100.5
445.803	125.5
446.024	128.5
446.245	116.5
446.466	99.5
446.687	89.5
446.908	92.5
447.129	92.5
447.35	101.5
447.571	80.5
447.792	91.5
448.013	96.5
448.234	106.5
448.455	89.5
448.675	110.5
448.896	86.5
449.117	89.5
449.338	102.5
449.559	102.5
449.779	117.5
450	91.5
450.221	93.5
450.442	102.5
450.662	81.5
450.883	112.5
451.104	100.5
451.324	112.5
451.545	97.5
451.766	97.5
451.986	105.5
452.207	87.5
452.428	100.5
452.648	103.5
452.869	112.5
453.089	97.5
453.31	108.5
453.53	84.5
453.751	83.5
453.971	106.5
454.192	103.5
454.412	84.5
454.633	81.5
454.853	81.5
455.073	86.5
455.294	77.5
455.514	108.5
455.734	100.5
455.955	89.5
456.175	87.5
456.395	88.5
456.616	94.5
456.836	80.5
457.056	94.5
457.276	99.5
457.497	90.5
457.717	89.5
457.937	85.5
458.157	76.5
458.377	88.5
458.598	113.5
458.818	138.5
459.038	124.5
459.258	111.5
459.478	92.5
459.698	109.5
459.918	86.5
460.138	106.5
460.358	94.5
460.578	91.5
460.798	91.5
461.018	91.5
461.238	91.5
461.458	109.5
461.678	87.5
461.898	88.5
462.118	103.5
462.338	96.5
462.558	101.5
462.777	90.5
462.997	82.5
463.217	90.5
463.437	97.5
463.657	93.5
463.876	91.5
464.096	94.5
464.316	85.5
464.536	99.5
464.755	88.5
464.975	111.5
465.195	140.5
465.414	121.5
465.634	82.5
465.854	97.5
466.073	95.5
466.293	90.5
466.512	82.5
466.732	94.5
466.951	80.5
467.171	96.5
467.391	93.5
467.61	88.5
467.829	95.5
468.049	133.5
468.268	143.5
468.488	98.5
468.707	101.5
468.927	92.5
469.146	88.5
469.365	98.5
469.585	102.5
469.804	100.5
470.023	100.5
470.243	100.5
470.462	93.5
470.681	105.5
470.901	102.5
471.12	87.5
471.339	82.5
471.558	94.5
471.777	101.5
471.997	102.5
472.216	149.5
472.435	214.5
472.654	114.5
472.873	101.5
473.092	88.5
473.311	91.5
473.53	110.5
473.749	85.5
473.968	86.5
474.187	100.5
474.406	89.5
474.625	94.5
474.844	88.5
475.063	89.5
475.282	92.5
475.501	104.5
475.72	111.5
475.939	95.5
476.158	92.5
476.377	100.5
476.596	100.5
476.814	94.5
477.033	86.5
477.252	91.5
477.471	98.5
477.69	92.5
477.908	99.5
478.127	106.5
478.346	66.5
478.564	90.5
478.783	104.5
479.002	105.5
479.22	90.5
479.439	104.5
479.658	97.5
479.876	102.5
480.095	94.5
480.313	101.5
480.532	96.5
480.751	91.5
480.969	146.5
481.188	333.5
481.406	221.5
481.624	111.5
481.843	94.5
482.061	92.5
482.28	100.5
482.498	87.5
482.717	88.5
482.935	94.5
483.153	98.5
483.372	96.5
483.59	107.5
483.808	81.5
484.027	104.5
484.245	97.5
484.463	100.5
484.681	113.5
484.9	92.5
485.118	102.5
485.336	113.5
485.554	128.5
485.772	117.5
485.99	114.5
486.209	97.5
486.427	101.5
486.645	111.5
486.863	118.5
487.081	103.5
487.299	112.5
487.517	104.5
487.735	100.5
487.953	107.5
488.171	103.5
488.389	97.5
488.607	108.5
488.825	98.5
489.043	88.5
489.261	94.5
489.479	92.5
489.696	103.5
489.914	93.5
490.132	93.5
490.35	94.5
490.568	100.5
490.786	92.5
491.003	95.5
491.221	88.5
491.439	114.5
491.657	100.5
491.874	93.5
492.092	100.5
492.31	81.5
492.527	81.5
492.745	84.5
492.963	94.5
493.18	82.5
493.398	90.5
493.615	111.5
493.833	104.5
494.05	92.5
494.268	90.5
494.485	104.5
494.703	95.5
494.92	82.5
495.138	92.5
495.355	78.5
495.573	87.5
495.79	100.5
496.008	100.5
496.225	93.5
496.442	88.5
496.66	102.5
496.877	90.5
497.094	107.5
497.312	93.5
497.529	97.5
497.746	104.5
497.963	106.5
498.181	119.5
498.398	105.5
498.615	116.5
498.832	102.5
499.049	106.5
499.267	95.5
499.484	93.5
499.701	104.5
499.918	103.5
500.135	86.5
500.352	93.5
500.569	104.5
500.786	108.5
501.003	95.5
501.22	98.5
501.437	83.5
501.654	98.5
501.871	96.5
502.088	89.5
502.305	97.5
502.522	93.5
502.739	90.5
502.956	103.5
503.172	101.5
503.389	79.5
503.606	104.5
503.823	97.5
504.04	98.5
504.256	98.5
504.473	90.5
504.69	98.5
504.907	91.5
505.123	86.5
505.34	89.5
505.557	97.5
505.773	80.5
505.99	93.5
506.207	108.5
506.423	105.5
506.64	86.5
506.856	96.5
507.073	102.5
507.289	85.5
507.506	115.5
507.722	110.5
507.939	112.5
508.155	93.5
508.372	120.5
508.588	90.5
508.805	90.5
509.021	97.5
509.238	106.5
509.454	104.5
509.67	114.5
509.887	118.5
510.103	128.5
510.319	184.5
510.536	608.5
510.752	1807.5
510.968	523.5
511.184	146.5
511.401	108.5
511.617	102.5
511.833	94.5
512.049	93.5
512.265	97.5
512.481	101.5
512.698	100.5
512.914	97.5
513.13	97.5
513.346	98.5
513.562	90.5
513.778	102.5
513.994	93.5
514.21	109.5
514.426	109.5
514.642	111.5
514.858	117.5
515.074	132.5
515.29	323.5
515.506	1034.5
515.721	387.5
515.937	140.5
516.153	103.5
516.369	106.5
516.585	90.5
516.801	76.5
517.016	106.5
517.232	86.5
517.448	91.5
517.664	117.5
517.879	79.5
518.095	92.5
518.311	97.5
518.527	98.5
518.742	78.5
518.958	90.5
519.173	109.5
519.389	98.5
519.605	105.5
519.82	90.5
520.036	106.5
520.251	110.5
520.467	89.5
520.682	94.5
520.898	90.5
521.113	110.5
521.329	118.5
521.544	162.5
521.76	400.5
521.975	1670.5
522.19	1007.5
522.406	247.5
522.621	121.5
522.836	102.5
523.052	111.5
523.267	94.5
523.482	117.5
523.698	94.5
523.913	120.5
524.128	91.5
524.343	92.5
524.559	88.5
524.774	85.5
524.989	105.5
525.204	104.5
525.419	97.5
525.634	88.5
525.849	87.5
526.064	93.5
526.28	87.5
526.495	97.5
526.71	93.5
526.925	97.5
527.14	103.5
527.355	100.5
527.57	103.5
527.785	96.5
527.999	85.5
528.214	93.5
528.429	103.5
528.644	99.5
528.859	99.5
529.074	105.5
529.289	110.5
529.503	159.5
529.718	103.5
529.933	106.5
530.148	97.5
530.363	102.5
530.577	103.5
530.792	93.5
531.007	97.5
531.221	106.5
531.436	92.5
531.651	93.5
531.865	90.5
532.08	78.5
532.295	104.5
532.509	90.5
532.724	108.5
532.938	112.5
533.153	101.5
533.367	100.5
533.582	88.5
533.796	97.5
534.011	87.5
534.225	108.5
534.44	102.5
534.654	94.5
534.868	91.5
535.083	90.5
535.297	81.5
535.511	92.5
535.726	96.5
535.94	105.5
536.154	110.5
536.369	106.5
536.583	103.5
536.797	98.5
537.011	102.5
537.225	95.5
537.44	75.5
537.654	107.5
537.868	92.5
538.082	103.5
538.296	98.5
538.51	86.5
538.724	98.5
538.938	100.5
539.153	105.5
539.367	108.5
539.581	104.5
539.795	100.5
540.009	96.5
540.222	102.5
540.436	97.5
540.65	84.5
540.864	99.5
541.078	99.5
541.292	93.5
541.506	97.5
541.72	102.5
541.934	95.5
542.147	99.5
542.361	110.5
542.575	102.5
542.789	90.5
543.002	90.5
543.216	111.5
543.43	89.5
543.644	92.5
543.857	96.5
544.071	94.5
544.285	101.5
544.498	97.5
544.712	88.5
544.925	98.5
545.139	95.5
545.352	87.5
545.566	92.5
545.779	86.5
545.993	97.5
546.206	105.5
546.42	83.5
546.633	100.5
546.847	92.5
547.06	94.5
547.274	89.5
547.487	113.5
547.7	85.5
547.914	97.5
548.127	90.5
548.34	92.5
548.554	108.5
548.767	93.5
548.98	87.5
549.193	94.5
549.407	113.5
549.62	87.5
549.833	82.5
550.046	91.5
550.259	102.5
550.473	95.5
550.686	91.5
550.899	87.5
551.112	94.5
551.325	101.5
551.538	102.5
551.751	75.5
551.964	109.5
552.177	97.5
552.39	102.5
552.603	101.5
552.816	91.5
553.029	81.5
553.242	91.5
553.455	99.5
553.667	96.5
553.88	106.5
554.093	108.5
554.306	86.5
554.519	104.5
554.732	88.5
554.944	97.5
555.157	101.5
555.37	96.5
555.583	92.5
555.795	101.5
556.008	89.5
556.221	95.5
556.433	96.5
556.646	98.5
556.859	102.5
557.071	104.5
557.284	80.5
557.496	76.5
557.709	94.5
557.921	93.5
558.134	111.5
558.346	94.5
558.559	92.5
558.771	80.5
558.984	91.5
559.196	95.5
559.409	99.5
559.621	79.5
559.833	91.5
560.046	86.5
560.258	100.5
560.47	96.5
560.683	98.5
560.895	97.5
561.107	101.5
561.32	86.5
561.532	91.5
561.744	88.5
561.956	106.5
562.168	105.5
562.381	101.5
562.593	93.5
562.805	107.5
563.017	94.5
563.229	89.5
563.441	105.5
563.653	93.5
563.865	90.5
564.077	103.5
564.289	91.5
564.501	88.5
564.713	95.5
564.925	90.5
565.137	111.5
565.349	82.5
565.561	92.5
565.773	79.5
565.985	97.5
566.197	91.5
566.408	92.5
566.62	104.5
566.832	100.5
567.044	80.5
567.255	96.5
567.467	100.5
567.679	86.5
567.891	98.5
568.102	91.5
568.314	80.5
568.526	84.5
568.737	84.5
568.949	86.5
569.161	104.5
569.372	102.5
569.584	103.5
569.795	85.5
570.007	108.5
570.218	214.5
570.43	128.5
570.641	86.5
570.853	100.5
571.064	95.5
571.276	94.5
571.487	95.5
571.698	94.5
571.91	88.5
572.121	82.5
572.333	79.5
572.544	85.5
572.755	90.5
572.966	91.5
573.178	98.5
573.389	77.5
573.6	92.5
573.811	92.5
574.023	95.5
574.234	102.5
574.445	92.5
574.656	93.5
574.867	93.5
575.078	93.5
575.289	98.5
575.501	86.5
575.712	82.5
575.923	82.5
576.134	81.5
576.345	94.5
576.556	95.5
576.767	92.5
576.978	107.5
577.188	79.5
577.399	89.5
577.61	95.5
577.821	96.5
578.032	117.5
578.243	216.5
578.454	562.5
578.665	188.5
578.875	114.5
579.086	93.5
579.297	100.5
579.508	107.5
579.718	104.5
579.929	98.5
580.14	107.5
580.35	91.5
580.561	91.5
580.772	101.5
580.982	86.5
581.193	93.5
581.403	91.5
581.614	92.5
581.825	87.5
582.035	74.5
582.246	81.5
582.456	95.5
582.667	80.5
582.877	95.5
583.087	82.5
583.298	96.5
583.508	80.5
583.719	91.5
583.929	100.5
584.139	95.5
584.35	88.5
584.56	89.5
584.77	92.5
584.981	90.5
585.191	84.5
585.401	92.5
585.611	95.5
585.821	109.5
586.032	98.5
586.242	81.5
586.452	86.5
586.662	102.5
586.872	78.5
587.082	95.5
587.292	98.5
587.502	82.5
587.713	93.5
587.923	87.5
588.133	85.5
588.343	98.5
588.553	107.5
588.762	99.5
588.972	101.5
589.182	167.5
589.392	124.5
589.602	120.5
589.812	151.5
590.022	100.5
590.232	94.5
590.441	90.5
590.651	94.5
590.861	104.5
591.071	94.5
591.281	91.5
591.49	89.5
591.7	80.5
591.91	98.5
592.119	87.5
592.329	94.5
592.539	96.5
592.748	87.5
592.958	105.5
593.167	88.5
593.377	94.5
593.587	101.5
593.796	83.5
594.006	93.5
594.215	88.5
594.424	84.5
594.634	94.5
594.843	95.5
595.053	96.5
595.262	90.5
595.472	84.5
595.681	92.5
595.89	89.5
596.1	95.5
596.309	101.5
596.518	108.5
596.727	103.5
596.937	92.5
597.146	104.5
597.355	104.5
597.564	112.5
597.774	88.5
597.983	88.5
598.192	86.5
598.401	88.5
598.61	96.5
598.819	100.5
599.028	87.5
599.237	93.5
599.446	92.5
599.655	72.5
599.864	99.5
600.073	100.5
600.282	75.5
600.491	87.5
600.7	84.5
600.909	98.5
601.118	86.5
601.327	94.5
601.536	87.5
601.745	102.5
601.953	87.5
602.162	117.5
602.371	95.5
602.58	100.5
602.789	67.5
602.997	108.5
603.206	90.5
603.415	102.5
603.623	88.5
603.832	109.5
604.041	103.5
604.249	83.5
604.458	103.5
604.666	97.5
604.875	85.5
605.084	80.5
605.292	98.5
605.501	96.5
605.709	101.5
605.918	102.5
606.126	91.5
606.334	103.5
606.543	78.5
606.751	91.5
606.96	92.5
607.168	86.5
607.376	102.5
607.585	81.5
607.793	106.5
608.001	81.5
608.21	93.5
608.418	89.5
608.626	107.5
608.834	90.5
609.043	91.5
609.251	98.5
609.459	106.5
609.667	98.5
609.875	84.5
610.083	100.5
610.291	85.5
610.499	95.5
610.707	96.5
610.916	89.5
611.124	88.5
611.332	78.5
611.54	88.5
611.748	87.5
611.955	85.5
612.163	81.5
612.371	79.5
612.579	94.5
612.787	87.5
612.995	99.5
613.203	90.5
613.411	81.5
613.618	78.5
613.826	105.5
614.034	88.5
614.242	69.5
614.449	95.5
614.657	84.5
614.865	88.5
615.072	84.5
615.28	78.5
615.488	99.5
615.695	94.5
615.903	108.5
616.111	100.5
616.318	104.5
616.526	90.5
616.733	108.5
616.941	102.5
617.148	85.5
617.356	96.5
617.563	96.5
617.771	96.5
617.978	95.5
618.185	101.5
618.393	84.5
618.6	89.5
618.807	106.5
619.015	71.5
619.222	95.5
619.429	93.5
619.637	84.5
619.844	98.5
620.051	92.5
620.258	84.5
620.466	79.5
620.673	90.5
620.88	84.5
621.087	96.5
621.294	96.5
621.501	96.5
621.708	88.5
621.915	88.5
622.122	98.5
622.329	105.5
622.536	94.5
622.743	88.5
622.95	86.5
623.157	98.5
623.364	93.5
623.571	100.5
623.778	94.5
623.985	106.5
624.192	79.5
624.399	103.5
624.606	96.5
624.812	89.5
625.019	88.5
625.226	95.5
625.433	92.5
625.639	86.5
625.846	90.5
626.053	96.5
626.259	91.5
626.466	87.5
626.673	75.5
626.879	94.5
627.086	106.5
627.293	84.5
627.499	93.5
627.706	101.5
627.912	85.5
628.119	74.5
628.325	98.5
628.532	102.5
628.738	77.5
628.945	99.5
629.151	91.5
629.357	81.5
629.564	92.5
629.77	89.5
629.976	87.5
630.183	75.5
630.389	80.5
630.595	100.5
630.802	81.5
631.008	82.5
631.214	81.5
631.42	95.5
631.627	92.5
631.833	89.5
632.039	94.5
632.245	92.5
632.451	88.5
632.657	85.5
632.863	92.5
633.069	94.5
633.275	89.5
633.481	86.5
633.688	81.5
633.893	99.5
634.099	81.5
634.305	77.5
634.511	89.5
634.717	101.5
634.923	94.5
635.129	78.5
635.335	76.5
635.541	92.5
635.747	92.5
635.952	84.5
636.158	94.5
636.364	104.5
636.57	103.5
636.775	84.5
636.981	91.5
637.187	92.5
637.392	86.5
637.598	89.5
637.804	82.5
638.009	95.5
638.215	100.5
638.421	93.5
638.626	95.5
638.832	91.5
639.037	82.5
639.243	95.5
639.448	91.5
639.654	89.5
639.859	81.5
640.065	88.5
640.27	77.5
640.475	77.5
640.681	100.5
640.886	100.5
641.091	98.5
641.297	98.5
641.502	89.5
641.707	105.5
641.913	92.5
642.118	90.5
642.323	95.5
642.528	102.5
642.733	84.5
642.939	79.5
643.144	77.5
643.349	87.5
643.554	92.5
643.759	84.5
643.964	98.5
644.169	88.5
644.374	93.5
644.579	84.5
644.784	81.5
644.989	105.5
645.194	95.5
645.399	79.5
645.604	92.5
645.809	81.5
646.014	94.5
646.219	88.5
646.423	89.5
646.628	100.5
646.833	89.5
647.038	86.5
647.243	93.5
647.447	91.5
647.652	88.5
647.857	86.5
648.062	87.5
648.266	99.5
648.471	98.5
648.676	94.5
648.88	94.5
649.085	92.5
649.289	105.5
649.494	105.5
649.698	117.5
649.903	86.5
650.107	86.5
650.312	90.5
650.516	92.5
650.721	94.5
650.925	92.5
651.13	84.5
651.334	93.5
651.539	88.5
651.743	80.5
651.947	85.5
652.152	87.5
652.356	79.5
652.56	90.5
652.764	81.5
652.969	92.5
653.173	88.5
653.377	103.5
653.581	79.5
653.785	84.5
653.99	86.5
654.194	75.5
654.398	89.5
654.602	80.5
654.806	78.5
655.01	113.5
655.214	91.5
655.418	98.5
655.622	98.5
655.826	77.5
656.03	90.5
656.234	100.5
656.438	92.5
656.642	102.5
656.846	106.5
657.049	97.5
657.253	87.5
657.457	79.5
657.661	92.5
657.865	100.5
658.068	92.5
658.272	84.5
658.476	93.5
658.68	87.5
658.883	105.5
659.087	86.5
659.291	93.5
659.494	80.5
659.698	95.5
659.901	85.5
660.105	93.5
660.309	84.5
660.512	84.5
660.716	88.5
660.919	101.5
661.123	97.5
661.326	97.5
661.53	91.5
661.733	74.5
661.936	94.5
662.14	78.5
662.343	79.5
662.546	81.5
662.75	75.5
662.953	83.5
663.156	81.5
663.36	95.5
663.563	85.5
663.766	93.5
663.969	90.5
664.173	96.5
664.376	85.5
664.579	90.5
664.782	102.5
664.985	92.5
665.188	82.5
665.391	84.5
665.594	78.5
665.797	86.5
666	88.5
666.203	91.5
666.406	84.5
666.609	78.5
666.812	89.5
667.015	90.5
667.218	99.5
667.421	90.5
667.624	86.5
667.827	90.5
668.03	80.5
668.232	80.5
668.435	94.5
668.638	88.5
668.841	84.5
669.043	69.5
669.246	89.5
669.449	71.5
669.651	111.5
669.854	97.5
670.057	75.5
670.259	82.5
670.462	90.5
670.665	84.5
670.867	94.5
671.07	79.5
671.272	74.5
671.475	64.5
671.677	87.5
671.88	79.5
672.082	89.5
672.284	81.5
672.487	84.5
672.689	75.5
672.892	72.5
