Data from Circ_2004_H10_HRD10591_00095.txt Node
Date: Wed Jan 03 10:33:33 EST 2024
User: Yrep
Spectrometer: HR+D1059
Trigger mode: 1
Integration Time (sec): 1.000000E-1
Scans to average: 1
Electric dark correction enabled: true
Nonlinearity correction enabled: false
Boxcar width: 0
XAxis mode: Wavelengths
Number of Pixels in Spectrum: 2048
>>>>>Begin Spectral Data<<<<<
223.165	-9.56
223.4	-9.56
223.635	-9.56
223.869	-17.56
224.104	-15.56
224.338	-7.56
224.573	-27.56
224.808	-11.56
225.042	-20.56
225.277	-12.56
225.511	5.44
225.746	-9.56
225.98	10.44
226.215	13.44
226.449	25.44
226.683	23.44
226.918	32.44
227.152	21.44
227.387	26.44
227.621	52.44
227.856	35.44
228.09	38.44
228.324	62.44
228.559	55.44
228.793	63.44
229.027	60.44
229.262	61.44
229.496	70.44
229.73	97.44
229.964	82.44
230.199	83.44
230.433	68.44
230.667	84.44
230.901	85.44
231.136	73.44
231.37	83.44
231.604	70.44
231.838	87.44
232.072	82.44
232.306	72.44
232.541	82.44
232.775	87.44
233.009	84.44
233.243	77.44
233.477	80.44
233.711	76.44
233.945	87.44
234.179	82.44
234.413	77.44
234.647	72.44
234.881	66.44
235.115	78.44
235.349	83.44
235.583	85.44
235.817	75.44
236.051	86.44
236.285	78.44
236.519	91.44
236.753	85.44
236.987	72.44
237.221	76.44
237.455	96.44
237.689	73.44
237.922	85.44
238.156	63.44
238.39	81.44
238.624	71.44
238.858	83.44
239.091	62.44
239.325	81.44
239.559	84.44
239.793	77.44
240.027	71.44
240.26	79.44
240.494	89.44
240.728	75.44
240.961	87.44
241.195	78.44
241.429	78.44
241.662	77.44
241.896	79.44
242.13	78.44
242.363	77.44
242.597	79.44
242.83	79.44
243.064	66.44
243.298	77.44
243.531	78.44
243.765	79.44
243.998	69.44
244.232	75.44
244.465	91.44
244.699	76.44
244.932	74.44
245.166	77.44
245.399	77.44
245.633	85.44
245.866	69.44
246.099	77.44
246.333	89.44
246.566	64.44
246.8	79.44
247.033	92.44
247.266	75.44
247.5	86.44
247.733	87.44
247.966	84.44
248.2	87.44
248.433	82.44
248.666	85.44
248.899	87.44
249.133	82.44
249.366	97.44
249.599	109.44
249.832	83.44
250.066	80.44
250.299	83.44
250.532	74.44
250.765	86.44
250.998	91.44
251.231	71.44
251.465	91.44
251.698	78.44
251.931	80.44
252.164	80.44
252.397	71.44
252.63	86.44
252.863	80.44
253.096	78.44
253.329	75.44
253.562	76.44
253.795	93.44
254.028	85.44
254.261	87.44
254.494	77.44
254.727	86.44
254.96	84.44
255.193	91.44
255.426	79.44
255.659	85.44
255.892	91.44
256.124	85.44
256.357	83.44
256.59	83.44
256.823	89.44
257.056	89.44
257.289	79.44
257.521	77.44
257.754	102.44
257.987	75.44
258.22	91.44
258.452	92.44
258.685	87.44
258.918	88.44
259.151	65.44
259.383	85.44
259.616	76.44
259.849	83.44
260.081	87.44
260.314	90.44
260.547	80.44
260.779	78.44
261.012	108.44
261.244	99.44
261.477	95.44
261.71	83.44
261.942	125.44
262.175	120.44
262.407	88.44
262.64	86.44
262.872	76.44
263.105	81.44
263.337	74.44
263.57	98.44
263.802	85.44
264.035	91.44
264.267	75.44
264.499	73.44
264.732	80.44
264.964	91.44
265.197	84.44
265.429	83.44
265.661	79.44
265.894	88.44
266.126	89.44
266.358	102.44
266.591	86.44
266.823	88.44
267.055	80.44
267.287	80.44
267.52	94.44
267.752	88.44
267.984	91.44
268.216	83.44
268.448	100.44
268.681	93.44
268.913	77.44
269.145	74.44
269.377	101.44
269.609	89.44
269.841	75.44
270.073	79.44
270.306	80.44
270.538	87.44
270.77	74.44
271.002	80.44
271.234	95.44
271.466	85.44
271.698	77.44
271.93	88.44
272.162	96.44
272.394	82.44
272.626	77.44
272.858	102.44
273.09	79.44
273.322	92.44
273.553	71.44
273.785	75.44
274.017	79.44
274.249	74.44
274.481	69.44
274.713	90.44
274.945	91.44
275.176	103.44
275.408	81.44
275.64	103.44
275.872	104.44
276.104	107.44
276.335	94.44
276.567	118.44
276.799	136.44
277.031	142.44
277.262	155.44
277.494	113.44
277.726	100.44
277.957	103.44
278.189	89.44
278.421	65.44
278.652	76.44
278.884	95.44
279.115	76.44
279.347	100.44
279.579	95.44
279.81	102.44
280.042	136.44
280.273	191.44
280.505	139.44
280.736	97.44
280.968	83.44
281.199	95.44
281.431	88.44
281.662	86.44
281.894	94.44
282.125	106.44
282.356	124.44
282.588	155.44
282.819	105.44
283.051	95.44
283.282	93.44
283.513	87.44
283.745	101.44
283.976	73.44
284.207	86.44
284.439	80.44
284.67	70.44
284.901	91.44
285.132	96.44
285.364	97.44
285.595	84.44
285.826	87.44
286.057	86.44
286.288	76.44
286.52	77.44
286.751	88.44
286.982	95.44
287.213	75.44
287.444	98.44
287.675	98.44
287.906	90.44
288.138	88.44
288.369	91.44
288.6	89.44
288.831	91.44
289.062	103.44
289.293	81.44
289.524	95.44
289.755	101.44
289.986	94.44
290.217	89.44
290.448	79.44
290.679	97.44
290.91	84.44
291.141	91.44
291.371	81.44
291.602	87.44
291.833	102.44
292.064	95.44
292.295	85.44
292.526	92.44
292.757	79.44
292.987	87.44
293.218	89.44
293.449	95.44
293.68	76.44
293.91	101.44
294.141	88.44
294.372	90.44
294.603	80.44
294.833	87.44
295.064	78.44
295.295	90.44
295.525	88.44
295.756	101.44
295.987	103.44
296.217	148.44
296.448	123.44
296.679	100.44
296.909	93.44
297.14	99.44
297.37	95.44
297.601	76.44
297.831	101.44
298.062	82.44
298.292	95.44
298.523	77.44
298.753	97.44
298.984	80.44
299.214	97.44
299.445	99.44
299.675	89.44
299.905	93.44
300.136	88.44
300.366	83.44
300.597	98.44
300.827	104.44
301.057	97.44
301.288	111.44
301.518	97.44
301.748	108.44
301.979	104.44
302.209	84.44
302.439	107.44
302.669	91.44
302.9	98.44
303.13	83.44
303.36	82.44
303.59	125.44
303.82	115.44
304.051	95.44
304.281	84.44
304.511	91.44
304.741	80.44
304.971	105.44
305.201	78.44
305.431	90.44
305.661	87.44
305.891	97.44
306.121	110.44
306.352	112.44
306.582	117.44
306.812	105.44
307.042	112.44
307.272	127.44
307.502	151.44
307.731	141.44
307.961	116.44
308.191	94.44
308.421	89.44
308.651	83.44
308.881	87.44
309.111	83.44
309.341	88.44
309.571	94.44
309.8	93.44
310.03	104.44
310.26	111.44
310.49	92.44
310.72	100.44
310.949	114.44
311.179	110.44
311.409	99.44
311.639	105.44
311.868	99.44
312.098	100.44
312.328	100.44
312.557	93.44
312.787	119.44
313.017	109.44
313.246	112.44
313.476	101.44
313.706	84.44
313.935	109.44
314.165	118.44
314.394	107.44
314.624	111.44
314.853	98.44
315.083	95.44
315.312	87.44
315.542	95.44
315.771	93.44
316.001	88.44
316.23	99.44
316.46	95.44
316.689	101.44
316.919	88.44
317.148	104.44
317.377	81.44
317.607	103.44
317.836	87.44
318.065	87.44
318.295	93.44
318.524	88.44
318.753	92.44
318.983	105.44
319.212	106.44
319.441	107.44
319.67	118.44
319.9	102.44
320.129	81.44
320.358	97.44
320.587	81.44
320.816	109.44
321.046	114.44
321.275	94.44
321.504	98.44
321.733	89.44
321.962	82.44
322.191	97.44
322.42	119.44
322.649	123.44
322.878	132.44
323.108	135.44
323.337	147.44
323.566	137.44
323.795	162.44
324.024	237.44
324.253	445.44
324.482	947.44
324.71	1933.44
324.939	2561.44
325.168	939.44
325.397	283.44
325.626	153.44
325.855	137.44
326.084	130.44
326.313	142.44
326.542	178.44
326.77	244.44
326.999	515.44
327.228	1055.44
327.457	1868.44
327.686	1475.44
327.914	463.44
328.143	375.44
328.372	459.44
328.6	270.44
328.829	160.44
329.058	157.44
329.287	158.44
329.515	151.44
329.744	199.44
329.972	308.44
330.201	617.44
330.43	891.44
330.658	425.44
330.887	225.44
331.115	167.44
331.344	113.44
331.572	108.44
331.801	110.44
332.03	103.44
332.258	107.44
332.486	100.44
332.715	95.44
332.943	96.44
333.172	102.44
333.4	131.44
333.629	151.44
333.857	193.44
334.085	304.44
334.314	578.44
334.542	1061.44
334.771	1080.44
334.999	304.44
335.227	151.44
335.455	104.44
335.684	109.44
335.912	97.44
336.14	104.44
336.369	96.44
336.597	98.44
336.825	110.44
337.053	89.44
337.281	95.44
337.51	109.44
337.738	112.44
337.966	84.44
338.194	99.44
338.422	81.44
338.65	88.44
338.878	90.44
339.106	90.44
339.334	99.44
339.562	95.44
339.79	95.44
340.018	90.44
340.246	85.44
340.474	106.44
340.702	100.44
340.93	88.44
341.158	87.44
341.386	92.44
341.614	97.44
341.842	111.44
342.07	85.44
342.298	102.44
342.526	99.44
342.754	90.44
342.981	95.44
343.209	99.44
343.437	96.44
343.665	85.44
343.893	82.44
344.12	96.44
344.348	77.44
344.576	88.44
344.804	87.44
345.031	99.44
345.259	113.44
345.487	82.44
345.714	95.44
345.942	98.44
346.17	104.44
346.397	89.44
346.625	87.44
346.853	89.44
347.08	99.44
347.308	95.44
347.535	88.44
347.763	113.44
347.99	99.44
348.218	108.44
348.445	97.44
348.673	107.44
348.9	94.44
349.128	106.44
349.355	84.44
349.583	93.44
349.81	94.44
350.037	93.44
350.265	97.44
350.492	96.44
350.72	93.44
350.947	105.44
351.174	113.44
351.402	128.44
351.629	92.44
351.856	96.44
352.083	100.44
352.311	111.44
352.538	112.44
352.765	117.44
352.992	104.44
353.22	109.44
353.447	106.44
353.674	102.44
353.901	89.44
354.128	99.44
354.355	86.44
354.583	95.44
354.81	98.44
355.037	89.44
355.264	86.44
355.491	92.44
355.718	96.44
355.945	92.44
356.172	87.44
356.399	84.44
356.626	77.44
356.853	101.44
357.08	80.44
357.307	88.44
357.534	85.44
357.761	93.44
357.988	107.44
358.215	102.44
358.441	92.44
358.668	85.44
358.895	102.44
359.122	97.44
359.349	86.44
359.576	95.44
359.802	112.44
360.029	119.44
360.256	130.44
360.483	100.44
360.709	87.44
360.936	87.44
361.163	97.44
361.39	98.44
361.616	105.44
361.843	83.44
362.07	91.44
362.296	80.44
362.523	91.44
362.749	93.44
362.976	93.44
363.203	93.44
363.429	92.44
363.656	101.44
363.882	97.44
364.109	82.44
364.335	93.44
364.562	89.44
364.788	86.44
365.015	101.44
365.241	110.44
365.468	110.44
365.694	109.44
365.92	100.44
366.147	97.44
366.373	83.44
366.599	95.44
366.826	87.44
367.052	85.44
367.278	79.44
367.505	80.44
367.731	91.44
367.957	94.44
368.184	88.44
368.41	91.44
368.636	120.44
368.862	149.44
369.089	135.44
369.315	102.44
369.541	94.44
369.767	99.44
369.993	100.44
370.219	102.44
370.445	91.44
370.672	96.44
370.898	89.44
371.124	92.44
371.35	81.44
371.576	94.44
371.802	71.44
372.028	91.44
372.254	85.44
372.48	87.44
372.706	77.44
372.932	93.44
373.158	95.44
373.384	80.44
373.61	95.44
373.835	97.44
374.061	94.44
374.287	84.44
374.513	71.44
374.739	89.44
374.965	97.44
375.191	82.44
375.416	81.44
375.642	94.44
375.868	80.44
376.094	79.44
376.319	88.44
376.545	106.44
376.771	87.44
376.997	87.44
377.222	98.44
377.448	101.44
377.674	91.44
377.899	64.44
378.125	74.44
378.35	91.44
378.576	98.44
378.802	92.44
379.027	100.44
379.253	81.44
379.478	72.44
379.704	75.44
379.929	81.44
380.155	92.44
380.38	91.44
380.606	87.44
380.831	86.44
381.057	87.44
381.282	77.44
381.507	91.44
381.733	83.44
381.958	95.44
382.184	86.44
382.409	98.44
382.634	93.44
382.86	97.44
383.085	94.44
383.31	94.44
383.535	105.44
383.761	100.44
383.986	95.44
384.211	93.44
384.436	78.44
384.662	93.44
384.887	96.44
385.112	93.44
385.337	95.44
385.562	115.44
385.787	93.44
386.013	94.44
386.238	117.44
386.463	108.44
386.688	94.44
386.913	91.44
387.138	93.44
387.363	109.44
387.588	97.44
387.813	110.44
388.038	109.44
388.263	99.44
388.488	100.44
388.713	99.44
388.938	91.44
389.163	88.44
389.387	92.44
389.612	102.44
389.837	93.44
390.062	88.44
390.287	81.44
390.512	93.44
390.736	89.44
390.961	82.44
391.186	77.44
391.411	86.44
391.636	80.44
391.86	79.44
392.085	83.44
392.31	92.44
392.534	93.44
392.759	91.44
392.984	83.44
393.208	85.44
393.433	92.44
393.658	85.44
393.882	76.44
394.107	83.44
394.331	92.44
394.556	71.44
394.78	90.44
395.005	76.44
395.229	83.44
395.454	80.44
395.678	97.44
395.903	93.44
396.127	100.44
396.352	93.44
396.576	68.44
396.801	87.44
397.025	83.44
397.249	84.44
397.474	91.44
397.698	82.44
397.922	85.44
398.147	74.44
398.371	86.44
398.595	82.44
398.82	96.44
399.044	84.44
399.268	85.44
399.492	84.44
399.717	95.44
399.941	104.44
400.165	92.44
400.389	100.44
400.613	85.44
400.837	92.44
401.062	90.44
401.286	79.44
401.51	96.44
401.734	95.44
401.958	114.44
402.182	149.44
402.406	179.44
402.63	133.44
402.854	99.44
403.078	83.44
403.302	85.44
403.526	92.44
403.75	95.44
403.974	86.44
404.198	81.44
404.422	82.44
404.645	87.44
404.869	102.44
405.093	109.44
405.317	125.44
405.541	120.44
405.765	119.44
405.988	119.44
406.212	213.44
406.436	285.44
406.66	199.44
406.883	123.44
407.107	104.44
407.331	110.44
407.555	111.44
407.778	109.44
408.002	96.44
408.226	74.44
408.449	103.44
408.673	92.44
408.896	95.44
409.12	94.44
409.344	73.44
409.567	78.44
409.791	93.44
410.014	83.44
410.238	93.44
410.461	87.44
410.685	98.44
410.908	102.44
411.132	94.44
411.355	88.44
411.578	104.44
411.802	84.44
412.025	89.44
412.249	100.44
412.472	104.44
412.695	114.44
412.919	101.44
413.142	81.44
413.365	91.44
413.589	81.44
413.812	89.44
414.035	98.44
414.258	80.44
414.482	97.44
414.705	93.44
414.928	96.44
415.151	91.44
415.374	89.44
415.597	100.44
415.821	83.44
416.044	93.44
416.267	86.44
416.49	96.44
416.713	98.44
416.936	92.44
417.159	88.44
417.382	93.44
417.605	104.44
417.828	100.44
418.051	90.44
418.274	95.44
418.497	98.44
418.72	71.44
418.943	87.44
419.166	87.44
419.389	86.44
419.611	79.44
419.834	97.44
420.057	86.44
420.28	86.44
420.503	84.44
420.726	82.44
420.948	86.44
421.171	97.44
421.394	98.44
421.617	83.44
421.839	88.44
422.062	98.44
422.285	86.44
422.507	87.44
422.73	112.44
422.953	89.44
423.175	88.44
423.398	89.44
423.621	88.44
423.843	76.44
424.066	83.44
424.288	85.44
424.511	94.44
424.733	104.44
424.956	92.44
425.178	104.44
425.401	95.44
425.623	96.44
425.846	89.44
426.068	94.44
426.291	93.44
426.513	77.44
426.735	86.44
426.958	99.44
427.18	114.44
427.402	142.44
427.625	208.44
427.847	195.44
428.069	181.44
428.292	105.44
428.514	102.44
428.736	86.44
428.958	84.44
429.181	91.44
429.403	95.44
429.625	87.44
429.847	96.44
430.069	103.44
430.292	97.44
430.514	83.44
430.736	93.44
430.958	89.44
431.18	81.44
431.402	81.44
431.624	87.44
431.846	84.44
432.068	83.44
432.29	85.44
432.512	79.44
432.734	91.44
432.956	88.44
433.178	114.44
433.4	92.44
433.622	83.44
433.844	92.44
434.066	87.44
434.287	100.44
434.509	93.44
434.731	78.44
434.953	80.44
435.175	84.44
435.397	97.44
435.618	92.44
435.84	106.44
436.062	118.44
436.284	134.44
436.505	111.44
436.727	95.44
436.949	84.44
437.17	82.44
437.392	81.44
437.614	109.44
437.835	112.44
438.057	125.44
438.278	110.44
438.5	108.44
438.721	115.44
438.943	120.44
439.165	96.44
439.386	96.44
439.608	83.44
439.829	96.44
440.05	120.44
440.272	168.44
440.493	114.44
440.715	93.44
440.936	90.44
441.158	101.44
441.379	83.44
441.6	90.44
441.822	102.44
442.043	97.44
442.264	95.44
442.486	106.44
442.707	84.44
442.928	100.44
443.149	150.44
443.371	152.44
443.592	118.44
443.813	121.44
444.034	126.44
444.255	80.44
444.476	90.44
444.698	72.44
444.919	73.44
445.14	126.44
445.361	114.44
445.582	112.44
445.803	123.44
446.024	149.44
446.245	134.44
446.466	110.44
446.687	93.44
446.908	86.44
447.129	76.44
447.35	91.44
447.571	104.44
447.792	105.44
448.013	95.44
448.234	114.44
448.455	101.44
448.675	114.44
448.896	124.44
449.117	97.44
449.338	96.44
449.559	130.44
449.779	151.44
450	100.44
450.221	100.44
450.442	94.44
450.662	110.44
450.883	112.44
451.104	113.44
451.324	94.44
451.545	88.44
451.766	96.44
451.986	81.44
452.207	100.44
452.428	101.44
452.648	97.44
452.869	120.44
453.089	136.44
453.31	144.44
453.53	104.44
453.751	76.44
453.971	111.44
454.192	124.44
454.412	105.44
454.633	84.44
454.853	93.44
455.073	102.44
455.294	95.44
455.514	109.44
455.734	101.44
455.955	81.44
456.175	80.44
456.395	86.44
456.616	71.44
456.836	86.44
457.056	76.44
457.276	73.44
457.497	82.44
457.717	88.44
457.937	109.44
458.157	98.44
458.377	90.44
458.598	104.44
458.818	177.44
459.038	191.44
459.258	123.44
459.478	88.44
459.698	91.44
459.918	86.44
460.138	74.44
460.358	89.44
460.578	93.44
460.798	100.44
461.018	95.44
461.238	83.44
461.458	87.44
461.678	76.44
461.898	106.44
462.118	86.44
462.338	90.44
462.558	93.44
462.777	93.44
462.997	97.44
463.217	96.44
463.437	87.44
463.657	81.44
463.876	75.44
464.096	86.44
464.316	87.44
464.536	92.44
464.755	98.44
464.975	109.44
465.195	216.44
465.414	195.44
465.634	98.44
465.854	80.44
466.073	101.44
466.293	89.44
466.512	80.44
466.732	77.44
466.951	96.44
467.171	101.44
467.391	108.44
467.61	127.44
467.829	169.44
468.049	393.44
468.268	556.44
468.488	168.44
468.707	110.44
468.927	87.44
469.146	96.44
469.365	78.44
469.585	98.44
469.804	95.44
470.023	117.44
470.243	99.44
470.462	115.44
470.681	119.44
470.901	98.44
471.12	103.44
471.339	92.44
471.558	103.44
471.777	143.44
471.997	237.44
472.216	728.44
472.435	1611.44
472.654	420.44
472.873	123.44
473.092	91.44
473.311	98.44
473.53	102.44
473.749	82.44
473.968	97.44
474.187	116.44
474.406	106.44
474.625	99.44
474.844	92.44
475.063	94.44
475.282	87.44
475.501	83.44
475.72	89.44
475.939	77.44
476.158	87.44
476.377	66.44
476.596	86.44
476.814	108.44
477.033	97.44
477.252	79.44
477.471	84.44
477.69	97.44
477.908	89.44
478.127	105.44
478.346	96.44
478.564	96.44
478.783	105.44
479.002	99.44
479.22	110.44
479.439	116.44
479.658	113.44
479.876	123.44
480.095	113.44
480.313	134.44
480.532	145.44
480.751	211.44
480.969	663.44
481.188	2701.44
481.406	1615.44
481.624	256.44
481.843	113.44
482.061	109.44
482.28	96.44
482.498	95.44
482.717	77.44
482.935	91.44
483.153	98.44
483.372	85.44
483.59	85.44
483.808	84.44
484.027	75.44
484.245	89.44
484.463	109.44
484.681	93.44
484.9	86.44
485.118	101.44
485.336	93.44
485.554	89.44
485.772	101.44
485.99	97.44
486.209	97.44
486.427	95.44
486.645	123.44
486.863	125.44
487.081	106.44
487.299	106.44
487.517	88.44
487.735	99.44
487.953	107.44
488.171	80.44
488.389	92.44
488.607	93.44
488.825	92.44
489.043	97.44
489.261	92.44
489.479	94.44
489.696	91.44
489.914	90.44
490.132	84.44
490.35	91.44
490.568	77.44
490.786	87.44
491.003	74.44
491.221	83.44
491.439	96.44
491.657	110.44
491.874	72.44
492.092	94.44
492.31	95.44
492.527	89.44
492.745	92.44
492.963	91.44
493.18	96.44
493.398	78.44
493.615	94.44
493.833	100.44
494.05	94.44
494.268	89.44
494.485	95.44
494.703	76.44
494.92	98.44
495.138	87.44
495.355	94.44
495.573	90.44
495.79	102.44
496.008	102.44
496.225	96.44
496.442	83.44
496.66	87.44
496.877	93.44
497.094	100.44
497.312	103.44
497.529	97.44
497.746	78.44
497.963	88.44
498.181	83.44
498.398	104.44
498.615	108.44
498.832	105.44
499.049	106.44
499.267	107.44
499.484	79.44
499.701	99.44
499.918	91.44
500.135	102.44
500.352	84.44
500.569	97.44
500.786	98.44
501.003	81.44
501.22	97.44
501.437	98.44
501.654	104.44
501.871	119.44
502.088	99.44
502.305	88.44
502.522	97.44
502.739	109.44
502.956	99.44
503.172	83.44
503.389	95.44
503.606	107.44
503.823	101.44
504.04	94.44
504.256	86.44
504.473	92.44
504.69	85.44
504.907	96.44
505.123	93.44
505.34	92.44
505.557	98.44
505.773	90.44
505.99	97.44
506.207	89.44
506.423	92.44
506.64	96.44
506.856	86.44
507.073	99.44
507.289	100.44
507.506	96.44
507.722	113.44
507.939	123.44
508.155	116.44
508.372	101.44
508.588	96.44
508.805	92.44
509.021	102.44
509.238	96.44
509.454	112.44
509.67	100.44
509.887	101.44
510.103	132.44
510.319	239.44
510.536	850.44
510.752	2819.44
510.968	779.44
511.184	184.44
511.401	114.44
511.617	109.44
511.833	113.44
512.049	98.44
512.265	114.44
512.481	94.44
512.698	99.44
512.914	94.44
513.13	94.44
513.346	95.44
513.562	100.44
513.778	105.44
513.994	107.44
514.21	114.44
514.426	131.44
514.642	156.44
514.858	147.44
515.074	207.44
515.29	626.44
515.506	2162.44
515.721	787.44
515.937	196.44
516.153	128.44
516.369	110.44
516.585	110.44
516.801	98.44
517.016	100.44
517.232	109.44
517.448	98.44
517.664	103.44
517.879	112.44
518.095	99.44
518.311	97.44
518.527	93.44
518.742	97.44
518.958	102.44
519.173	91.44
519.389	93.44
519.605	97.44
519.82	94.44
520.036	128.44
520.251	139.44
520.467	118.44
520.682	117.44
520.898	104.44
521.113	128.44
521.329	168.44
521.544	253.44
521.76	817.44
521.975	3594.44
522.19	2139.44
522.406	443.44
522.621	150.44
522.836	107.44
523.052	97.44
523.267	89.44
523.482	94.44
523.698	97.44
523.913	125.44
524.128	118.44
524.343	100.44
524.559	97.44
524.774	101.44
524.989	95.44
525.204	107.44
525.419	105.44
525.634	96.44
525.849	106.44
526.064	99.44
526.28	99.44
526.495	73.44
526.71	77.44
526.925	97.44
527.14	88.44
527.355	115.44
527.57	95.44
527.785	88.44
527.999	91.44
528.214	94.44
528.429	90.44
528.644	97.44
528.859	95.44
529.074	100.44
529.289	140.44
529.503	249.44
529.718	110.44
529.933	83.44
530.148	89.44
530.363	97.44
530.577	102.44
530.792	103.44
531.007	100.44
531.221	97.44
531.436	90.44
531.651	91.44
531.865	99.44
532.08	95.44
532.295	85.44
532.509	97.44
532.724	96.44
532.938	93.44
533.153	107.44
533.367	98.44
533.582	98.44
533.796	83.44
534.011	87.44
534.225	77.44
534.44	89.44
534.654	89.44
534.868	85.44
535.083	101.44
535.297	95.44
535.511	112.44
535.726	102.44
535.94	102.44
536.154	97.44
536.369	98.44
536.583	97.44
536.797	85.44
537.011	90.44
537.225	94.44
537.44	94.44
537.654	95.44
537.868	89.44
538.082	87.44
538.296	90.44
538.51	84.44
538.724	101.44
538.938	104.44
539.153	101.44
539.367	104.44
539.581	97.44
539.795	88.44
540.009	88.44
540.222	84.44
540.436	95.44
540.65	90.44
540.864	93.44
541.078	99.44
541.292	93.44
541.506	95.44
541.72	99.44
541.934	96.44
542.147	83.44
542.361	93.44
542.575	86.44
542.789	93.44
543.002	91.44
543.216	94.44
543.43	95.44
543.644	98.44
543.857	88.44
544.071	86.44
544.285	89.44
544.498	92.44
544.712	86.44
544.925	84.44
545.139	87.44
545.352	77.44
545.566	81.44
545.779	83.44
545.993	89.44
546.206	93.44
546.42	98.44
546.633	92.44
546.847	97.44
547.06	94.44
547.274	89.44
547.487	93.44
547.7	98.44
547.914	89.44
548.127	90.44
548.34	88.44
548.554	80.44
548.767	99.44
548.98	92.44
549.193	85.44
549.407	104.44
549.62	80.44
549.833	99.44
550.046	94.44
550.259	89.44
550.473	92.44
550.686	95.44
550.899	87.44
551.112	84.44
551.325	84.44
551.538	92.44
551.751	106.44
551.964	75.44
552.177	99.44
552.39	99.44
552.603	88.44
552.816	98.44
553.029	99.44
553.242	87.44
553.455	116.44
553.667	114.44
553.88	102.44
554.093	96.44
554.306	98.44
554.519	106.44
554.732	99.44
554.944	101.44
555.157	87.44
555.37	102.44
555.583	94.44
555.795	82.44
556.008	93.44
556.221	93.44
556.433	99.44
556.646	88.44
556.859	87.44
557.071	88.44
557.284	95.44
557.496	78.44
557.709	82.44
557.921	84.44
558.134	80.44
558.346	89.44
558.559	88.44
558.771	94.44
558.984	84.44
559.196	92.44
559.409	89.44
559.621	85.44
559.833	93.44
560.046	86.44
560.258	105.44
560.47	114.44
560.683	95.44
560.895	81.44
561.107	105.44
561.32	88.44
561.532	96.44
561.744	98.44
561.956	98.44
562.168	100.44
562.381	97.44
562.593	112.44
562.805	75.44
563.017	89.44
563.229	107.44
563.441	92.44
563.653	100.44
563.865	88.44
564.077	88.44
564.289	81.44
564.501	89.44
564.713	92.44
564.925	97.44
565.137	100.44
565.349	84.44
565.561	94.44
565.773	91.44
565.985	89.44
566.197	88.44
566.408	98.44
566.62	87.44
566.832	84.44
567.044	72.44
567.255	79.44
567.467	104.44
567.679	83.44
567.891	93.44
568.102	81.44
568.314	76.44
568.526	86.44
568.737	89.44
568.949	93.44
569.161	87.44
569.372	89.44
569.584	85.44
569.795	98.44
570.007	135.44
570.218	265.44
570.43	145.44
570.641	88.44
570.853	87.44
571.064	95.44
571.276	92.44
571.487	97.44
571.698	89.44
571.91	79.44
572.121	82.44
572.333	92.44
572.544	82.44
572.755	93.44
572.966	95.44
573.178	85.44
573.389	85.44
573.6	98.44
573.811	101.44
574.023	97.44
574.234	83.44
574.445	83.44
574.656	84.44
574.867	92.44
575.078	100.44
575.289	86.44
575.501	95.44
575.712	77.44
575.923	82.44
576.134	85.44
576.345	111.44
576.556	86.44
576.767	97.44
576.978	78.44
577.188	87.44
577.399	94.44
577.61	95.44
577.821	104.44
578.032	120.44
578.243	311.44
578.454	893.44
578.665	252.44
578.875	103.44
579.086	94.44
579.297	89.44
579.508	83.44
579.718	80.44
579.929	79.44
580.14	71.44
580.35	93.44
580.561	87.44
580.772	86.44
580.982	95.44
581.193	79.44
581.403	78.44
581.614	97.44
581.825	95.44
582.035	103.44
582.246	86.44
582.456	94.44
582.667	80.44
582.877	88.44
583.087	82.44
583.298	99.44
583.508	89.44
583.719	100.44
583.929	80.44
584.139	88.44
584.35	76.44
584.56	95.44
584.77	91.44
584.981	78.44
585.191	82.44
585.401	73.44
585.611	86.44
585.821	90.44
586.032	85.44
586.242	86.44
586.452	91.44
586.662	89.44
586.872	69.44
587.082	73.44
587.292	86.44
587.502	91.44
587.713	85.44
587.923	91.44
588.133	87.44
588.343	94.44
588.553	88.44
588.762	75.44
588.972	86.44
589.182	104.44
589.392	84.44
589.602	97.44
589.812	112.44
590.022	81.44
590.232	79.44
590.441	83.44
590.651	69.44
590.861	82.44
591.071	91.44
591.281	71.44
591.49	85.44
591.7	95.44
591.91	77.44
592.119	81.44
592.329	85.44
592.539	86.44
592.748	88.44
592.958	93.44
593.167	86.44
593.377	93.44
593.587	89.44
593.796	83.44
594.006	74.44
594.215	91.44
594.424	85.44
594.634	80.44
594.843	98.44
595.053	89.44
595.262	79.44
595.472	81.44
595.681	84.44
595.89	95.44
596.1	84.44
596.309	95.44
596.518	81.44
596.727	76.44
596.937	75.44
597.146	89.44
597.355	76.44
597.564	91.44
597.774	78.44
597.983	101.44
598.192	101.44
598.401	84.44
598.61	81.44
598.819	75.44
599.028	82.44
599.237	88.44
599.446	81.44
599.655	96.44
599.864	89.44
600.073	79.44
600.282	100.44
600.491	86.44
600.7	84.44
600.909	82.44
601.118	84.44
601.327	90.44
601.536	91.44
601.745	104.44
601.953	83.44
602.162	85.44
602.371	87.44
602.58	77.44
602.789	84.44
602.997	88.44
603.206	92.44
603.415	79.44
603.623	85.44
603.832	90.44
604.041	87.44
604.249	86.44
604.458	74.44
604.666	95.44
604.875	87.44
605.084	67.44
605.292	81.44
605.501	92.44
605.709	79.44
605.918	84.44
606.126	80.44
606.334	88.44
606.543	83.44
606.751	78.44
606.96	82.44
607.168	83.44
607.376	87.44
607.585	80.44
607.793	102.44
608.001	76.44
608.21	91.44
608.418	89.44
608.626	67.44
608.834	68.44
609.043	88.44
609.251	86.44
609.459	88.44
609.667	98.44
609.875	92.44
610.083	78.44
610.291	94.44
610.499	82.44
610.707	95.44
610.916	79.44
611.124	87.44
611.332	96.44
611.54	93.44
611.748	99.44
611.955	99.44
612.163	89.44
612.371	82.44
612.579	87.44
612.787	75.44
612.995	92.44
613.203	92.44
613.411	77.44
613.618	75.44
613.826	78.44
614.034	98.44
614.242	94.44
614.449	85.44
614.657	101.44
614.865	72.44
615.072	75.44
615.28	89.44
615.488	89.44
615.695	99.44
615.903	113.44
616.111	101.44
616.318	103.44
616.526	98.44
616.733	84.44
616.941	81.44
617.148	98.44
617.356	91.44
617.563	92.44
617.771	73.44
617.978	88.44
618.185	96.44
618.393	83.44
618.6	80.44
618.807	76.44
619.015	91.44
619.222	97.44
619.429	81.44
619.637	77.44
619.844	83.44
620.051	86.44
620.258	78.44
620.466	78.44
620.673	79.44
620.88	91.44
621.087	90.44
621.294	92.44
621.501	69.44
621.708	91.44
621.915	89.44
622.122	81.44
622.329	82.44
622.536	84.44
622.743	87.44
622.95	88.44
623.157	83.44
623.364	88.44
623.571	90.44
623.778	79.44
623.985	84.44
624.192	86.44
624.399	77.44
624.606	80.44
624.812	78.44
625.019	85.44
625.226	77.44
625.433	78.44
625.639	84.44
625.846	77.44
626.053	86.44
626.259	80.44
626.466	94.44
626.673	83.44
626.879	85.44
627.086	91.44
627.293	97.44
627.499	88.44
627.706	68.44
627.912	94.44
628.119	80.44
628.325	73.44
628.532	83.44
628.738	70.44
628.945	82.44
629.151	87.44
629.357	87.44
629.564	80.44
629.77	81.44
629.976	77.44
630.183	94.44
630.389	88.44
630.595	78.44
630.802	83.44
631.008	85.44
631.214	86.44
631.42	71.44
631.627	86.44
631.833	71.44
632.039	82.44
632.245	87.44
632.451	78.44
632.657	60.44
632.863	85.44
633.069	78.44
633.275	93.44
633.481	83.44
633.688	93.44
633.893	83.44
634.099	89.44
634.305	91.44
634.511	91.44
634.717	78.44
634.923	68.44
635.129	84.44
635.335	89.44
635.541	87.44
635.747	102.44
635.952	103.44
636.158	111.44
636.364	268.44
636.57	233.44
636.775	120.44
636.981	87.44
637.187	89.44
637.392	96.44
637.598	85.44
637.804	96.44
638.009	84.44
638.215	92.44
638.421	79.44
638.626	94.44
638.832	80.44
639.037	73.44
639.243	92.44
639.448	87.44
639.654	89.44
639.859	72.44
640.065	76.44
640.27	85.44
640.475	76.44
640.681	81.44
640.886	81.44
641.091	85.44
641.297	91.44
641.502	80.44
641.707	82.44
641.913	68.44
642.118	82.44
642.323	81.44
642.528	83.44
642.733	78.44
642.939	87.44
643.144	88.44
643.349	84.44
643.554	82.44
643.759	83.44
643.964	68.44
644.169	73.44
644.374	63.44
644.579	72.44
644.784	72.44
644.989	75.44
645.194	98.44
645.399	79.44
645.604	88.44
645.809	87.44
646.014	80.44
646.219	85.44
646.423	84.44
646.628	90.44
646.833	85.44
647.038	76.44
647.243	79.44
647.447	94.44
647.652	97.44
647.857	85.44
648.062	96.44
648.266	97.44
648.471	87.44
648.676	82.44
648.88	90.44
649.085	88.44
649.289	92.44
649.494	88.44
649.698	141.44
649.903	110.44
650.107	77.44
650.312	102.44
650.516	89.44
650.721	77.44
650.925	94.44
651.13	88.44
651.334	71.44
651.539	84.44
651.743	73.44
651.947	91.44
652.152	79.44
652.356	91.44
652.56	86.44
652.764	79.44
652.969	84.44
653.173	77.44
653.377	84.44
653.581	86.44
653.785	84.44
653.99	73.44
654.194	82.44
654.398	94.44
654.602	81.44
654.806	104.44
655.01	111.44
655.214	78.44
655.418	88.44
655.622	81.44
655.826	72.44
656.03	83.44
656.234	83.44
656.438	92.44
656.642	88.44
656.846	98.44
657.049	83.44
657.253	90.44
657.457	80.44
657.661	81.44
657.865	85.44
658.068	88.44
658.272	100.44
658.476	73.44
658.68	82.44
658.883	76.44
659.087	83.44
659.291	74.44
659.494	80.44
659.698	85.44
659.901	71.44
660.105	75.44
660.309	71.44
660.512	78.44
660.716	81.44
660.919	73.44
661.123	71.44
661.326	70.44
661.53	84.44
661.733	79.44
661.936	82.44
662.14	69.44
662.343	76.44
662.546	72.44
662.75	67.44
662.953	85.44
663.156	75.44
663.36	80.44
663.563	71.44
663.766	88.44
663.969	83.44
664.173	85.44
664.376	80.44
664.579	81.44
664.782	76.44
664.985	77.44
665.188	79.44
665.391	87.44
665.594	79.44
665.797	75.44
666	80.44
666.203	77.44
666.406	92.44
666.609	77.44
666.812	84.44
667.015	72.44
667.218	81.44
667.421	70.44
667.624	88.44
667.827	86.44
668.03	66.44
668.232	66.44
668.435	84.44
668.638	89.44
668.841	75.44
669.043	76.44
669.246	87.44
669.449	88.44
669.651	61.44
669.854	67.44
670.057	71.44
670.259	83.44
670.462	75.44
670.665	64.44
670.867	76.44
671.07	83.44
671.272	81.44
671.475	87.44
671.677	83.44
671.88	102.44
672.082	80.44
672.284	75.44
672.487	94.44
672.689	93.44
672.892	88.44
