Data from Uncirc_2003_H10_HRD10591_00030.txt Node
Date: Wed Jan 03 10:35:53 EST 2024
User: Yrep
Spectrometer: HR+D1059
Trigger mode: 1
Integration Time (sec): 1.000000E-1
Scans to average: 1
Electric dark correction enabled: true
Nonlinearity correction enabled: false
Boxcar width: 0
XAxis mode: Wavelengths
Number of Pixels in Spectrum: 2048
>>>>>Begin Spectral Data<<<<<
223.165	-19
223.4	-19
223.635	-19
223.869	-36
224.104	-17
224.338	-4
224.573	-8
224.808	-16
225.042	-10
225.277	9
225.511	1
225.746	-3
225.98	7
226.215	2
226.449	24
226.683	10
226.918	24
227.152	36
227.387	35
227.621	48
227.856	42
228.09	37
228.324	46
228.559	54
228.793	67
229.027	56
229.262	64
229.496	81
229.73	81
229.964	82
230.199	82
230.433	83
230.667	83
230.901	68
231.136	91
231.37	80
231.604	69
231.838	80
232.072	91
232.306	94
232.541	73
232.775	92
233.009	66
233.243	89
233.477	73
233.711	78
233.945	94
234.179	89
234.413	80
234.647	77
234.881	82
235.115	79
235.349	74
235.583	91
235.817	69
236.051	79
236.285	56
236.519	81
236.753	89
236.987	79
237.221	83
237.455	82
237.689	75
237.922	72
238.156	66
238.39	73
238.624	63
238.858	74
239.091	71
239.325	77
239.559	73
239.793	83
240.027	74
240.26	69
240.494	74
240.728	66
240.961	76
241.195	72
241.429	71
241.662	75
241.896	71
242.13	81
242.363	72
242.597	78
242.83	82
243.064	71
243.298	72
243.531	82
243.765	62
243.998	89
244.232	70
244.465	80
244.699	82
244.932	75
245.166	80
245.399	79
245.633	80
245.866	72
246.099	82
246.333	84
246.566	72
246.8	77
247.033	84
247.266	79
247.5	89
247.733	87
247.966	90
248.2	84
248.433	83
248.666	75
248.899	82
249.133	78
249.366	87
249.599	84
249.832	83
250.066	77
250.299	74
250.532	66
250.765	79
250.998	90
251.231	80
251.465	93
251.698	76
251.931	69
252.164	77
252.397	73
252.63	80
252.863	69
253.096	79
253.329	78
253.562	84
253.795	66
254.028	80
254.261	77
254.494	73
254.727	82
254.96	84
255.193	72
255.426	76
255.659	83
255.892	81
256.124	80
256.357	79
256.59	84
256.823	68
257.056	76
257.289	90
257.521	76
257.754	73
257.987	98
258.22	78
258.452	77
258.685	82
258.918	80
259.151	68
259.383	82
259.616	71
259.849	73
260.081	91
260.314	86
260.547	76
260.779	78
261.012	77
261.244	80
261.477	90
261.71	92
261.942	89
262.175	113
262.407	92
262.64	77
262.872	76
263.105	88
263.337	89
263.57	70
263.802	88
264.035	78
264.267	79
264.499	88
264.732	86
264.964	95
265.197	81
265.429	74
265.661	76
265.894	85
266.126	99
266.358	82
266.591	74
266.823	81
267.055	79
267.287	90
267.52	82
267.752	84
267.984	100
268.216	81
268.448	66
268.681	81
268.913	76
269.145	76
269.377	82
269.609	76
269.841	80
270.073	90
270.306	97
270.538	88
270.77	81
271.002	82
271.234	72
271.466	76
271.698	81
271.93	90
272.162	92
272.394	74
272.626	83
272.858	94
273.09	80
273.322	79
273.553	83
273.785	89
274.017	77
274.249	84
274.481	88
274.713	73
274.945	77
275.176	80
275.408	84
275.64	94
275.872	88
276.104	96
276.335	95
276.567	114
276.799	104
277.031	93
277.262	87
277.494	85
277.726	89
277.957	89
278.189	79
278.421	82
278.652	86
278.884	85
279.115	88
279.347	79
279.579	81
279.81	105
280.042	84
280.273	82
280.505	93
280.736	72
280.968	88
281.199	93
281.431	83
281.662	80
281.894	82
282.125	97
282.356	130
282.588	109
282.819	100
283.051	98
283.282	90
283.513	81
283.745	89
283.976	77
284.207	85
284.439	94
284.67	80
284.901	73
285.132	103
285.364	83
285.595	90
285.826	87
286.057	88
286.288	78
286.52	77
286.751	90
286.982	83
287.213	82
287.444	78
287.675	78
287.906	101
288.138	89
288.369	92
288.6	100
288.831	89
289.062	80
289.293	85
289.524	83
289.755	92
289.986	73
290.217	84
290.448	85
290.679	80
290.91	80
291.141	77
291.371	92
291.602	93
291.833	85
292.064	81
292.295	101
292.526	93
292.757	88
292.987	80
293.218	69
293.449	68
293.68	91
293.91	87
294.141	86
294.372	73
294.603	98
294.833	91
295.064	82
295.295	67
295.525	88
295.756	100
295.987	118
296.217	124
296.448	124
296.679	95
296.909	71
297.14	93
297.37	100
297.601	71
297.831	87
298.062	92
298.292	81
298.523	82
298.753	71
298.984	78
299.214	112
299.445	88
299.675	78
299.905	87
300.136	94
300.366	84
300.597	87
300.827	90
301.057	90
301.288	105
301.518	102
301.748	90
301.979	97
302.209	89
302.439	90
302.669	76
302.9	95
303.13	85
303.36	83
303.59	105
303.82	111
304.051	96
304.281	96
304.511	99
304.741	80
304.971	87
305.201	79
305.431	85
305.661	80
305.891	99
306.121	90
306.352	99
306.582	108
306.812	88
307.042	83
307.272	90
307.502	75
307.731	97
307.961	107
308.191	91
308.421	94
308.651	102
308.881	84
309.111	101
309.341	95
309.571	98
309.8	90
310.03	102
310.26	97
310.49	85
310.72	88
310.949	101
311.179	102
311.409	96
311.639	111
311.868	103
312.098	99
312.328	90
312.557	88
312.787	106
313.017	101
313.246	87
313.476	97
313.706	103
313.935	86
314.165	106
314.394	100
314.624	104
314.853	96
315.083	93
315.312	86
315.542	95
315.771	96
316.001	80
316.23	90
316.46	89
316.689	80
316.919	99
317.148	97
317.377	96
317.607	89
317.836	88
318.065	89
318.295	84
318.524	93
318.753	80
318.983	99
319.212	98
319.441	103
319.67	111
319.9	96
320.129	110
320.358	97
320.587	100
320.816	101
321.046	102
321.275	94
321.504	95
321.733	81
321.962	90
322.191	94
322.42	102
322.649	115
322.878	102
323.108	113
323.337	126
323.566	129
323.795	143
324.024	192
324.253	423
324.482	876
324.71	1825
324.939	2355
325.168	853
325.397	247
325.626	152
325.855	136
326.084	136
326.313	131
326.542	161
326.77	237
326.999	473
327.228	995
327.457	1832
327.686	1460
327.914	378
328.143	194
328.372	154
328.6	129
328.829	123
329.058	130
329.287	120
329.515	112
329.744	99
329.972	96
330.201	105
330.43	102
330.658	111
330.887	123
331.115	110
331.344	94
331.572	106
331.801	88
332.03	100
332.258	95
332.486	94
332.715	77
332.943	86
333.172	80
333.4	88
333.629	102
333.857	112
334.085	107
334.314	92
334.542	98
334.771	105
334.999	99
335.227	86
335.455	91
335.684	91
335.912	83
336.14	94
336.369	87
336.597	100
336.825	110
337.053	89
337.281	89
337.51	93
337.738	79
337.966	94
338.194	85
338.422	96
338.65	84
338.878	98
339.106	87
339.334	95
339.562	91
339.79	84
340.018	82
340.246	85
340.474	93
340.702	92
340.93	85
341.158	98
341.386	95
341.614	104
341.842	84
342.07	96
342.298	88
342.526	88
342.754	93
342.981	89
343.209	97
343.437	97
343.665	86
343.893	103
344.12	102
344.348	94
344.576	94
344.804	92
345.031	89
345.259	90
345.487	89
345.714	93
345.942	94
346.17	85
346.397	79
346.625	85
346.853	103
347.08	70
347.308	87
347.535	94
347.763	99
347.99	102
348.218	104
348.445	105
348.673	96
348.9	99
349.128	94
349.355	73
349.583	87
349.81	84
350.037	90
350.265	89
350.492	89
350.72	96
350.947	108
351.174	107
351.402	111
351.629	95
351.856	97
352.083	97
352.311	106
352.538	101
352.765	92
352.992	111
353.22	114
353.447	100
353.674	100
353.901	87
354.128	88
354.355	93
354.583	93
354.81	98
355.037	92
355.264	95
355.491	97
355.718	97
355.945	93
356.172	101
356.399	100
356.626	92
356.853	85
357.08	86
357.307	89
357.534	102
357.761	96
357.988	104
358.215	91
358.441	84
358.668	87
358.895	84
359.122	84
359.349	93
359.576	79
359.802	90
360.029	101
360.256	101
360.483	100
360.709	88
360.936	95
361.163	80
361.39	72
361.616	92
361.843	84
362.07	83
362.296	94
362.523	83
362.749	90
362.976	89
363.203	80
363.429	81
363.656	94
363.882	86
364.109	90
364.335	88
364.562	79
364.788	100
365.015	81
365.241	94
365.468	94
365.694	105
365.92	99
366.147	82
366.373	89
366.599	86
366.826	103
367.052	106
367.278	88
367.505	78
367.731	98
367.957	92
368.184	87
368.41	105
368.636	124
368.862	130
369.089	94
369.315	93
369.541	90
369.767	89
369.993	80
370.219	82
370.445	104
370.672	74
370.898	78
371.124	90
371.35	82
371.576	96
371.802	101
372.028	93
372.254	86
372.48	97
372.706	80
372.932	77
373.158	95
373.384	89
373.61	85
373.835	77
374.061	101
374.287	78
374.513	96
374.739	93
374.965	89
375.191	84
375.416	90
375.642	86
375.868	90
376.094	90
376.319	90
376.545	83
376.771	96
376.997	85
377.222	98
377.448	83
377.674	95
377.899	93
378.125	94
378.35	98
378.576	85
378.802	92
379.027	96
379.253	89
379.478	96
379.704	87
379.929	93
380.155	92
380.38	91
380.606	98
380.831	93
381.057	96
381.282	86
381.507	93
381.733	105
381.958	100
382.184	97
382.409	95
382.634	105
382.86	94
383.085	88
383.31	95
383.535	104
383.761	97
383.986	73
384.211	88
384.436	104
384.662	100
384.887	104
385.112	103
385.337	99
385.562	97
385.787	110
386.013	101
386.238	124
386.463	94
386.688	111
386.913	104
387.138	114
387.363	96
387.588	110
387.813	113
388.038	92
388.263	102
388.488	108
388.713	82
388.938	99
389.163	93
389.387	102
389.612	82
389.837	74
390.062	90
390.287	81
390.512	89
390.736	97
390.961	89
391.186	81
391.411	97
391.636	87
391.86	65
392.085	85
392.31	82
392.534	79
392.759	80
392.984	85
393.208	94
393.433	90
393.658	87
393.882	88
394.107	76
394.331	86
394.556	100
394.78	94
395.005	94
395.229	93
395.454	92
395.678	83
395.903	88
396.127	71
396.352	86
396.576	82
396.801	100
397.025	87
397.249	77
397.474	90
397.698	77
397.922	78
398.147	81
398.371	79
398.595	99
398.82	85
399.044	79
399.268	90
399.492	93
399.717	84
399.941	80
400.165	95
400.389	92
400.613	86
400.837	87
401.062	95
401.286	88
401.51	88
401.734	88
401.958	103
402.182	130
402.406	150
402.63	112
402.854	95
403.078	86
403.302	88
403.526	85
403.75	95
403.974	85
404.198	89
404.422	84
404.645	65
404.869	96
405.093	88
405.317	100
405.541	95
405.765	103
405.988	129
406.212	176
406.436	225
406.66	136
406.883	90
407.107	102
407.331	94
407.555	92
407.778	99
408.002	90
408.226	85
408.449	101
408.673	91
408.896	79
409.12	90
409.344	94
409.567	92
409.791	99
410.014	103
410.238	98
410.461	89
410.685	107
410.908	91
411.132	110
411.355	96
411.578	88
411.802	89
412.025	98
412.249	88
412.472	97
412.695	88
412.919	86
413.142	87
413.365	84
413.589	82
413.812	89
414.035	85
414.258	77
414.482	93
414.705	101
414.928	86
415.151	89
415.374	86
415.597	87
415.821	93
416.044	88
416.267	96
416.49	94
416.713	84
416.936	84
417.159	94
417.382	84
417.605	97
417.828	95
418.051	96
418.274	97
418.497	82
418.72	94
418.943	91
419.166	88
419.389	80
419.611	84
419.834	103
420.057	84
420.28	82
420.503	79
420.726	95
420.948	80
421.171	90
421.394	83
421.617	91
421.839	96
422.062	95
422.285	99
422.507	92
422.73	95
422.953	88
423.175	88
423.398	89
423.621	99
423.843	72
424.066	88
424.288	95
424.511	99
424.733	83
424.956	105
425.178	98
425.401	106
425.623	89
425.846	90
426.068	90
426.291	91
426.513	94
426.735	100
426.958	96
427.18	90
427.402	136
427.625	147
427.847	129
428.069	86
428.292	102
428.514	99
428.736	81
428.958	78
429.181	73
429.403	89
429.625	83
429.847	93
430.069	95
430.292	92
430.514	79
430.736	90
430.958	84
431.18	81
431.402	90
431.624	98
431.846	94
432.068	87
432.29	82
432.512	97
432.734	90
432.956	82
433.178	86
433.4	101
433.622	101
433.844	100
434.066	80
434.287	92
434.509	85
434.731	90
434.953	82
435.175	90
435.397	90
435.618	86
435.84	99
436.062	117
436.284	113
436.505	86
436.727	96
436.949	79
437.17	98
437.392	88
437.614	86
437.835	117
438.057	112
438.278	105
438.5	95
438.721	118
438.943	89
439.165	87
439.386	80
439.608	82
439.829	94
440.05	117
440.272	127
440.493	93
440.715	90
440.936	83
441.158	90
441.379	82
441.6	86
441.822	84
442.043	99
442.264	94
442.486	96
442.707	90
442.928	96
443.149	126
443.371	126
443.592	103
443.813	114
444.034	90
444.255	78
444.476	81
444.698	84
444.919	79
445.14	107
445.361	111
445.582	101
445.803	118
446.024	119
446.245	130
446.466	115
446.687	100
446.908	90
447.129	83
447.35	87
447.571	95
447.792	101
448.013	97
448.234	108
448.455	95
448.675	117
448.896	127
449.117	85
449.338	98
449.559	135
449.779	136
450	96
450.221	84
450.442	97
450.662	83
450.883	94
451.104	102
451.324	70
451.545	90
451.766	87
451.986	100
452.207	80
452.428	96
452.648	94
452.869	104
453.089	98
453.31	112
453.53	68
453.751	91
453.971	99
454.192	110
454.412	88
454.633	93
454.853	82
455.073	93
455.294	84
455.514	107
455.734	92
455.955	80
456.175	86
456.395	79
456.616	89
456.836	76
457.056	67
457.276	85
457.497	81
457.717	85
457.937	88
458.157	79
458.377	82
458.598	106
458.818	144
459.038	164
459.258	113
459.478	91
459.698	94
459.918	89
460.138	75
460.358	85
460.578	80
460.798	93
461.018	79
461.238	87
461.458	85
461.678	91
461.898	79
462.118	93
462.338	90
462.558	84
462.777	92
462.997	69
463.217	77
463.437	81
463.657	99
463.876	94
464.096	88
464.316	89
464.536	96
464.755	76
464.975	101
465.195	153
465.414	148
465.634	87
465.854	91
466.073	71
466.293	81
466.512	76
466.732	88
466.951	74
467.171	85
467.391	103
467.61	104
467.829	104
468.049	99
468.268	87
468.488	82
468.707	78
468.927	86
469.146	68
469.365	78
469.585	88
469.804	91
470.023	101
470.243	93
470.462	93
470.681	101
470.901	85
471.12	71
471.339	88
471.558	84
471.777	102
471.997	94
472.216	101
472.435	95
472.654	98
472.873	98
473.092	85
473.311	79
473.53	85
473.749	88
473.968	96
474.187	105
474.406	96
474.625	79
474.844	94
475.063	103
475.282	76
475.501	80
475.72	111
475.939	89
476.158	90
476.377	88
476.596	75
476.814	82
477.033	88
477.252	92
477.471	87
477.69	85
477.908	86
478.127	89
478.346	87
478.564	99
478.783	93
479.002	84
479.22	92
479.439	92
479.658	94
479.876	82
480.095	75
480.313	86
480.532	86
480.751	93
480.969	87
481.188	110
481.406	98
481.624	82
481.843	81
482.061	73
482.28	86
482.498	86
482.717	87
482.935	86
483.153	89
483.372	89
483.59	90
483.808	89
484.027	103
484.245	87
484.463	101
484.681	105
484.9	95
485.118	86
485.336	89
485.554	85
485.772	90
485.99	103
486.209	74
486.427	107
486.645	108
486.863	107
487.081	100
487.299	87
487.517	105
487.735	94
487.953	89
488.171	102
488.389	89
488.607	103
488.825	104
489.043	86
489.261	78
489.479	93
489.696	92
489.914	94
490.132	77
490.35	99
490.568	89
490.786	90
491.003	86
491.221	89
491.439	97
491.657	111
491.874	97
492.092	86
492.31	90
492.527	93
492.745	82
492.963	89
493.18	102
493.398	86
493.615	104
493.833	92
494.05	94
494.268	100
494.485	96
494.703	95
494.92	82
495.138	74
495.355	88
495.573	106
495.79	94
496.008	84
496.225	84
496.442	78
496.66	81
496.877	91
497.094	79
497.312	93
497.529	96
497.746	89
497.963	78
498.181	85
498.398	90
498.615	96
498.832	103
499.049	81
499.267	91
499.484	81
499.701	96
499.918	92
500.135	76
500.352	92
500.569	95
500.786	84
501.003	81
501.22	89
501.437	85
501.654	81
501.871	123
502.088	98
502.305	93
502.522	94
502.739	87
502.956	88
503.172	85
503.389	86
503.606	102
503.823	105
504.04	74
504.256	82
504.473	89
504.69	105
504.907	87
505.123	94
505.34	95
505.557	93
505.773	88
505.99	89
506.207	95
506.423	68
506.64	94
506.856	87
507.073	100
507.289	106
507.506	85
507.722	104
507.939	103
508.155	78
508.372	93
508.588	82
508.805	99
509.021	113
509.238	93
509.454	110
509.67	103
509.887	120
510.103	132
510.319	204
510.536	754
510.752	2324
510.968	643
511.184	153
511.401	117
511.617	95
511.833	95
512.049	97
512.265	67
512.481	85
512.698	99
512.914	90
513.13	90
513.346	91
513.562	83
513.778	96
513.994	89
514.21	99
514.426	117
514.642	131
514.858	111
515.074	163
515.29	440
515.506	1444
515.721	536
515.937	150
516.153	104
516.369	90
516.585	85
516.801	85
517.016	94
517.232	79
517.448	94
517.664	90
517.879	101
518.095	91
518.311	100
518.527	82
518.742	97
518.958	85
519.173	99
519.389	99
519.605	90
519.82	89
520.036	108
520.251	116
520.467	121
520.682	96
520.898	111
521.113	119
521.329	140
521.544	177
521.76	564
521.975	2388
522.19	1444
522.406	316
522.621	138
522.836	100
523.052	97
523.267	82
523.482	90
523.698	100
523.913	112
524.128	108
524.343	82
524.559	102
524.774	99
524.989	85
525.204	114
525.419	99
525.634	88
525.849	81
526.064	82
526.28	98
526.495	87
526.71	77
526.925	76
527.14	90
527.355	71
527.57	84
527.785	97
527.999	77
528.214	83
528.429	101
528.644	87
528.859	100
529.074	101
529.289	115
529.503	169
529.718	113
529.933	88
530.148	92
530.363	84
530.577	80
530.792	84
531.007	82
531.221	81
531.436	88
531.651	92
531.865	98
532.08	78
532.295	94
532.509	93
532.724	96
532.938	88
533.153	89
533.367	100
533.582	93
533.796	98
534.011	90
534.225	87
534.44	80
534.654	97
534.868	84
535.083	83
535.297	106
535.511	107
535.726	88
535.94	88
536.154	82
536.369	103
536.583	88
536.797	81
537.011	77
537.225	81
537.44	90
537.654	97
537.868	93
538.082	95
538.296	79
538.51	96
538.724	94
538.938	95
539.153	89
539.367	103
539.581	99
539.795	95
540.009	94
540.222	79
540.436	73
540.65	86
540.864	97
541.078	102
541.292	86
541.506	87
541.72	93
541.934	89
542.147	84
542.361	96
542.575	89
542.789	98
543.002	94
543.216	97
543.43	83
543.644	99
543.857	81
544.071	86
544.285	112
544.498	90
544.712	93
544.925	93
545.139	87
545.352	93
545.566	88
545.779	96
545.993	90
546.206	97
546.42	89
546.633	87
546.847	101
547.06	97
547.274	90
547.487	97
547.7	87
547.914	84
548.127	74
548.34	84
548.554	103
548.767	90
548.98	89
549.193	88
549.407	80
549.62	94
549.833	76
550.046	94
550.259	92
550.473	89
550.686	81
550.899	84
551.112	77
551.325	84
551.538	84
551.751	85
551.964	99
552.177	78
552.39	93
552.603	73
552.816	83
553.029	80
553.242	84
553.455	87
553.667	98
553.88	92
554.093	86
554.306	80
554.519	77
554.732	86
554.944	89
555.157	88
555.37	108
555.583	97
555.795	78
556.008	100
556.221	88
556.433	87
556.646	98
556.859	79
557.071	76
557.284	100
557.496	103
557.709	93
557.921	91
558.134	96
558.346	93
558.559	95
558.771	76
558.984	83
559.196	93
559.409	80
559.621	82
559.833	87
560.046	101
560.258	76
560.47	93
560.683	87
560.895	89
561.107	90
561.32	76
561.532	88
561.744	88
561.956	87
562.168	89
562.381	95
562.593	101
562.805	105
563.017	85
563.229	91
563.441	83
563.653	85
563.865	83
564.077	78
564.289	89
564.501	94
564.713	90
564.925	87
565.137	94
565.349	89
565.561	85
565.773	64
565.985	74
566.197	94
566.408	75
566.62	83
566.832	89
567.044	89
567.255	86
567.467	80
567.679	96
567.891	89
568.102	83
568.314	75
568.526	78
568.737	75
568.949	94
569.161	78
569.372	84
569.584	90
569.795	96
570.007	118
570.218	263
570.43	125
570.641	84
570.853	102
571.064	88
571.276	89
571.487	95
571.698	85
571.91	101
572.121	86
572.333	82
572.544	78
572.755	93
572.966	104
573.178	71
573.389	89
573.6	99
573.811	82
574.023	90
574.234	81
574.445	86
574.656	92
574.867	85
575.078	63
575.289	88
575.501	92
575.712	92
575.923	84
576.134	89
576.345	99
576.556	94
576.767	79
576.978	85
577.188	99
577.399	78
577.61	94
577.821	102
578.032	116
578.243	281
578.454	774
578.665	207
578.875	106
579.086	84
579.297	98
579.508	88
579.718	72
579.929	81
580.14	64
580.35	78
580.561	94
580.772	95
580.982	79
581.193	86
581.403	93
581.614	83
581.825	101
582.035	91
582.246	78
582.456	94
582.667	72
582.877	96
583.087	97
583.298	86
583.508	92
583.719	86
583.929	86
584.139	57
584.35	96
584.56	95
584.77	86
584.981	80
585.191	85
585.401	78
585.611	103
585.821	81
586.032	89
586.242	97
586.452	80
586.662	85
586.872	100
587.082	90
587.292	78
587.502	69
587.713	82
587.923	63
588.133	80
588.343	103
588.553	81
588.762	81
588.972	95
589.182	82
589.392	72
589.602	94
589.812	87
590.022	108
590.232	100
590.441	92
590.651	77
590.861	87
591.071	84
591.281	90
591.49	84
591.7	90
591.91	95
592.119	83
592.329	92
592.539	102
592.748	80
592.958	84
593.167	87
593.377	67
593.587	95
593.796	80
594.006	84
594.215	84
594.424	88
594.634	79
594.843	83
595.053	88
595.262	94
595.472	88
595.681	89
595.89	89
596.1	91
596.309	75
596.518	91
596.727	89
596.937	84
597.146	84
597.355	87
597.564	86
597.774	99
597.983	86
598.192	91
598.401	88
598.61	85
598.819	87
599.028	81
599.237	101
599.446	78
599.655	82
599.864	86
600.073	77
600.282	92
600.491	88
600.7	85
600.909	91
601.118	97
601.327	92
601.536	82
601.745	90
601.953	75
602.162	88
602.371	89
602.58	84
602.789	81
602.997	87
603.206	85
603.415	81
603.623	88
603.832	84
604.041	90
604.249	89
604.458	78
604.666	83
604.875	72
605.084	82
605.292	91
605.501	96
605.709	92
605.918	87
606.126	98
606.334	71
606.543	78
606.751	76
606.96	106
607.168	80
607.376	95
607.585	81
607.793	79
608.001	80
608.21	93
608.418	84
608.626	72
608.834	89
609.043	100
609.251	84
609.459	84
609.667	97
609.875	84
610.083	87
610.291	79
610.499	76
610.707	101
610.916	81
611.124	79
611.332	82
611.54	78
611.748	83
611.955	74
612.163	97
612.371	84
612.579	80
612.787	100
612.995	83
613.203	88
613.411	72
613.618	85
613.826	88
614.034	87
614.242	92
614.449	84
614.657	81
614.865	81
615.072	85
615.28	75
615.488	77
615.695	88
615.903	105
616.111	100
616.318	92
616.526	97
616.733	100
616.941	77
617.148	84
617.356	95
617.563	100
617.771	88
617.978	94
618.185	82
618.393	87
618.6	71
618.807	77
619.015	92
619.222	68
619.429	82
619.637	81
619.844	76
620.051	75
620.258	90
620.466	90
620.673	94
620.88	84
621.087	74
621.294	79
621.501	80
621.708	79
621.915	91
622.122	95
622.329	78
622.536	93
622.743	94
622.95	88
623.157	82
623.364	85
623.571	94
623.778	90
623.985	81
624.192	86
624.399	84
624.606	95
624.812	86
625.019	82
625.226	98
625.433	87
625.639	77
625.846	79
626.053	88
626.259	90
626.466	99
626.673	94
626.879	86
627.086	97
627.293	81
627.499	86
627.706	88
627.912	92
628.119	80
628.325	81
628.532	85
628.738	86
628.945	85
629.151	84
629.357	86
629.564	90
629.77	85
629.976	89
630.183	82
630.389	82
630.595	90
630.802	93
631.008	85
631.214	73
631.42	80
631.627	81
631.833	86
632.039	89
632.245	82
632.451	87
632.657	67
632.863	76
633.069	96
633.275	79
633.481	85
633.688	90
633.893	95
634.099	86
634.305	77
634.511	82
634.717	90
634.923	88
635.129	75
635.335	68
635.541	82
635.747	77
635.952	86
636.158	81
636.364	85
636.57	87
636.775	74
636.981	81
637.187	89
637.392	82
637.598	82
637.804	77
638.009	96
638.215	81
638.421	94
638.626	80
638.832	74
639.037	93
639.243	87
639.448	84
639.654	98
639.859	96
640.065	75
640.27	89
640.475	62
640.681	82
640.886	81
641.091	81
641.297	66
641.502	90
641.707	91
641.913	74
642.118	86
642.323	85
642.528	82
642.733	81
642.939	90
643.144	82
643.349	82
643.554	99
643.759	89
643.964	76
644.169	84
644.374	87
644.579	86
644.784	81
644.989	82
645.194	92
645.399	73
645.604	93
645.809	94
646.014	98
646.219	87
646.423	88
646.628	83
646.833	96
647.038	71
647.243	70
647.447	94
647.652	86
647.857	86
648.062	95
648.266	94
648.471	99
648.676	101
648.88	89
649.085	86
649.289	88
649.494	98
649.698	132
649.903	94
650.107	101
650.312	96
650.516	89
650.721	87
650.925	80
651.13	83
651.334	80
651.539	90
651.743	80
651.947	80
652.152	75
652.356	84
652.56	83
652.764	87
652.969	85
653.173	81
653.377	86
653.581	80
653.785	75
653.99	81
654.194	88
654.398	71
654.602	96
654.806	82
655.01	94
655.214	84
655.418	88
655.622	96
655.826	86
656.03	96
656.234	84
656.438	90
656.642	76
656.846	87
657.049	75
657.253	103
657.457	73
657.661	73
657.865	74
658.068	70
658.272	92
658.476	83
658.68	82
658.883	86
659.087	82
659.291	94
659.494	75
659.698	64
659.901	72
660.105	99
660.309	90
660.512	83
660.716	80
660.919	85
661.123	70
661.326	64
661.53	90
661.733	89
661.936	77
662.14	82
662.343	80
662.546	70
662.75	81
662.953	97
663.156	72
663.36	75
663.563	69
663.766	69
663.969	67
664.173	77
664.376	72
664.579	90
664.782	81
664.985	75
665.188	76
665.391	67
665.594	77
665.797	77
666	76
666.203	72
666.406	80
666.609	82
666.812	81
667.015	81
667.218	85
667.421	74
667.624	80
667.827	84
668.03	94
668.232	87
668.435	77
668.638	83
668.841	86
669.043	90
669.246	78
669.449	92
669.651	86
669.854	72
670.057	75
670.259	72
670.462	71
670.665	77
670.867	84
671.07	87
671.272	84
671.475	94
671.677	89
671.88	89
672.082	71
672.284	86
672.487	81
672.689	78
672.892	87
