Data from Uncirc_2003_H10_HRD10591_00069.txt Node
Date: Wed Jan 03 10:36:01 EST 2024
User: Yrep
Spectrometer: HR+D1059
Trigger mode: 1
Integration Time (sec): 1.000000E-1
Scans to average: 1
Electric dark correction enabled: true
Nonlinearity correction enabled: false
Boxcar width: 0
XAxis mode: Wavelengths
Number of Pixels in Spectrum: 2048
>>>>>Begin Spectral Data<<<<<
223.165	-16.5
223.4	-16.5
223.635	-16.5
223.869	-17.5
224.104	-19.5
224.338	-28.5
224.573	-19.5
224.808	-5.5
225.042	-11.5
225.277	-15.5
225.511	2.5
225.746	11.5
225.98	11.5
226.215	16.5
226.449	20.5
226.683	19.5
226.918	18.5
227.152	33.5
227.387	34.5
227.621	47.5
227.856	48.5
228.09	49.5
228.324	56.5
228.559	64.5
228.793	59.5
229.027	59.5
229.262	66.5
229.496	76.5
229.73	105.5
229.964	91.5
230.199	102.5
230.433	78.5
230.667	86.5
230.901	78.5
231.136	84.5
231.37	78.5
231.604	78.5
231.838	84.5
232.072	88.5
232.306	83.5
232.541	86.5
232.775	71.5
233.009	72.5
233.243	81.5
233.477	86.5
233.711	79.5
233.945	91.5
234.179	85.5
234.413	75.5
234.647	84.5
234.881	81.5
235.115	72.5
235.349	78.5
235.583	95.5
235.817	78.5
236.051	84.5
236.285	86.5
236.519	78.5
236.753	85.5
236.987	83.5
237.221	80.5
237.455	78.5
237.689	87.5
237.922	66.5
238.156	78.5
238.39	87.5
238.624	56.5
238.858	79.5
239.091	84.5
239.325	72.5
239.559	83.5
239.793	85.5
240.027	94.5
240.26	65.5
240.494	76.5
240.728	82.5
240.961	82.5
241.195	94.5
241.429	81.5
241.662	82.5
241.896	79.5
242.13	74.5
242.363	84.5
242.597	81.5
242.83	84.5
243.064	74.5
243.298	77.5
243.531	76.5
243.765	86.5
243.998	87.5
244.232	80.5
244.465	92.5
244.699	76.5
244.932	87.5
245.166	79.5
245.399	77.5
245.633	70.5
245.866	82.5
246.099	90.5
246.333	73.5
246.566	77.5
246.8	83.5
247.033	76.5
247.266	79.5
247.5	72.5
247.733	79.5
247.966	87.5
248.2	83.5
248.433	84.5
248.666	80.5
248.899	97.5
249.133	91.5
249.366	95.5
249.599	101.5
249.832	103.5
250.066	80.5
250.299	86.5
250.532	76.5
250.765	85.5
250.998	81.5
251.231	97.5
251.465	84.5
251.698	88.5
251.931	81.5
252.164	88.5
252.397	74.5
252.63	81.5
252.863	75.5
253.096	87.5
253.329	88.5
253.562	81.5
253.795	69.5
254.028	87.5
254.261	101.5
254.494	81.5
254.727	85.5
254.96	77.5
255.193	85.5
255.426	72.5
255.659	95.5
255.892	84.5
256.124	89.5
256.357	89.5
256.59	86.5
256.823	89.5
257.056	83.5
257.289	65.5
257.521	84.5
257.754	85.5
257.987	92.5
258.22	75.5
258.452	96.5
258.685	76.5
258.918	79.5
259.151	83.5
259.383	86.5
259.616	79.5
259.849	92.5
260.081	76.5
260.314	80.5
260.547	82.5
260.779	82.5
261.012	84.5
261.244	82.5
261.477	88.5
261.71	101.5
261.942	110.5
262.175	107.5
262.407	91.5
262.64	80.5
262.872	82.5
263.105	89.5
263.337	96.5
263.57	83.5
263.802	79.5
264.035	90.5
264.267	92.5
264.499	93.5
264.732	89.5
264.964	91.5
265.197	92.5
265.429	92.5
265.661	72.5
265.894	92.5
266.126	76.5
266.358	95.5
266.591	87.5
266.823	84.5
267.055	85.5
267.287	89.5
267.52	85.5
267.752	80.5
267.984	76.5
268.216	82.5
268.448	83.5
268.681	80.5
268.913	88.5
269.145	91.5
269.377	102.5
269.609	86.5
269.841	83.5
270.073	63.5
270.306	72.5
270.538	95.5
270.77	95.5
271.002	104.5
271.234	81.5
271.466	78.5
271.698	76.5
271.93	83.5
272.162	91.5
272.394	96.5
272.626	78.5
272.858	79.5
273.09	79.5
273.322	89.5
273.553	96.5
273.785	80.5
274.017	92.5
274.249	87.5
274.481	96.5
274.713	90.5
274.945	87.5
275.176	94.5
275.408	75.5
275.64	81.5
275.872	90.5
276.104	91.5
276.335	81.5
276.567	102.5
276.799	103.5
277.031	91.5
277.262	89.5
277.494	91.5
277.726	90.5
277.957	94.5
278.189	95.5
278.421	90.5
278.652	90.5
278.884	94.5
279.115	93.5
279.347	90.5
279.579	94.5
279.81	83.5
280.042	86.5
280.273	87.5
280.505	86.5
280.736	96.5
280.968	84.5
281.199	97.5
281.431	68.5
281.662	91.5
281.894	87.5
282.125	110.5
282.356	114.5
282.588	122.5
282.819	109.5
283.051	92.5
283.282	100.5
283.513	83.5
283.745	91.5
283.976	84.5
284.207	74.5
284.439	88.5
284.67	102.5
284.901	87.5
285.132	86.5
285.364	87.5
285.595	76.5
285.826	91.5
286.057	101.5
286.288	82.5
286.52	96.5
286.751	84.5
286.982	87.5
287.213	94.5
287.444	82.5
287.675	82.5
287.906	84.5
288.138	75.5
288.369	99.5
288.6	96.5
288.831	91.5
289.062	84.5
289.293	85.5
289.524	71.5
289.755	86.5
289.986	89.5
290.217	93.5
290.448	97.5
290.679	90.5
290.91	98.5
291.141	73.5
291.371	84.5
291.602	95.5
291.833	86.5
292.064	91.5
292.295	93.5
292.526	76.5
292.757	90.5
292.987	92.5
293.218	86.5
293.449	79.5
293.68	99.5
293.91	88.5
294.141	80.5
294.372	102.5
294.603	98.5
294.833	76.5
295.064	99.5
295.295	90.5
295.525	81.5
295.756	91.5
295.987	115.5
296.217	131.5
296.448	119.5
296.679	104.5
296.909	88.5
297.14	86.5
297.37	94.5
297.601	89.5
297.831	91.5
298.062	78.5
298.292	91.5
298.523	98.5
298.753	74.5
298.984	89.5
299.214	68.5
299.445	92.5
299.675	96.5
299.905	105.5
300.136	86.5
300.366	89.5
300.597	91.5
300.827	103.5
301.057	98.5
301.288	91.5
301.518	86.5
301.748	90.5
301.979	100.5
302.209	95.5
302.439	89.5
302.669	88.5
302.9	84.5
303.13	107.5
303.36	97.5
303.59	114.5
303.82	92.5
304.051	90.5
304.281	95.5
304.511	102.5
304.741	91.5
304.971	76.5
305.201	95.5
305.431	90.5
305.661	89.5
305.891	106.5
306.121	96.5
306.352	105.5
306.582	111.5
306.812	98.5
307.042	81.5
307.272	96.5
307.502	85.5
307.731	82.5
307.961	112.5
308.191	88.5
308.421	86.5
308.651	75.5
308.881	92.5
309.111	90.5
309.341	94.5
309.571	99.5
309.8	111.5
310.03	110.5
310.26	95.5
310.49	109.5
310.72	97.5
310.949	83.5
311.179	101.5
311.409	92.5
311.639	102.5
311.868	102.5
312.098	103.5
312.328	91.5
312.557	104.5
312.787	106.5
313.017	83.5
313.246	100.5
313.476	88.5
313.706	87.5
313.935	84.5
314.165	89.5
314.394	97.5
314.624	107.5
314.853	99.5
315.083	90.5
315.312	100.5
315.542	97.5
315.771	94.5
316.001	106.5
316.23	99.5
316.46	109.5
316.689	102.5
316.919	102.5
317.148	90.5
317.377	97.5
317.607	105.5
317.836	107.5
318.065	87.5
318.295	92.5
318.524	93.5
318.753	99.5
318.983	107.5
319.212	98.5
319.441	111.5
319.67	114.5
319.9	92.5
320.129	91.5
320.358	94.5
320.587	92.5
320.816	88.5
321.046	120.5
321.275	92.5
321.504	106.5
321.733	106.5
321.962	100.5
322.191	102.5
322.42	102.5
322.649	114.5
322.878	117.5
323.108	117.5
323.337	119.5
323.566	136.5
323.795	155.5
324.024	205.5
324.253	411.5
324.482	870.5
324.71	1856.5
324.939	2433.5
325.168	884.5
325.397	266.5
325.626	153.5
325.855	130.5
326.084	135.5
326.313	133.5
326.542	151.5
326.77	247.5
326.999	492.5
327.228	1038.5
327.457	1840.5
327.686	1503.5
327.914	385.5
328.143	201.5
328.372	150.5
328.6	136.5
328.829	128.5
329.058	120.5
329.287	117.5
329.515	108.5
329.744	89.5
329.972	103.5
330.201	106.5
330.43	91.5
330.658	110.5
330.887	130.5
331.115	107.5
331.344	105.5
331.572	100.5
331.801	111.5
332.03	110.5
332.258	100.5
332.486	92.5
332.715	101.5
332.943	95.5
333.172	89.5
333.4	103.5
333.629	106.5
333.857	105.5
334.085	107.5
334.314	101.5
334.542	92.5
334.771	105.5
334.999	115.5
335.227	107.5
335.455	91.5
335.684	99.5
335.912	108.5
336.14	105.5
336.369	88.5
336.597	102.5
336.825	98.5
337.053	99.5
337.281	98.5
337.51	100.5
337.738	112.5
337.966	96.5
338.194	107.5
338.422	101.5
338.65	101.5
338.878	85.5
339.106	100.5
339.334	91.5
339.562	96.5
339.79	115.5
340.018	88.5
340.246	86.5
340.474	87.5
340.702	100.5
340.93	78.5
341.158	98.5
341.386	105.5
341.614	104.5
341.842	102.5
342.07	103.5
342.298	100.5
342.526	92.5
342.754	85.5
342.981	80.5
343.209	90.5
343.437	100.5
343.665	104.5
343.893	94.5
344.12	87.5
344.348	95.5
344.576	86.5
344.804	96.5
345.031	92.5
345.259	88.5
345.487	98.5
345.714	95.5
345.942	89.5
346.17	78.5
346.397	83.5
346.625	92.5
346.853	88.5
347.08	97.5
347.308	98.5
347.535	91.5
347.763	102.5
347.99	104.5
348.218	92.5
348.445	101.5
348.673	119.5
348.9	106.5
349.128	87.5
349.355	103.5
349.583	92.5
349.81	100.5
350.037	95.5
350.265	96.5
350.492	98.5
350.72	105.5
350.947	100.5
351.174	102.5
351.402	102.5
351.629	97.5
351.856	87.5
352.083	102.5
352.311	104.5
352.538	116.5
352.765	106.5
352.992	95.5
353.22	111.5
353.447	112.5
353.674	127.5
353.901	101.5
354.128	103.5
354.355	82.5
354.583	95.5
354.81	91.5
355.037	98.5
355.264	92.5
355.491	86.5
355.718	88.5
355.945	100.5
356.172	105.5
356.399	92.5
356.626	90.5
356.853	99.5
357.08	88.5
357.307	82.5
357.534	98.5
357.761	95.5
357.988	92.5
358.215	95.5
358.441	95.5
358.668	100.5
358.895	98.5
359.122	92.5
359.349	98.5
359.576	91.5
359.802	99.5
360.029	104.5
360.256	114.5
360.483	101.5
360.709	98.5
360.936	90.5
361.163	105.5
361.39	105.5
361.616	108.5
361.843	101.5
362.07	99.5
362.296	92.5
362.523	84.5
362.749	81.5
362.976	91.5
363.203	99.5
363.429	93.5
363.656	83.5
363.882	88.5
364.109	90.5
364.335	81.5
364.562	103.5
364.788	87.5
365.015	99.5
365.241	95.5
365.468	127.5
365.694	102.5
365.92	105.5
366.147	89.5
366.373	99.5
366.599	93.5
366.826	86.5
367.052	96.5
367.278	88.5
367.505	98.5
367.731	99.5
367.957	92.5
368.184	86.5
368.41	97.5
368.636	108.5
368.862	116.5
369.089	113.5
369.315	90.5
369.541	92.5
369.767	97.5
369.993	82.5
370.219	98.5
370.445	95.5
370.672	78.5
370.898	75.5
371.124	87.5
371.35	81.5
371.576	87.5
371.802	91.5
372.028	91.5
372.254	105.5
372.48	89.5
372.706	95.5
372.932	73.5
373.158	98.5
373.384	86.5
373.61	98.5
373.835	79.5
374.061	82.5
374.287	78.5
374.513	89.5
374.739	92.5
374.965	100.5
375.191	89.5
375.416	91.5
375.642	96.5
375.868	98.5
376.094	94.5
376.319	82.5
376.545	90.5
376.771	83.5
376.997	92.5
377.222	79.5
377.448	89.5
377.674	80.5
377.899	84.5
378.125	83.5
378.35	92.5
378.576	92.5
378.802	92.5
379.027	85.5
379.253	91.5
379.478	100.5
379.704	98.5
379.929	89.5
380.155	91.5
380.38	108.5
380.606	90.5
380.831	100.5
381.057	97.5
381.282	100.5
381.507	102.5
381.733	100.5
381.958	92.5
382.184	89.5
382.409	92.5
382.634	87.5
382.86	88.5
383.085	90.5
383.31	102.5
383.535	87.5
383.761	103.5
383.986	113.5
384.211	87.5
384.436	101.5
384.662	116.5
384.887	99.5
385.112	106.5
385.337	97.5
385.562	99.5
385.787	96.5
386.013	99.5
386.238	113.5
386.463	105.5
386.688	106.5
386.913	103.5
387.138	111.5
387.363	94.5
387.588	92.5
387.813	113.5
388.038	107.5
388.263	112.5
388.488	98.5
388.713	101.5
388.938	106.5
389.163	88.5
389.387	107.5
389.612	102.5
389.837	86.5
390.062	88.5
390.287	91.5
390.512	71.5
390.736	88.5
390.961	107.5
391.186	94.5
391.411	93.5
391.636	83.5
391.86	93.5
392.085	95.5
392.31	84.5
392.534	86.5
392.759	75.5
392.984	79.5
393.208	89.5
393.433	91.5
393.658	92.5
393.882	90.5
394.107	95.5
394.331	83.5
394.556	96.5
394.78	94.5
395.005	97.5
395.229	86.5
395.454	92.5
395.678	76.5
395.903	72.5
396.127	82.5
396.352	87.5
396.576	81.5
396.801	84.5
397.025	85.5
397.249	89.5
397.474	86.5
397.698	83.5
397.922	93.5
398.147	82.5
398.371	94.5
398.595	91.5
398.82	92.5
399.044	91.5
399.268	102.5
399.492	88.5
399.717	77.5
399.941	89.5
400.165	104.5
400.389	107.5
400.613	86.5
400.837	96.5
401.062	93.5
401.286	92.5
401.51	89.5
401.734	95.5
401.958	92.5
402.182	123.5
402.406	144.5
402.63	105.5
402.854	98.5
403.078	79.5
403.302	107.5
403.526	85.5
403.75	101.5
403.974	99.5
404.198	92.5
404.422	88.5
404.645	92.5
404.869	80.5
405.093	88.5
405.317	96.5
405.541	90.5
405.765	94.5
405.988	102.5
406.212	169.5
406.436	220.5
406.66	149.5
406.883	96.5
407.107	83.5
407.331	92.5
407.555	90.5
407.778	99.5
408.002	90.5
408.226	87.5
408.449	94.5
408.673	92.5
408.896	99.5
409.12	90.5
409.344	81.5
409.567	83.5
409.791	88.5
410.014	92.5
410.238	90.5
410.461	84.5
410.685	103.5
410.908	96.5
411.132	107.5
411.355	108.5
411.578	86.5
411.802	83.5
412.025	93.5
412.249	89.5
412.472	98.5
412.695	104.5
412.919	79.5
413.142	80.5
413.365	88.5
413.589	83.5
413.812	90.5
414.035	81.5
414.258	81.5
414.482	74.5
414.705	91.5
414.928	100.5
415.151	93.5
415.374	100.5
415.597	91.5
415.821	94.5
416.044	89.5
416.267	80.5
416.49	73.5
416.713	89.5
416.936	89.5
417.159	80.5
417.382	94.5
417.605	89.5
417.828	98.5
418.051	83.5
418.274	90.5
418.497	98.5
418.72	98.5
418.943	95.5
419.166	81.5
419.389	88.5
419.611	80.5
419.834	85.5
420.057	98.5
420.28	99.5
420.503	85.5
420.726	95.5
420.948	76.5
421.171	89.5
421.394	84.5
421.617	91.5
421.839	85.5
422.062	102.5
422.285	97.5
422.507	105.5
422.73	107.5
422.953	94.5
423.175	81.5
423.398	74.5
423.621	90.5
423.843	84.5
424.066	103.5
424.288	88.5
424.511	89.5
424.733	101.5
424.956	106.5
425.178	95.5
425.401	107.5
425.623	97.5
425.846	84.5
426.068	88.5
426.291	102.5
426.513	98.5
426.735	97.5
426.958	96.5
427.18	101.5
427.402	143.5
427.625	160.5
427.847	114.5
428.069	97.5
428.292	98.5
428.514	97.5
428.736	92.5
428.958	87.5
429.181	80.5
429.403	73.5
429.625	88.5
429.847	90.5
430.069	99.5
430.292	93.5
430.514	81.5
430.736	92.5
430.958	85.5
431.18	97.5
431.402	92.5
431.624	101.5
431.846	85.5
432.068	102.5
432.29	104.5
432.512	101.5
432.734	85.5
432.956	97.5
433.178	112.5
433.4	96.5
433.622	90.5
433.844	84.5
434.066	83.5
434.287	87.5
434.509	99.5
434.731	97.5
434.953	82.5
435.175	92.5
435.397	85.5
435.618	81.5
435.84	117.5
436.062	119.5
436.284	120.5
436.505	91.5
436.727	82.5
436.949	91.5
437.17	91.5
437.392	79.5
437.614	89.5
437.835	106.5
438.057	102.5
438.278	102.5
438.5	97.5
438.721	106.5
438.943	97.5
439.165	83.5
439.386	92.5
439.608	103.5
439.829	103.5
440.05	104.5
440.272	123.5
440.493	105.5
440.715	95.5
440.936	81.5
441.158	88.5
441.379	86.5
441.6	98.5
441.822	98.5
442.043	91.5
442.264	108.5
442.486	100.5
442.707	100.5
442.928	109.5
443.149	128.5
443.371	130.5
443.592	101.5
443.813	111.5
444.034	102.5
444.255	115.5
444.476	95.5
444.698	84.5
444.919	88.5
445.14	150.5
445.361	126.5
445.582	117.5
445.803	118.5
446.024	124.5
446.245	136.5
446.466	103.5
446.687	83.5
446.908	99.5
447.129	99.5
447.35	101.5
447.571	97.5
447.792	85.5
448.013	98.5
448.234	102.5
448.455	96.5
448.675	110.5
448.896	111.5
449.117	96.5
449.338	93.5
449.559	116.5
449.779	120.5
450	86.5
450.221	92.5
450.442	90.5
450.662	117.5
450.883	94.5
451.104	109.5
451.324	92.5
451.545	86.5
451.766	95.5
451.986	96.5
452.207	78.5
452.428	91.5
452.648	96.5
452.869	109.5
453.089	106.5
453.31	116.5
453.53	99.5
453.751	82.5
453.971	102.5
454.192	103.5
454.412	92.5
454.633	88.5
454.853	91.5
455.073	85.5
455.294	93.5
455.514	106.5
455.734	75.5
455.955	86.5
456.175	88.5
456.395	91.5
456.616	98.5
456.836	72.5
457.056	83.5
457.276	87.5
457.497	76.5
457.717	87.5
457.937	90.5
458.157	87.5
458.377	94.5
458.598	107.5
458.818	139.5
459.038	163.5
459.258	115.5
459.478	99.5
459.698	84.5
459.918	84.5
460.138	96.5
460.358	85.5
460.578	85.5
460.798	89.5
461.018	93.5
461.238	80.5
461.458	96.5
461.678	88.5
461.898	75.5
462.118	91.5
462.338	86.5
462.558	72.5
462.777	92.5
462.997	94.5
463.217	83.5
463.437	78.5
463.657	81.5
463.876	91.5
464.096	81.5
464.316	99.5
464.536	91.5
464.755	105.5
464.975	104.5
465.195	156.5
465.414	139.5
465.634	91.5
465.854	91.5
466.073	84.5
466.293	90.5
466.512	88.5
466.732	78.5
466.951	96.5
467.171	90.5
467.391	105.5
467.61	108.5
467.829	97.5
468.049	102.5
468.268	97.5
468.488	89.5
468.707	100.5
468.927	89.5
469.146	70.5
469.365	93.5
469.585	92.5
469.804	106.5
470.023	97.5
470.243	90.5
470.462	111.5
470.681	102.5
470.901	106.5
471.12	105.5
471.339	111.5
471.558	89.5
471.777	90.5
471.997	84.5
472.216	97.5
472.435	88.5
472.654	91.5
472.873	91.5
473.092	99.5
473.311	84.5
473.53	88.5
473.749	95.5
473.968	96.5
474.187	103.5
474.406	99.5
474.625	94.5
474.844	92.5
475.063	85.5
475.282	91.5
475.501	74.5
475.72	93.5
475.939	92.5
476.158	91.5
476.377	105.5
476.596	91.5
476.814	86.5
477.033	92.5
477.252	98.5
477.471	88.5
477.69	87.5
477.908	96.5
478.127	76.5
478.346	94.5
478.564	83.5
478.783	86.5
479.002	89.5
479.22	92.5
479.439	96.5
479.658	110.5
479.876	84.5
480.095	82.5
480.313	93.5
480.532	85.5
480.751	83.5
480.969	97.5
481.188	99.5
481.406	104.5
481.624	90.5
481.843	95.5
482.061	91.5
482.28	95.5
482.498	86.5
482.717	82.5
482.935	90.5
483.153	87.5
483.372	83.5
483.59	74.5
483.808	100.5
484.027	97.5
484.245	94.5
484.463	88.5
484.681	107.5
484.9	103.5
485.118	92.5
485.336	79.5
485.554	99.5
485.772	107.5
485.99	109.5
486.209	101.5
486.427	95.5
486.645	101.5
486.863	119.5
487.081	121.5
487.299	98.5
487.517	91.5
487.735	100.5
487.953	94.5
488.171	86.5
488.389	91.5
488.607	106.5
488.825	85.5
489.043	80.5
489.261	92.5
489.479	87.5
489.696	91.5
489.914	73.5
490.132	103.5
490.35	101.5
490.568	85.5
490.786	89.5
491.003	78.5
491.221	96.5
491.439	82.5
491.657	95.5
491.874	80.5
492.092	89.5
492.31	91.5
492.527	100.5
492.745	96.5
492.963	92.5
493.18	83.5
493.398	102.5
493.615	87.5
493.833	93.5
494.05	103.5
494.268	104.5
494.485	89.5
494.703	102.5
494.92	93.5
495.138	89.5
495.355	104.5
495.573	89.5
495.79	101.5
496.008	96.5
496.225	84.5
496.442	82.5
496.66	99.5
496.877	93.5
497.094	103.5
497.312	82.5
497.529	87.5
497.746	87.5
497.963	80.5
498.181	112.5
498.398	98.5
498.615	101.5
498.832	85.5
499.049	99.5
499.267	94.5
499.484	90.5
499.701	92.5
499.918	78.5
500.135	101.5
500.352	81.5
500.569	83.5
500.786	99.5
501.003	86.5
501.22	93.5
501.437	97.5
501.654	95.5
501.871	108.5
502.088	90.5
502.305	96.5
502.522	83.5
502.739	84.5
502.956	91.5
503.172	98.5
503.389	95.5
503.606	108.5
503.823	98.5
504.04	96.5
504.256	84.5
504.473	98.5
504.69	97.5
504.907	87.5
505.123	89.5
505.34	97.5
505.557	96.5
505.773	93.5
505.99	84.5
506.207	100.5
506.423	98.5
506.64	98.5
506.856	94.5
507.073	95.5
507.289	86.5
507.506	101.5
507.722	113.5
507.939	117.5
508.155	93.5
508.372	101.5
508.588	98.5
508.805	82.5
509.021	95.5
509.238	112.5
509.454	112.5
509.67	109.5
509.887	112.5
510.103	130.5
510.319	220.5
510.536	786.5
510.752	2496.5
510.968	687.5
511.184	153.5
511.401	104.5
511.617	87.5
511.833	87.5
512.049	82.5
512.265	98.5
512.481	102.5
512.698	100.5
512.914	100.5
513.13	95.5
513.346	98.5
513.562	93.5
513.778	95.5
513.994	96.5
514.21	111.5
514.426	121.5
514.642	132.5
514.858	121.5
515.074	169.5
515.29	443.5
515.506	1504.5
515.721	536.5
515.937	162.5
516.153	100.5
516.369	100.5
516.585	96.5
516.801	95.5
517.016	99.5
517.232	97.5
517.448	104.5
517.664	89.5
517.879	102.5
518.095	113.5
518.311	115.5
518.527	91.5
518.742	84.5
518.958	82.5
519.173	89.5
519.389	114.5
519.605	102.5
519.82	96.5
520.036	101.5
520.251	116.5
520.467	126.5
520.682	94.5
520.898	105.5
521.113	108.5
521.329	120.5
521.544	209.5
521.76	531.5
521.975	2372.5
522.19	1442.5
522.406	326.5
522.621	138.5
522.836	111.5
523.052	89.5
523.267	96.5
523.482	87.5
523.698	88.5
523.913	113.5
524.128	97.5
524.343	98.5
524.559	93.5
524.774	103.5
524.989	89.5
525.204	110.5
525.419	95.5
525.634	89.5
525.849	95.5
526.064	94.5
526.28	84.5
526.495	102.5
526.71	99.5
526.925	110.5
527.14	82.5
527.355	76.5
527.57	89.5
527.785	86.5
527.999	80.5
528.214	97.5
528.429	99.5
528.644	102.5
528.859	100.5
529.074	101.5
529.289	131.5
529.503	174.5
529.718	93.5
529.933	94.5
530.148	95.5
530.363	97.5
530.577	117.5
530.792	102.5
531.007	95.5
531.221	86.5
531.436	95.5
531.651	95.5
531.865	105.5
532.08	93.5
532.295	99.5
532.509	96.5
532.724	92.5
532.938	80.5
533.153	101.5
533.367	98.5
533.582	99.5
533.796	107.5
534.011	97.5
534.225	87.5
534.44	88.5
534.654	90.5
534.868	94.5
535.083	91.5
535.297	89.5
535.511	100.5
535.726	110.5
535.94	103.5
536.154	110.5
536.369	95.5
536.583	81.5
536.797	73.5
537.011	86.5
537.225	100.5
537.44	96.5
537.654	98.5
537.868	84.5
538.082	90.5
538.296	98.5
538.51	102.5
538.724	97.5
538.938	96.5
539.153	90.5
539.367	111.5
539.581	91.5
539.795	88.5
540.009	87.5
540.222	78.5
540.436	83.5
540.65	83.5
540.864	78.5
541.078	105.5
541.292	91.5
541.506	82.5
541.72	91.5
541.934	77.5
542.147	82.5
542.361	97.5
542.575	66.5
542.789	100.5
543.002	92.5
543.216	90.5
543.43	99.5
543.644	96.5
543.857	109.5
544.071	78.5
544.285	96.5
544.498	105.5
544.712	98.5
544.925	107.5
545.139	89.5
545.352	96.5
545.566	101.5
545.779	89.5
545.993	84.5
546.206	81.5
546.42	101.5
546.633	84.5
546.847	99.5
547.06	89.5
547.274	92.5
547.487	78.5
547.7	92.5
547.914	80.5
548.127	92.5
548.34	78.5
548.554	84.5
548.767	89.5
548.98	97.5
549.193	85.5
549.407	90.5
549.62	78.5
549.833	81.5
550.046	89.5
550.259	99.5
550.473	97.5
550.686	91.5
550.899	90.5
551.112	92.5
551.325	87.5
551.538	97.5
551.751	74.5
551.964	100.5
552.177	113.5
552.39	98.5
552.603	90.5
552.816	93.5
553.029	95.5
553.242	84.5
553.455	100.5
553.667	106.5
553.88	90.5
554.093	106.5
554.306	89.5
554.519	87.5
554.732	102.5
554.944	101.5
555.157	85.5
555.37	87.5
555.583	86.5
555.795	98.5
556.008	74.5
556.221	88.5
556.433	81.5
556.646	94.5
556.859	100.5
557.071	92.5
557.284	94.5
557.496	89.5
557.709	83.5
557.921	83.5
558.134	92.5
558.346	101.5
558.559	92.5
558.771	88.5
558.984	79.5
559.196	101.5
559.409	88.5
559.621	92.5
559.833	86.5
560.046	92.5
560.258	79.5
560.47	85.5
560.683	91.5
560.895	88.5
561.107	100.5
561.32	88.5
561.532	91.5
561.744	103.5
561.956	97.5
562.168	87.5
562.381	97.5
562.593	88.5
562.805	111.5
563.017	87.5
563.229	92.5
563.441	87.5
563.653	88.5
563.865	88.5
564.077	83.5
564.289	72.5
564.501	95.5
564.713	88.5
564.925	85.5
565.137	102.5
565.349	105.5
565.561	104.5
565.773	120.5
565.985	97.5
566.197	82.5
566.408	88.5
566.62	91.5
566.832	84.5
567.044	87.5
567.255	92.5
567.467	83.5
567.679	80.5
567.891	95.5
568.102	80.5
568.314	103.5
568.526	86.5
568.737	86.5
568.949	85.5
569.161	82.5
569.372	96.5
569.584	92.5
569.795	103.5
570.007	115.5
570.218	257.5
570.43	139.5
570.641	100.5
570.853	72.5
571.064	95.5
571.276	74.5
571.487	71.5
571.698	94.5
571.91	84.5
572.121	79.5
572.333	81.5
572.544	94.5
572.755	96.5
572.966	102.5
573.178	84.5
573.389	95.5
573.6	107.5
573.811	93.5
574.023	95.5
574.234	103.5
574.445	85.5
574.656	92.5
574.867	79.5
575.078	96.5
575.289	95.5
575.501	87.5
575.712	88.5
575.923	85.5
576.134	82.5
576.345	98.5
576.556	102.5
576.767	107.5
576.978	100.5
577.188	84.5
577.399	90.5
577.61	83.5
577.821	107.5
578.032	106.5
578.243	278.5
578.454	805.5
578.665	230.5
578.875	105.5
579.086	89.5
579.297	71.5
579.508	101.5
579.718	97.5
579.929	84.5
580.14	101.5
580.35	96.5
580.561	101.5
580.772	80.5
580.982	74.5
581.193	83.5
581.403	91.5
581.614	74.5
581.825	82.5
582.035	93.5
582.246	88.5
582.456	100.5
582.667	96.5
582.877	81.5
583.087	77.5
583.298	74.5
583.508	78.5
583.719	95.5
583.929	92.5
584.139	85.5
584.35	92.5
584.56	96.5
584.77	91.5
584.981	88.5
585.191	95.5
585.401	95.5
585.611	99.5
585.821	97.5
586.032	110.5
586.242	92.5
586.452	79.5
586.662	93.5
586.872	70.5
587.082	87.5
587.292	82.5
587.502	78.5
587.713	74.5
587.923	87.5
588.133	84.5
588.343	90.5
588.553	96.5
588.762	102.5
588.972	98.5
589.182	87.5
589.392	92.5
589.602	85.5
589.812	77.5
590.022	101.5
590.232	90.5
590.441	80.5
590.651	86.5
590.861	81.5
591.071	91.5
591.281	94.5
591.49	96.5
591.7	85.5
591.91	92.5
592.119	98.5
592.329	83.5
592.539	94.5
592.748	94.5
592.958	95.5
593.167	89.5
593.377	73.5
593.587	88.5
593.796	84.5
594.006	87.5
594.215	89.5
594.424	80.5
594.634	88.5
594.843	93.5
595.053	88.5
595.262	82.5
595.472	87.5
595.681	90.5
595.89	83.5
596.1	87.5
596.309	90.5
596.518	97.5
596.727	95.5
596.937	75.5
597.146	82.5
597.355	98.5
597.564	100.5
597.774	95.5
597.983	104.5
598.192	88.5
598.401	87.5
598.61	87.5
598.819	86.5
599.028	81.5
599.237	92.5
599.446	86.5
599.655	86.5
599.864	103.5
600.073	103.5
600.282	92.5
600.491	74.5
600.7	101.5
600.909	88.5
601.118	86.5
601.327	97.5
601.536	87.5
601.745	90.5
601.953	91.5
602.162	93.5
602.371	86.5
602.58	92.5
602.789	72.5
602.997	85.5
603.206	85.5
603.415	84.5
603.623	78.5
603.832	80.5
604.041	97.5
604.249	98.5
604.458	78.5
604.666	74.5
604.875	103.5
605.084	110.5
605.292	87.5
605.501	98.5
605.709	89.5
605.918	85.5
606.126	92.5
606.334	97.5
606.543	91.5
606.751	89.5
606.96	91.5
607.168	72.5
607.376	96.5
607.585	102.5
607.793	88.5
608.001	90.5
608.21	87.5
608.418	94.5
608.626	85.5
608.834	97.5
609.043	89.5
609.251	81.5
609.459	103.5
609.667	78.5
609.875	86.5
610.083	83.5
610.291	99.5
610.499	95.5
610.707	80.5
610.916	99.5
611.124	95.5
611.332	99.5
611.54	82.5
611.748	87.5
611.955	81.5
612.163	82.5
612.371	89.5
612.579	95.5
612.787	90.5
612.995	98.5
613.203	105.5
613.411	93.5
613.618	84.5
613.826	83.5
614.034	82.5
614.242	84.5
614.449	74.5
614.657	79.5
614.865	89.5
615.072	105.5
615.28	97.5
615.488	87.5
615.695	87.5
615.903	99.5
616.111	98.5
616.318	103.5
616.526	97.5
616.733	90.5
616.941	94.5
617.148	99.5
617.356	93.5
617.563	99.5
617.771	72.5
617.978	68.5
618.185	101.5
618.393	105.5
618.6	92.5
618.807	81.5
619.015	85.5
619.222	89.5
619.429	77.5
619.637	96.5
619.844	90.5
620.051	92.5
620.258	89.5
620.466	82.5
620.673	93.5
620.88	92.5
621.087	89.5
621.294	88.5
621.501	81.5
621.708	86.5
621.915	81.5
622.122	91.5
622.329	86.5
622.536	85.5
622.743	81.5
622.95	86.5
623.157	91.5
623.364	90.5
623.571	83.5
623.778	76.5
623.985	83.5
624.192	79.5
624.399	69.5
624.606	69.5
624.812	73.5
625.019	76.5
625.226	84.5
625.433	81.5
625.639	83.5
625.846	76.5
626.053	87.5
626.259	81.5
626.466	88.5
626.673	106.5
626.879	92.5
627.086	96.5
627.293	76.5
627.499	90.5
627.706	81.5
627.912	83.5
628.119	96.5
628.325	99.5
628.532	76.5
628.738	105.5
628.945	81.5
629.151	97.5
629.357	75.5
629.564	85.5
629.77	98.5
629.976	98.5
630.183	92.5
630.389	92.5
630.595	79.5
630.802	85.5
631.008	89.5
631.214	80.5
631.42	69.5
631.627	83.5
631.833	94.5
632.039	80.5
632.245	98.5
632.451	98.5
632.657	99.5
632.863	88.5
633.069	89.5
633.275	94.5
633.481	70.5
633.688	81.5
633.893	85.5
634.099	95.5
634.305	90.5
634.511	73.5
634.717	81.5
634.923	79.5
635.129	90.5
635.335	84.5
635.541	80.5
635.747	96.5
635.952	82.5
636.158	81.5
636.364	90.5
636.57	89.5
636.775	90.5
636.981	87.5
637.187	82.5
637.392	89.5
637.598	100.5
637.804	84.5
638.009	92.5
638.215	98.5
638.421	87.5
638.626	80.5
638.832	86.5
639.037	82.5
639.243	84.5
639.448	97.5
639.654	84.5
639.859	98.5
640.065	70.5
640.27	91.5
640.475	72.5
640.681	86.5
640.886	93.5
641.091	82.5
641.297	83.5
641.502	86.5
641.707	87.5
641.913	83.5
642.118	92.5
642.323	74.5
642.528	97.5
642.733	85.5
642.939	87.5
643.144	85.5
643.349	97.5
643.554	90.5
643.759	91.5
643.964	87.5
644.169	87.5
644.374	85.5
644.579	90.5
644.784	77.5
644.989	81.5
645.194	96.5
645.399	84.5
645.604	103.5
645.809	89.5
646.014	86.5
646.219	73.5
646.423	80.5
646.628	91.5
646.833	87.5
647.038	77.5
647.243	98.5
647.447	84.5
647.652	91.5
647.857	84.5
648.062	85.5
648.266	84.5
648.471	94.5
648.676	104.5
648.88	95.5
649.085	89.5
649.289	89.5
649.494	97.5
649.698	133.5
649.903	108.5
650.107	86.5
650.312	91.5
650.516	98.5
650.721	89.5
650.925	86.5
651.13	92.5
651.334	78.5
651.539	76.5
651.743	91.5
651.947	79.5
652.152	95.5
652.356	78.5
652.56	91.5
652.764	86.5
652.969	80.5
653.173	87.5
653.377	73.5
653.581	77.5
653.785	95.5
653.99	89.5
654.194	88.5
654.398	84.5
654.602	89.5
654.806	91.5
655.01	102.5
655.214	94.5
655.418	85.5
655.622	91.5
655.826	86.5
656.03	94.5
656.234	84.5
656.438	90.5
656.642	104.5
656.846	98.5
657.049	82.5
657.253	97.5
657.457	95.5
657.661	87.5
657.865	88.5
658.068	96.5
658.272	84.5
658.476	74.5
658.68	93.5
658.883	96.5
659.087	94.5
659.291	88.5
659.494	78.5
659.698	85.5
659.901	77.5
660.105	82.5
660.309	70.5
660.512	75.5
660.716	89.5
660.919	85.5
661.123	105.5
661.326	97.5
661.53	76.5
661.733	86.5
661.936	78.5
662.14	80.5
662.343	88.5
662.546	90.5
662.75	77.5
662.953	86.5
663.156	82.5
663.36	71.5
663.563	92.5
663.766	79.5
663.969	83.5
664.173	70.5
664.376	73.5
664.579	94.5
664.782	83.5
664.985	96.5
665.188	92.5
665.391	86.5
665.594	85.5
665.797	82.5
666	81.5
666.203	80.5
666.406	81.5
666.609	81.5
666.812	88.5
667.015	88.5
667.218	84.5
667.421	94.5
667.624	81.5
667.827	84.5
668.03	81.5
668.232	83.5
668.435	85.5
668.638	92.5
668.841	89.5
669.043	71.5
669.246	89.5
669.449	90.5
669.651	76.5
669.854	76.5
670.057	84.5
670.259	80.5
670.462	90.5
670.665	85.5
670.867	80.5
671.07	96.5
671.272	75.5
671.475	95.5
671.677	88.5
671.88	89.5
672.082	73.5
672.284	84.5
672.487	85.5
672.689	100.5
672.892	92.5
