Data from 2145_1_HRD10591_00006.txt Node
Date: Mon Jan 19 14:21:12 EST 2026
User: Yrep
Spectrometer: HR+D1059
Trigger mode: 1
Integration Time (sec): 1.000000E-1
Scans to average: 1
Electric dark correction enabled: true
Nonlinearity correction enabled: false
Boxcar width: 0
XAxis mode: Wavelengths
Number of Pixels in Spectrum: 2048
>>>>>Begin Spectral Data<<<<<
223.165	-14.56
223.4	-14.56
223.635	-14.56
223.869	-27.56
224.104	-14.56
224.338	-17.56
224.573	-21.56
224.808	-7.56
225.042	-5.56
225.277	1.44
225.511	7.44
225.746	7.44
225.98	-0.56
226.215	-3.56
226.449	12.44
226.683	20.44
226.918	36.44
227.152	27.44
227.387	42.44
227.621	38.44
227.856	44.44
228.09	35.44
228.324	51.44
228.559	59.44
228.793	52.44
229.027	53.44
229.262	69.44
229.496	62.44
229.73	76.44
229.964	68.44
230.199	76.44
230.433	76.44
230.667	67.44
230.901	71.44
231.136	75.44
231.37	79.44
231.604	58.44
231.838	77.44
232.072	74.44
232.306	63.44
232.541	81.44
232.775	75.44
233.009	80.44
233.243	83.44
233.477	60.44
233.711	79.44
233.945	73.44
234.179	87.44
234.413	73.44
234.647	76.44
234.881	78.44
235.115	63.44
235.349	81.44
235.583	67.44
235.817	80.44
236.051	76.44
236.285	89.44
236.519	70.44
236.753	57.44
236.987	62.44
237.221	79.44
237.455	78.44
237.689	72.44
237.922	78.44
238.156	83.44
238.39	81.44
238.624	83.44
238.858	72.44
239.091	85.44
239.325	71.44
239.559	93.44
239.793	76.44
240.027	89.44
240.26	83.44
240.494	79.44
240.728	77.44
240.961	91.44
241.195	86.44
241.429	71.44
241.662	74.44
241.896	75.44
242.13	76.44
242.363	76.44
242.597	68.44
242.83	71.44
243.064	74.44
243.298	84.44
243.531	80.44
243.765	87.44
243.998	82.44
244.232	69.44
244.465	79.44
244.699	62.44
244.932	61.44
245.166	76.44
245.399	78.44
245.633	68.44
245.866	69.44
246.099	74.44
246.333	76.44
246.566	78.44
246.8	67.44
247.033	83.44
247.266	76.44
247.5	84.44
247.733	87.44
247.966	71.44
248.2	72.44
248.433	67.44
248.666	78.44
248.899	89.44
249.133	85.44
249.366	90.44
249.599	83.44
249.832	84.44
250.066	89.44
250.299	88.44
250.532	63.44
250.765	86.44
250.998	82.44
251.231	73.44
251.465	81.44
251.698	65.44
251.931	77.44
252.164	83.44
252.397	87.44
252.63	68.44
252.863	85.44
253.096	66.44
253.329	75.44
253.562	83.44
253.795	85.44
254.028	69.44
254.261	82.44
254.494	78.44
254.727	73.44
254.96	89.44
255.193	74.44
255.426	79.44
255.659	82.44
255.892	88.44
256.124	89.44
256.357	83.44
256.59	71.44
256.823	67.44
257.056	72.44
257.289	75.44
257.521	73.44
257.754	75.44
257.987	84.44
258.22	85.44
258.452	84.44
258.685	80.44
258.918	63.44
259.151	87.44
259.383	95.44
259.616	95.44
259.849	91.44
260.081	61.44
260.314	65.44
260.547	93.44
260.779	75.44
261.012	78.44
261.244	76.44
261.477	76.44
261.71	87.44
261.942	81.44
262.175	84.44
262.407	78.44
262.64	88.44
262.872	75.44
263.105	83.44
263.337	88.44
263.57	83.44
263.802	82.44
264.035	89.44
264.267	79.44
264.499	92.44
264.732	89.44
264.964	78.44
265.197	74.44
265.429	91.44
265.661	77.44
265.894	91.44
266.126	77.44
266.358	72.44
266.591	71.44
266.823	92.44
267.055	81.44
267.287	87.44
267.52	83.44
267.752	77.44
267.984	81.44
268.216	78.44
268.448	88.44
268.681	87.44
268.913	83.44
269.145	67.44
269.377	99.44
269.609	89.44
269.841	76.44
270.073	92.44
270.306	71.44
270.538	74.44
270.77	86.44
271.002	79.44
271.234	84.44
271.466	93.44
271.698	78.44
271.93	83.44
272.162	88.44
272.394	87.44
272.626	91.44
272.858	75.44
273.09	83.44
273.322	87.44
273.553	75.44
273.785	71.44
274.017	88.44
274.249	73.44
274.481	82.44
274.713	93.44
274.945	74.44
275.176	87.44
275.408	75.44
275.64	83.44
275.872	82.44
276.104	82.44
276.335	82.44
276.567	89.44
276.799	84.44
277.031	85.44
277.262	77.44
277.494	91.44
277.726	88.44
277.957	87.44
278.189	78.44
278.421	75.44
278.652	88.44
278.884	100.44
279.115	87.44
279.347	71.44
279.579	86.44
279.81	86.44
280.042	99.44
280.273	73.44
280.505	81.44
280.736	80.44
280.968	71.44
281.199	92.44
281.431	86.44
281.662	73.44
281.894	85.44
282.125	89.44
282.356	91.44
282.588	78.44
282.819	96.44
283.051	85.44
283.282	91.44
283.513	73.44
283.745	77.44
283.976	88.44
284.207	84.44
284.439	82.44
284.67	91.44
284.901	76.44
285.132	75.44
285.364	91.44
285.595	83.44
285.826	86.44
286.057	88.44
286.288	83.44
286.52	79.44
286.751	77.44
286.982	81.44
287.213	83.44
287.444	88.44
287.675	78.44
287.906	91.44
288.138	94.44
288.369	86.44
288.6	73.44
288.831	89.44
289.062	86.44
289.293	81.44
289.524	81.44
289.755	71.44
289.986	88.44
290.217	72.44
290.448	85.44
290.679	89.44
290.91	89.44
291.141	80.44
291.371	87.44
291.602	87.44
291.833	64.44
292.064	88.44
292.295	83.44
292.526	85.44
292.757	77.44
292.987	88.44
293.218	90.44
293.449	84.44
293.68	71.44
293.91	75.44
294.141	90.44
294.372	84.44
294.603	77.44
294.833	77.44
295.064	86.44
295.295	84.44
295.525	89.44
295.756	95.44
295.987	85.44
296.217	83.44
296.448	83.44
296.679	96.44
296.909	84.44
297.14	108.44
297.37	89.44
297.601	84.44
297.831	88.44
298.062	83.44
298.292	78.44
298.523	84.44
298.753	97.44
298.984	85.44
299.214	93.44
299.445	89.44
299.675	95.44
299.905	87.44
300.136	86.44
300.366	73.44
300.597	83.44
300.827	81.44
301.057	80.44
301.288	98.44
301.518	89.44
301.748	97.44
301.979	95.44
302.209	93.44
302.439	96.44
302.669	100.44
302.9	88.44
303.13	88.44
303.36	76.44
303.59	82.44
303.82	75.44
304.051	90.44
304.281	86.44
304.511	97.44
304.741	78.44
304.971	85.44
305.201	83.44
305.431	84.44
305.661	80.44
305.891	86.44
306.121	90.44
306.352	84.44
306.582	85.44
306.812	89.44
307.042	100.44
307.272	82.44
307.502	88.44
307.731	58.44
307.961	84.44
308.191	89.44
308.421	91.44
308.651	88.44
308.881	81.44
309.111	87.44
309.341	85.44
309.571	94.44
309.8	87.44
310.03	86.44
310.26	90.44
310.49	82.44
310.72	91.44
310.949	89.44
311.179	93.44
311.409	85.44
311.639	82.44
311.868	88.44
312.098	88.44
312.328	86.44
312.557	91.44
312.787	90.44
313.017	84.44
313.246	76.44
313.476	91.44
313.706	82.44
313.935	79.44
314.165	82.44
314.394	82.44
314.624	91.44
314.853	96.44
315.083	85.44
315.312	85.44
315.542	96.44
315.771	83.44
316.001	76.44
316.23	90.44
316.46	77.44
316.689	90.44
316.919	92.44
317.148	91.44
317.377	88.44
317.607	93.44
317.836	98.44
318.065	88.44
318.295	98.44
318.524	95.44
318.753	91.44
318.983	90.44
319.212	83.44
319.441	88.44
319.67	96.44
319.9	101.44
320.129	82.44
320.358	83.44
320.587	74.44
320.816	71.44
321.046	85.44
321.275	95.44
321.504	93.44
321.733	96.44
321.962	88.44
322.191	87.44
322.42	78.44
322.649	96.44
322.878	85.44
323.108	91.44
323.337	88.44
323.566	98.44
323.795	85.44
324.024	90.44
324.253	91.44
324.482	88.44
324.71	66.44
324.939	79.44
325.168	92.44
325.397	92.44
325.626	92.44
325.855	85.44
326.084	90.44
326.313	104.44
326.542	88.44
326.77	87.44
326.999	83.44
327.228	96.44
327.457	81.44
327.686	109.44
327.914	95.44
328.143	86.44
328.372	83.44
328.6	85.44
328.829	84.44
329.058	81.44
329.287	95.44
329.515	76.44
329.744	100.44
329.972	93.44
330.201	95.44
330.43	102.44
330.658	88.44
330.887	76.44
331.115	97.44
331.344	90.44
331.572	87.44
331.801	87.44
332.03	93.44
332.258	101.44
332.486	86.44
332.715	76.44
332.943	89.44
333.172	100.44
333.4	77.44
333.629	88.44
333.857	72.44
334.085	86.44
334.314	83.44
334.542	79.44
334.771	97.44
334.999	87.44
335.227	101.44
335.455	92.44
335.684	99.44
335.912	93.44
336.14	88.44
336.369	103.44
336.597	93.44
336.825	97.44
337.053	88.44
337.281	88.44
337.51	89.44
337.738	97.44
337.966	72.44
338.194	80.44
338.422	79.44
338.65	82.44
338.878	90.44
339.106	65.44
339.334	88.44
339.562	89.44
339.79	90.44
340.018	76.44
340.246	76.44
340.474	77.44
340.702	100.44
340.93	85.44
341.158	76.44
341.386	80.44
341.614	83.44
341.842	86.44
342.07	86.44
342.298	81.44
342.526	75.44
342.754	90.44
342.981	70.44
343.209	96.44
343.437	103.44
343.665	91.44
343.893	77.44
344.12	95.44
344.348	95.44
344.576	85.44
344.804	91.44
345.031	75.44
345.259	80.44
345.487	105.44
345.714	87.44
345.942	84.44
346.17	98.44
346.397	80.44
346.625	81.44
346.853	96.44
347.08	74.44
347.308	75.44
347.535	87.44
347.763	89.44
347.99	86.44
348.218	79.44
348.445	87.44
348.673	81.44
348.9	85.44
349.128	94.44
349.355	93.44
349.583	87.44
349.81	89.44
350.037	88.44
350.265	85.44
350.492	92.44
350.72	79.44
350.947	92.44
351.174	80.44
351.402	92.44
351.629	88.44
351.856	77.44
352.083	93.44
352.311	86.44
352.538	89.44
352.765	87.44
352.992	103.44
353.22	83.44
353.447	75.44
353.674	84.44
353.901	83.44
354.128	95.44
354.355	72.44
354.583	98.44
354.81	91.44
355.037	81.44
355.264	81.44
355.491	87.44
355.718	83.44
355.945	97.44
356.172	93.44
356.399	99.44
356.626	100.44
356.853	99.44
357.08	84.44
357.307	81.44
357.534	94.44
357.761	100.44
357.988	93.44
358.215	83.44
358.441	81.44
358.668	91.44
358.895	84.44
359.122	83.44
359.349	91.44
359.576	91.44
359.802	81.44
360.029	80.44
360.256	86.44
360.483	92.44
360.709	91.44
360.936	87.44
361.163	79.44
361.39	91.44
361.616	80.44
361.843	86.44
362.07	102.44
362.296	102.44
362.523	98.44
362.749	93.44
362.976	115.44
363.203	141.44
363.429	104.44
363.656	104.44
363.882	101.44
364.109	109.44
364.335	133.44
364.562	142.44
364.788	95.44
365.015	99.44
365.241	98.44
365.468	93.44
365.694	86.44
365.92	93.44
366.147	83.44
366.373	93.44
366.599	85.44
366.826	90.44
367.052	90.44
367.278	77.44
367.505	90.44
367.731	89.44
367.957	84.44
368.184	82.44
368.41	87.44
368.636	92.44
368.862	94.44
369.089	85.44
369.315	87.44
369.541	84.44
369.767	92.44
369.993	84.44
370.219	93.44
370.445	78.44
370.672	97.44
370.898	79.44
371.124	87.44
371.35	86.44
371.576	73.44
371.802	78.44
372.028	99.44
372.254	85.44
372.48	77.44
372.706	74.44
372.932	88.44
373.158	92.44
373.384	109.44
373.61	87.44
373.835	84.44
374.061	93.44
374.287	113.44
374.513	103.44
374.739	91.44
374.965	100.44
375.191	107.44
375.416	96.44
375.642	84.44
375.868	82.44
376.094	102.44
376.319	89.44
376.545	94.44
376.771	95.44
376.997	82.44
377.222	97.44
377.448	97.44
377.674	90.44
377.899	86.44
378.125	86.44
378.35	86.44
378.576	84.44
378.802	85.44
379.027	89.44
379.253	105.44
379.478	97.44
379.704	99.44
379.929	101.44
380.155	80.44
380.38	89.44
380.606	80.44
380.831	89.44
381.057	104.44
381.282	86.44
381.507	91.44
381.733	89.44
381.958	96.44
382.184	95.44
382.409	95.44
382.634	95.44
382.86	91.44
383.085	89.44
383.31	85.44
383.535	99.44
383.761	91.44
383.986	98.44
384.211	91.44
384.436	104.44
384.662	86.44
384.887	95.44
385.112	71.44
385.337	101.44
385.562	89.44
385.787	85.44
386.013	98.44
386.238	105.44
386.463	86.44
386.688	90.44
386.913	91.44
387.138	96.44
387.363	77.44
387.588	102.44
387.813	95.44
388.038	100.44
388.263	79.44
388.488	79.44
388.713	89.44
388.938	82.44
389.163	93.44
389.387	91.44
389.612	81.44
389.837	106.44
390.062	89.44
390.287	83.44
390.512	97.44
390.736	76.44
390.961	76.44
391.186	91.44
391.411	86.44
391.636	93.44
391.86	78.44
392.085	101.44
392.31	113.44
392.534	115.44
392.759	99.44
392.984	141.44
393.208	232.44
393.433	310.44
393.658	246.44
393.882	132.44
394.107	112.44
394.331	91.44
394.556	113.44
394.78	119.44
395.005	93.44
395.229	101.44
395.454	103.44
395.678	95.44
395.903	109.44
396.127	124.44
396.352	148.44
396.576	157.44
396.801	233.44
397.025	254.44
397.249	164.44
397.474	113.44
397.698	104.44
397.922	99.44
398.147	98.44
398.371	94.44
398.595	97.44
398.82	80.44
399.044	81.44
399.268	100.44
399.492	86.44
399.717	101.44
399.941	92.44
400.165	97.44
400.389	72.44
400.613	77.44
400.837	78.44
401.062	81.44
401.286	91.44
401.51	81.44
401.734	81.44
401.958	84.44
402.182	86.44
402.406	83.44
402.63	73.44
402.854	101.44
403.078	86.44
403.302	88.44
403.526	87.44
403.75	89.44
403.974	85.44
404.198	97.44
404.422	104.44
404.645	113.44
404.869	103.44
405.093	106.44
405.317	83.44
405.541	71.44
405.765	82.44
405.988	100.44
406.212	99.44
406.436	74.44
406.66	89.44
406.883	104.44
407.107	84.44
407.331	95.44
407.555	105.44
407.778	112.44
408.002	119.44
408.226	92.44
408.449	82.44
408.673	87.44
408.896	102.44
409.12	87.44
409.344	96.44
409.567	84.44
409.791	101.44
410.014	108.44
410.238	90.44
410.461	76.44
410.685	98.44
410.908	88.44
411.132	85.44
411.355	89.44
411.578	95.44
411.802	76.44
412.025	81.44
412.249	85.44
412.472	86.44
412.695	90.44
412.919	85.44
413.142	82.44
413.365	95.44
413.589	84.44
413.812	74.44
414.035	71.44
414.258	76.44
414.482	90.44
414.705	88.44
414.928	87.44
415.151	93.44
415.374	86.44
415.597	75.44
415.821	74.44
416.044	91.44
416.267	90.44
416.49	96.44
416.713	83.44
416.936	80.44
417.159	97.44
417.382	97.44
417.605	83.44
417.828	96.44
418.051	59.44
418.274	71.44
418.497	100.44
418.72	87.44
418.943	83.44
419.166	78.44
419.389	65.44
419.611	83.44
419.834	98.44
420.057	86.44
420.28	91.44
420.503	103.44
420.726	98.44
420.948	99.44
421.171	95.44
421.394	108.44
421.617	115.44
421.839	141.44
422.062	138.44
422.285	192.44
422.507	276.44
422.73	345.44
422.953	334.44
423.175	219.44
423.398	149.44
423.621	123.44
423.843	109.44
424.066	111.44
424.288	107.44
424.511	97.44
424.733	108.44
424.956	101.44
425.178	98.44
425.401	100.44
425.623	78.44
425.846	100.44
426.068	85.44
426.291	88.44
426.513	87.44
426.735	100.44
426.958	93.44
427.18	92.44
427.402	97.44
427.625	87.44
427.847	110.44
428.069	109.44
428.292	123.44
428.514	138.44
428.736	116.44
428.958	125.44
429.181	116.44
429.403	118.44
429.625	96.44
429.847	138.44
430.069	156.44
430.292	168.44
430.514	161.44
430.736	139.44
430.958	145.44
431.18	113.44
431.402	92.44
431.624	101.44
431.846	125.44
432.068	137.44
432.29	114.44
432.512	86.44
432.734	105.44
432.956	89.44
433.178	92.44
433.4	87.44
433.622	94.44
433.844	87.44
434.066	104.44
434.287	74.44
434.509	85.44
434.731	89.44
434.953	91.44
435.175	98.44
435.397	83.44
435.618	88.44
435.84	96.44
436.062	86.44
436.284	92.44
436.505	83.44
436.727	95.44
436.949	87.44
437.17	87.44
437.392	91.44
437.614	96.44
437.835	100.44
438.057	85.44
438.278	87.44
438.5	96.44
438.721	91.44
438.943	88.44
439.165	83.44
439.386	83.44
439.608	89.44
439.829	84.44
440.05	86.44
440.272	104.44
440.493	105.44
440.715	89.44
440.936	97.44
441.158	88.44
441.379	65.44
441.6	84.44
441.822	100.44
442.043	99.44
442.264	90.44
442.486	144.44
442.707	172.44
442.928	131.44
443.149	120.44
443.371	148.44
443.592	256.44
443.813	230.44
444.034	110.44
444.255	98.44
444.476	88.44
444.698	103.44
444.919	87.44
445.14	203.44
445.361	216.44
445.582	285.44
445.803	248.44
446.024	132.44
446.245	97.44
446.466	83.44
446.687	84.44
446.908	87.44
447.129	94.44
447.35	89.44
447.571	75.44
447.792	76.44
448.013	73.44
448.234	95.44
448.455	89.44
448.675	85.44
448.896	86.44
449.117	90.44
449.338	80.44
449.559	82.44
449.779	87.44
450	96.44
450.221	87.44
450.442	71.44
450.662	80.44
450.883	78.44
451.104	93.44
451.324	89.44
451.545	76.44
451.766	82.44
451.986	84.44
452.207	91.44
452.428	93.44
452.648	85.44
452.869	106.44
453.089	96.44
453.31	103.44
453.53	78.44
453.751	92.44
453.971	91.44
454.192	81.44
454.412	84.44
454.633	89.44
454.853	91.44
455.073	93.44
455.294	108.44
455.514	86.44
455.734	78.44
455.955	99.44
456.175	87.44
456.395	90.44
456.616	81.44
456.836	83.44
457.056	90.44
457.276	83.44
457.497	87.44
457.717	96.44
457.937	112.44
458.157	146.44
458.377	127.44
458.598	137.44
458.818	135.44
459.038	94.44
459.258	76.44
459.478	85.44
459.698	98.44
459.918	84.44
460.138	81.44
460.358	91.44
460.578	93.44
460.798	140.44
461.018	132.44
461.238	90.44
461.458	87.44
461.678	90.44
461.898	84.44
462.118	88.44
462.338	87.44
462.558	71.44
462.777	88.44
462.997	77.44
463.217	81.44
463.437	93.44
463.657	90.44
463.876	76.44
464.096	91.44
464.316	84.44
464.536	69.44
464.755	73.44
464.975	89.44
465.195	90.44
465.414	84.44
465.634	93.44
465.854	80.44
466.073	81.44
466.293	88.44
466.512	98.44
466.732	77.44
466.951	91.44
467.171	89.44
467.391	92.44
467.61	96.44
467.829	81.44
468.049	79.44
468.268	81.44
468.488	96.44
468.707	101.44
468.927	83.44
469.146	77.44
469.365	80.44
469.585	72.44
469.804	65.44
470.023	92.44
470.243	95.44
470.462	87.44
470.681	89.44
470.901	85.44
471.12	82.44
471.339	73.44
471.558	84.44
471.777	83.44
471.997	84.44
472.216	90.44
472.435	95.44
472.654	81.44
472.873	80.44
473.092	84.44
473.311	89.44
473.53	73.44
473.749	90.44
473.968	86.44
474.187	77.44
474.406	81.44
474.625	93.44
474.844	92.44
475.063	81.44
475.282	99.44
475.501	85.44
475.72	91.44
475.939	88.44
476.158	92.44
476.377	80.44
476.596	96.44
476.814	94.44
477.033	98.44
477.252	92.44
477.471	99.44
477.69	84.44
477.908	95.44
478.127	91.44
478.346	81.44
478.564	101.44
478.783	81.44
479.002	80.44
479.22	93.44
479.439	86.44
479.658	79.44
479.876	85.44
480.095	81.44
480.313	89.44
480.532	79.44
480.751	95.44
480.969	95.44
481.188	82.44
481.406	89.44
481.624	91.44
481.843	105.44
482.061	78.44
482.28	95.44
482.498	91.44
482.717	91.44
482.935	96.44
483.153	89.44
483.372	93.44
483.59	89.44
483.808	98.44
484.027	92.44
484.245	84.44
484.463	76.44
484.681	96.44
484.9	107.44
485.118	81.44
485.336	89.44
485.554	98.44
485.772	101.44
485.99	90.44
486.209	94.44
486.427	91.44
486.645	92.44
486.863	64.44
487.081	101.44
487.299	97.44
487.517	108.44
487.735	116.44
487.953	191.44
488.171	159.44
488.389	103.44
488.607	84.44
488.825	91.44
489.043	95.44
489.261	99.44
489.479	92.44
489.696	93.44
489.914	80.44
490.132	80.44
490.35	93.44
490.568	69.44
490.786	78.44
491.003	101.44
491.221	77.44
491.439	98.44
491.657	83.44
491.874	67.44
492.092	95.44
492.31	87.44
492.527	89.44
492.745	81.44
492.963	98.44
493.18	92.44
493.398	90.44
493.615	85.44
493.833	70.44
494.05	99.44
494.268	99.44
494.485	78.44
494.703	92.44
494.92	92.44
495.138	91.44
495.355	76.44
495.573	98.44
495.79	80.44
496.008	83.44
496.225	109.44
496.442	101.44
496.66	83.44
496.877	80.44
497.094	99.44
497.312	81.44
497.529	93.44
497.746	84.44
497.963	92.44
498.181	102.44
498.398	109.44
498.615	87.44
498.832	91.44
499.049	87.44
499.267	99.44
499.484	73.44
499.701	87.44
499.918	85.44
500.135	89.44
500.352	92.44
500.569	93.44
500.786	89.44
501.003	85.44
501.22	83.44
501.437	83.44
501.654	91.44
501.871	95.44
502.088	104.44
502.305	98.44
502.522	74.44
502.739	74.44
502.956	95.44
503.172	80.44
503.389	92.44
503.606	99.44
503.823	93.44
504.04	101.44
504.256	147.44
504.473	129.44
504.69	101.44
504.907	96.44
505.123	99.44
505.34	91.44
505.557	84.44
505.773	87.44
505.99	91.44
506.207	91.44
506.423	91.44
506.64	83.44
506.856	82.44
507.073	89.44
507.289	85.44
507.506	83.44
507.722	68.44
507.939	78.44
508.155	91.44
508.372	96.44
508.588	87.44
508.805	106.44
509.021	84.44
509.238	85.44
509.454	106.44
509.67	76.44
509.887	97.44
510.103	91.44
510.319	92.44
510.536	95.44
510.752	68.44
510.968	84.44
511.184	97.44
511.401	91.44
511.617	85.44
511.833	97.44
512.049	86.44
512.265	97.44
512.481	90.44
512.698	103.44
512.914	87.44
513.13	90.44
513.346	85.44
513.562	89.44
513.778	90.44
513.994	89.44
514.21	80.44
514.426	85.44
514.642	92.44
514.858	98.44
515.074	92.44
515.29	89.44
515.506	94.44
515.721	99.44
515.937	98.44
516.153	97.44
516.369	90.44
516.585	83.44
516.801	104.44
517.016	93.44
517.232	113.44
517.448	112.44
517.664	79.44
517.879	96.44
518.095	92.44
518.311	88.44
518.527	135.44
518.742	116.44
518.958	165.44
519.173	189.44
519.389	113.44
519.605	91.44
519.82	91.44
520.036	81.44
520.251	87.44
520.467	88.44
520.682	77.44
520.898	104.44
521.113	84.44
521.329	84.44
521.544	80.44
521.76	85.44
521.975	95.44
522.19	93.44
522.406	84.44
522.621	76.44
522.836	98.44
523.052	88.44
523.267	90.44
523.482	84.44
523.698	101.44
523.913	89.44
524.128	86.44
524.343	88.44
524.559	104.44
524.774	95.44
524.989	89.44
525.204	92.44
525.419	90.44
525.634	88.44
525.849	100.44
526.064	121.44
526.28	232.44
526.495	342.44
526.71	347.44
526.925	242.44
527.14	285.44
527.355	281.44
527.57	124.44
527.785	89.44
527.999	90.44
528.214	92.44
528.429	104.44
528.644	87.44
528.859	94.44
529.074	92.44
529.289	98.44
529.503	97.44
529.718	97.44
529.933	92.44
530.148	98.44
530.363	101.44
530.577	107.44
530.792	92.44
531.007	97.44
531.221	101.44
531.436	117.44
531.651	111.44
531.865	94.44
532.08	107.44
532.295	93.44
532.509	105.44
532.724	97.44
532.938	93.44
533.153	109.44
533.367	95.44
533.582	109.44
533.796	111.44
534.011	99.44
534.225	91.44
534.44	108.44
534.654	115.44
534.868	121.44
535.083	192.44
535.297	169.44
535.511	108.44
535.726	111.44
535.94	106.44
536.154	109.44
536.369	109.44
536.583	104.44
536.797	111.44
537.011	99.44
537.225	95.44
537.44	116.44
537.654	104.44
537.868	109.44
538.082	109.44
538.296	104.44
538.51	97.44
538.724	117.44
538.938	101.44
539.153	113.44
539.367	103.44
539.581	111.44
539.795	99.44
540.009	116.44
540.222	117.44
540.436	120.44
540.65	103.44
540.864	99.44
541.078	117.44
541.292	109.44
541.506	117.44
541.72	113.44
541.934	116.44
542.147	102.44
542.361	117.44
542.575	116.44
542.789	120.44
543.002	105.44
543.216	91.44
543.43	108.44
543.644	124.44
543.857	95.44
544.071	111.44
544.285	113.44
544.498	92.44
544.712	109.44
544.925	125.44
545.139	117.44
545.352	117.44
545.566	108.44
545.779	123.44
545.993	119.44
546.206	130.44
546.42	142.44
546.633	132.44
546.847	143.44
547.06	141.44
547.274	155.44
547.487	203.44
547.7	228.44
547.914	219.44
548.127	220.44
548.34	239.44
548.554	236.44
548.767	236.44
548.98	263.44
549.193	242.44
549.407	243.44
549.62	243.44
549.833	267.44
550.046	294.44
550.259	332.44
550.473	310.44
550.686	317.44
550.899	359.44
551.112	370.44
551.325	398.44
551.538	410.44
551.751	390.44
551.964	373.44
552.177	359.44
552.39	377.44
552.603	366.44
552.816	361.44
553.029	365.44
553.242	357.44
553.455	360.44
553.667	387.44
553.88	385.44
554.093	412.44
554.306	417.44
554.519	399.44
554.732	412.44
554.944	391.44
555.157	389.44
555.37	379.44
555.583	349.44
555.795	345.44
556.008	325.44
556.221	309.44
556.433	315.44
556.646	286.44
556.859	263.44
557.071	263.44
557.284	236.44
557.496	233.44
557.709	203.44
557.921	205.44
558.134	217.44
558.346	251.44
558.559	216.44
558.771	207.44
558.984	351.44
559.196	452.44
559.409	272.44
559.621	344.44
559.833	277.44
560.046	327.44
560.258	275.44
560.47	283.44
560.683	186.44
560.895	143.44
561.107	129.44
561.32	134.44
561.532	130.44
561.744	120.44
561.956	129.44
562.168	115.44
562.381	124.44
562.593	123.44
562.805	126.44
563.017	127.44
563.229	115.44
563.441	127.44
563.653	114.44
563.865	118.44
564.077	103.44
564.289	111.44
564.501	129.44
564.713	112.44
564.925	100.44
565.137	120.44
565.349	116.44
565.561	112.44
565.773	118.44
565.985	103.44
566.197	104.44
566.408	113.44
566.62	119.44
566.832	116.44
567.044	115.44
567.255	120.44
567.467	113.44
567.679	112.44
567.891	108.44
568.102	127.44
568.314	134.44
568.526	120.44
568.737	120.44
568.949	118.44
569.161	127.44
569.372	117.44
569.584	127.44
569.795	116.44
570.007	116.44
570.218	91.44
570.43	115.44
570.641	112.44
570.853	119.44
571.064	111.44
571.276	108.44
571.487	111.44
571.698	119.44
571.91	119.44
572.121	117.44
572.333	111.44
572.544	97.44
572.755	103.44
572.966	101.44
573.178	115.44
573.389	123.44
573.6	95.44
573.811	123.44
574.023	103.44
574.234	91.44
574.445	116.44
574.656	99.44
574.867	105.44
575.078	108.44
575.289	97.44
575.501	99.44
575.712	89.44
575.923	93.44
576.134	108.44
576.345	89.44
576.556	88.44
576.767	88.44
576.978	105.44
577.188	108.44
577.399	104.44
577.61	106.44
577.821	108.44
578.032	90.44
578.243	109.44
578.454	109.44
578.665	107.44
578.875	97.44
579.086	101.44
579.297	98.44
579.508	101.44
579.718	102.44
579.929	108.44
580.14	101.44
580.35	111.44
580.561	113.44
580.772	107.44
580.982	103.44
581.193	89.44
581.403	106.44
581.614	115.44
581.825	100.44
582.035	115.44
582.246	115.44
582.456	96.44
582.667	90.44
582.877	108.44
583.087	106.44
583.298	108.44
583.508	116.44
583.719	99.44
583.929	108.44
584.139	101.44
584.35	103.44
584.56	117.44
584.77	105.44
584.981	100.44
585.191	102.44
585.401	115.44
585.611	121.44
585.821	196.44
586.032	271.44
586.242	151.44
586.452	103.44
586.662	108.44
586.872	114.44
587.082	140.44
587.292	129.44
587.502	123.44
587.713	127.44
587.923	136.44
588.133	147.44
588.343	147.44
588.553	170.44
588.762	218.44
588.972	393.44
589.182	665.44
589.392	580.44
589.602	433.44
589.812	608.44
590.022	395.44
590.232	203.44
590.441	170.44
590.651	143.44
590.861	147.44
591.071	138.44
591.281	131.44
591.49	145.44
591.7	121.44
591.91	129.44
592.119	159.44
592.329	139.44
592.539	133.44
592.748	150.44
592.958	147.44
593.167	135.44
593.377	136.44
593.587	156.44
593.796	147.44
594.006	150.44
594.215	153.44
594.424	172.44
594.634	159.44
594.843	176.44
595.053	168.44
595.262	173.44
595.472	193.44
595.681	186.44
595.89	204.44
596.1	209.44
596.309	199.44
596.518	209.44
596.727	208.44
596.937	219.44
597.146	217.44
597.355	224.44
597.564	250.44
597.774	247.44
597.983	248.44
598.192	230.44
598.401	237.44
598.61	248.44
598.819	248.44
599.028	266.44
599.237	275.44
599.446	247.44
599.655	271.44
599.864	265.44
600.073	244.44
600.282	267.44
600.491	258.44
600.7	282.44
600.909	252.44
601.118	243.44
601.327	249.44
601.536	219.44
601.745	228.44
601.953	239.44
602.162	239.44
602.371	236.44
602.58	230.44
602.789	233.44
602.997	225.44
603.206	257.44
603.415	235.44
603.623	260.44
603.832	239.44
604.041	246.44
604.249	269.44
604.458	265.44
604.666	281.44
604.875	275.44
605.084	288.44
605.292	287.44
605.501	305.44
605.709	311.44
605.918	319.44
606.126	314.44
606.334	307.44
606.543	304.44
606.751	325.44
606.96	308.44
607.168	283.44
607.376	287.44
607.585	278.44
607.793	298.44
608.001	273.44
608.21	285.44
608.418	279.44
608.626	287.44
608.834	297.44
609.043	322.44
609.251	316.44
609.459	276.44
609.667	301.44
609.875	334.44
610.083	331.44
610.291	337.44
610.499	435.44
610.707	343.44
610.916	307.44
611.124	298.44
611.332	325.44
611.54	325.44
611.748	334.44
611.955	327.44
612.163	346.44
612.371	479.44
612.579	434.44
612.787	359.44
612.995	357.44
613.203	349.44
613.411	329.44
613.618	332.44
613.826	347.44
614.034	351.44
614.242	329.44
614.449	339.44
614.657	349.44
614.865	352.44
615.072	345.44
615.28	330.44
615.488	340.44
615.695	360.44
615.903	360.44
616.111	364.44
616.318	519.44
616.526	563.44
616.733	412.44
616.941	409.44
617.148	430.44
617.356	378.44
617.563	323.44
617.771	346.44
617.978	325.44
618.185	310.44
618.393	321.44
618.6	323.44
618.807	306.44
619.015	298.44
619.222	292.44
619.429	313.44
619.637	304.44
619.844	296.44
620.051	299.44
620.258	303.44
620.466	302.44
620.673	294.44
620.88	311.44
621.087	307.44
621.294	308.44
621.501	312.44
621.708	298.44
621.915	307.44
622.122	301.44
622.329	298.44
622.536	309.44
622.743	312.44
622.95	332.44
623.157	334.44
623.364	334.44
623.571	327.44
623.778	321.44
623.985	326.44
624.192	311.44
624.399	321.44
624.606	347.44
624.812	345.44
625.019	348.44
625.226	331.44
625.433	327.44
625.639	291.44
625.846	309.44
626.053	284.44
626.259	269.44
626.466	266.44
626.673	261.44
626.879	269.44
627.086	276.44
627.293	275.44
627.499	233.44
627.706	237.44
627.912	235.44
628.119	203.44
628.325	178.44
628.532	164.44
628.738	168.44
628.945	159.44
629.151	154.44
629.357	128.44
629.564	130.44
629.77	135.44
629.976	129.44
630.183	125.44
630.389	121.44
630.595	144.44
630.802	145.44
631.008	133.44
631.214	128.44
631.42	145.44
631.627	144.44
631.833	124.44
632.039	139.44
632.245	115.44
632.451	124.44
632.657	123.44
632.863	120.44
633.069	119.44
633.275	114.44
633.481	120.44
633.688	132.44
633.893	135.44
634.099	129.44
634.305	137.44
634.511	137.44
634.717	122.44
634.923	123.44
635.129	125.44
635.335	117.44
635.541	119.44
635.747	130.44
635.952	123.44
636.158	116.44
636.364	124.44
636.57	130.44
636.775	128.44
636.981	130.44
637.187	135.44
637.392	112.44
637.598	117.44
637.804	124.44
638.009	124.44
638.215	130.44
638.421	122.44
638.626	110.44
638.832	108.44
639.037	100.44
639.243	96.44
639.448	112.44
639.654	111.44
639.859	123.44
640.065	106.44
640.27	111.44
640.475	100.44
640.681	104.44
640.886	118.44
641.091	115.44
641.297	123.44
641.502	118.44
641.707	115.44
641.913	111.44
642.118	101.44
642.323	97.44
642.528	112.44
642.733	116.44
642.939	115.44
643.144	115.44
643.349	128.44
643.554	131.44
643.759	131.44
643.964	155.44
644.169	177.44
644.374	125.44
644.579	108.44
644.784	109.44
644.989	136.44
645.194	154.44
645.399	111.44
645.604	118.44
645.809	124.44
646.014	109.44
646.219	99.44
646.423	168.44
646.628	143.44
646.833	111.44
647.038	114.44
647.243	122.44
647.447	109.44
647.652	105.44
647.857	93.44
648.062	107.44
648.266	101.44
648.471	92.44
648.676	97.44
648.88	101.44
649.085	121.44
649.289	108.44
649.494	123.44
649.698	127.44
649.903	104.44
650.107	109.44
650.312	108.44
650.516	93.44
650.721	98.44
650.925	91.44
651.13	86.44
651.334	106.44
651.539	94.44
651.743	100.44
651.947	81.44
652.152	78.44
652.356	88.44
652.56	90.44
652.764	89.44
652.969	88.44
653.173	80.44
653.377	76.44
653.581	81.44
653.785	84.44
653.99	89.44
654.194	93.44
654.398	93.44
654.602	97.44
654.806	85.44
655.01	90.44
655.214	84.44
655.418	74.44
655.622	77.44
655.826	69.44
656.03	95.44
656.234	82.44
656.438	89.44
656.642	78.44
656.846	79.44
657.049	93.44
657.253	84.44
657.457	81.44
657.661	87.44
657.865	95.44
658.068	100.44
658.272	95.44
658.476	81.44
658.68	91.44
658.883	93.44
659.087	77.44
659.291	82.44
659.494	93.44
659.698	90.44
659.901	88.44
660.105	82.44
660.309	91.44
660.512	81.44
660.716	73.44
660.919	90.44
661.123	79.44
661.326	91.44
661.53	85.44
661.733	78.44
661.936	85.44
662.14	79.44
662.343	75.44
662.546	82.44
662.75	78.44
662.953	89.44
663.156	82.44
663.36	87.44
663.563	80.44
663.766	75.44
663.969	86.44
664.173	85.44
664.376	97.44
664.579	82.44
664.782	76.44
664.985	66.44
665.188	77.44
665.391	63.44
665.594	72.44
665.797	77.44
666	85.44
666.203	71.44
666.406	89.44
666.609	83.44
666.812	66.44
667.015	78.44
667.218	83.44
667.421	93.44
667.624	77.44
667.827	81.44
668.03	80.44
668.232	62.44
668.435	85.44
668.638	85.44
668.841	80.44
669.043	90.44
669.246	84.44
669.449	72.44
669.651	86.44
669.854	87.44
670.057	89.44
670.259	86.44
670.462	87.44
670.665	78.44
670.867	78.44
671.07	87.44
671.272	94.44
671.475	80.44
671.677	70.44
671.88	72.44
672.082	76.44
672.284	79.44
672.487	75.44
672.689	76.44
672.892	74.44
