Data from Circ_2005_H10_HRD10591_00069.txt Node
Date: Wed Jan 03 10:30:04 EST 2024
User: Yrep
Spectrometer: HR+D1059
Trigger mode: 1
Integration Time (sec): 1.000000E-1
Scans to average: 1
Electric dark correction enabled: true
Nonlinearity correction enabled: false
Boxcar width: 0
XAxis mode: Wavelengths
Number of Pixels in Spectrum: 2048
>>>>>Begin Spectral Data<<<<<
223.165	-19.81
223.4	-19.81
223.635	-19.81
223.869	-23.81
224.104	-22.81
224.338	-12.81
224.573	-17.81
224.808	-13.81
225.042	-6.81
225.277	-12.81
225.511	12.19
225.746	4.19
225.98	4.19
226.215	16.19
226.449	24.19
226.683	17.19
226.918	22.19
227.152	30.19
227.387	48.19
227.621	31.19
227.856	32.19
228.09	49.19
228.324	56.19
228.559	55.19
228.793	56.19
229.027	51.19
229.262	64.19
229.496	68.19
229.73	82.19
229.964	81.19
230.199	56.19
230.433	62.19
230.667	85.19
230.901	67.19
231.136	77.19
231.37	82.19
231.604	73.19
231.838	84.19
232.072	85.19
232.306	76.19
232.541	87.19
232.775	88.19
233.009	86.19
233.243	83.19
233.477	75.19
233.711	94.19
233.945	81.19
234.179	64.19
234.413	74.19
234.647	92.19
234.881	75.19
235.115	76.19
235.349	82.19
235.583	75.19
235.817	71.19
236.051	84.19
236.285	77.19
236.519	68.19
236.753	76.19
236.987	68.19
237.221	88.19
237.455	102.19
237.689	102.19
237.922	78.19
238.156	82.19
238.39	81.19
238.624	70.19
238.858	87.19
239.091	78.19
239.325	80.19
239.559	93.19
239.793	88.19
240.027	72.19
240.26	87.19
240.494	82.19
240.728	83.19
240.961	77.19
241.195	68.19
241.429	71.19
241.662	68.19
241.896	65.19
242.13	70.19
242.363	70.19
242.597	85.19
242.83	80.19
243.064	83.19
243.298	76.19
243.531	68.19
243.765	78.19
243.998	84.19
244.232	76.19
244.465	90.19
244.699	88.19
244.932	80.19
245.166	77.19
245.399	81.19
245.633	81.19
245.866	88.19
246.099	97.19
246.333	101.19
246.566	79.19
246.8	84.19
247.033	70.19
247.266	89.19
247.5	74.19
247.733	89.19
247.966	78.19
248.2	82.19
248.433	87.19
248.666	63.19
248.899	89.19
249.133	81.19
249.366	105.19
249.599	93.19
249.832	88.19
250.066	85.19
250.299	78.19
250.532	93.19
250.765	79.19
250.998	72.19
251.231	62.19
251.465	91.19
251.698	79.19
251.931	81.19
252.164	85.19
252.397	73.19
252.63	94.19
252.863	88.19
253.096	89.19
253.329	87.19
253.562	73.19
253.795	85.19
254.028	90.19
254.261	94.19
254.494	96.19
254.727	80.19
254.96	89.19
255.193	85.19
255.426	90.19
255.659	95.19
255.892	83.19
256.124	71.19
256.357	88.19
256.59	90.19
256.823	86.19
257.056	77.19
257.289	76.19
257.521	88.19
257.754	90.19
257.987	83.19
258.22	82.19
258.452	87.19
258.685	87.19
258.918	93.19
259.151	84.19
259.383	74.19
259.616	74.19
259.849	92.19
260.081	88.19
260.314	81.19
260.547	88.19
260.779	72.19
261.012	100.19
261.244	86.19
261.477	96.19
261.71	88.19
261.942	99.19
262.175	118.19
262.407	98.19
262.64	80.19
262.872	86.19
263.105	92.19
263.337	80.19
263.57	92.19
263.802	72.19
264.035	80.19
264.267	96.19
264.499	90.19
264.732	82.19
264.964	68.19
265.197	82.19
265.429	86.19
265.661	82.19
265.894	83.19
266.126	78.19
266.358	95.19
266.591	91.19
266.823	88.19
267.055	84.19
267.287	85.19
267.52	89.19
267.752	74.19
267.984	86.19
268.216	82.19
268.448	81.19
268.681	76.19
268.913	106.19
269.145	78.19
269.377	97.19
269.609	84.19
269.841	93.19
270.073	94.19
270.306	85.19
270.538	97.19
270.77	78.19
271.002	94.19
271.234	85.19
271.466	80.19
271.698	79.19
271.93	97.19
272.162	83.19
272.394	92.19
272.626	88.19
272.858	90.19
273.09	103.19
273.322	84.19
273.553	94.19
273.785	76.19
274.017	91.19
274.249	82.19
274.481	103.19
274.713	95.19
274.945	86.19
275.176	91.19
275.408	94.19
275.64	85.19
275.872	86.19
276.104	91.19
276.335	80.19
276.567	84.19
276.799	115.19
277.031	110.19
277.262	105.19
277.494	89.19
277.726	85.19
277.957	83.19
278.189	82.19
278.421	93.19
278.652	101.19
278.884	85.19
279.115	76.19
279.347	70.19
279.579	93.19
279.81	112.19
280.042	85.19
280.273	95.19
280.505	102.19
280.736	71.19
280.968	81.19
281.199	69.19
281.431	77.19
281.662	86.19
281.894	96.19
282.125	94.19
282.356	116.19
282.588	119.19
282.819	93.19
283.051	98.19
283.282	78.19
283.513	80.19
283.745	85.19
283.976	84.19
284.207	80.19
284.439	99.19
284.67	87.19
284.901	85.19
285.132	90.19
285.364	93.19
285.595	84.19
285.826	89.19
286.057	98.19
286.288	72.19
286.52	90.19
286.751	72.19
286.982	89.19
287.213	88.19
287.444	101.19
287.675	94.19
287.906	89.19
288.138	95.19
288.369	84.19
288.6	80.19
288.831	90.19
289.062	92.19
289.293	92.19
289.524	85.19
289.755	100.19
289.986	88.19
290.217	87.19
290.448	82.19
290.679	76.19
290.91	84.19
291.141	82.19
291.371	84.19
291.602	77.19
291.833	78.19
292.064	90.19
292.295	86.19
292.526	93.19
292.757	74.19
292.987	92.19
293.218	98.19
293.449	105.19
293.68	90.19
293.91	87.19
294.141	95.19
294.372	99.19
294.603	86.19
294.833	101.19
295.064	91.19
295.295	94.19
295.525	89.19
295.756	96.19
295.987	105.19
296.217	145.19
296.448	113.19
296.679	97.19
296.909	96.19
297.14	86.19
297.37	101.19
297.601	93.19
297.831	98.19
298.062	90.19
298.292	78.19
298.523	82.19
298.753	84.19
298.984	87.19
299.214	100.19
299.445	89.19
299.675	105.19
299.905	100.19
300.136	102.19
300.366	84.19
300.597	80.19
300.827	94.19
301.057	90.19
301.288	97.19
301.518	84.19
301.748	113.19
301.979	99.19
302.209	98.19
302.439	83.19
302.669	81.19
302.9	89.19
303.13	98.19
303.36	97.19
303.59	100.19
303.82	121.19
304.051	107.19
304.281	112.19
304.511	105.19
304.741	82.19
304.971	92.19
305.201	100.19
305.431	86.19
305.661	86.19
305.891	103.19
306.121	97.19
306.352	88.19
306.582	100.19
306.812	81.19
307.042	92.19
307.272	95.19
307.502	105.19
307.731	107.19
307.961	97.19
308.191	92.19
308.421	102.19
308.651	100.19
308.881	100.19
309.111	94.19
309.341	98.19
309.571	102.19
309.8	89.19
310.03	93.19
310.26	100.19
310.49	89.19
310.72	105.19
310.949	107.19
311.179	106.19
311.409	88.19
311.639	98.19
311.868	108.19
312.098	87.19
312.328	106.19
312.557	111.19
312.787	101.19
313.017	118.19
313.246	103.19
313.476	109.19
313.706	93.19
313.935	99.19
314.165	98.19
314.394	108.19
314.624	103.19
314.853	96.19
315.083	108.19
315.312	95.19
315.542	86.19
315.771	94.19
316.001	107.19
316.23	82.19
316.46	92.19
316.689	102.19
316.919	98.19
317.148	87.19
317.377	93.19
317.607	98.19
317.836	105.19
318.065	85.19
318.295	97.19
318.524	87.19
318.753	89.19
318.983	102.19
319.212	104.19
319.441	112.19
319.67	110.19
319.9	91.19
320.129	104.19
320.358	98.19
320.587	100.19
320.816	112.19
321.046	105.19
321.275	102.19
321.504	100.19
321.733	92.19
321.962	90.19
322.191	98.19
322.42	91.19
322.649	102.19
322.878	108.19
323.108	118.19
323.337	125.19
323.566	144.19
323.795	145.19
324.024	190.19
324.253	364.19
324.482	758.19
324.71	1548.19
324.939	2048.19
325.168	753.19
325.397	225.19
325.626	167.19
325.855	125.19
326.084	119.19
326.313	135.19
326.542	153.19
326.77	213.19
326.999	431.19
327.228	862.19
327.457	1568.19
327.686	1281.19
327.914	364.19
328.143	211.19
328.372	177.19
328.6	140.19
328.829	116.19
329.058	126.19
329.287	116.19
329.515	116.19
329.744	127.19
329.972	118.19
330.201	169.19
330.43	204.19
330.658	160.19
330.887	136.19
331.115	115.19
331.344	110.19
331.572	113.19
331.801	103.19
332.03	96.19
332.258	110.19
332.486	99.19
332.715	96.19
332.943	93.19
333.172	98.19
333.4	99.19
333.629	111.19
333.857	124.19
334.085	131.19
334.314	158.19
334.542	236.19
334.771	210.19
334.999	130.19
335.227	113.19
335.455	92.19
335.684	105.19
335.912	91.19
336.14	112.19
336.369	107.19
336.597	101.19
336.825	105.19
337.053	91.19
337.281	87.19
337.51	91.19
337.738	89.19
337.966	81.19
338.194	107.19
338.422	102.19
338.65	98.19
338.878	93.19
339.106	99.19
339.334	98.19
339.562	99.19
339.79	95.19
340.018	89.19
340.246	93.19
340.474	79.19
340.702	89.19
340.93	97.19
341.158	86.19
341.386	94.19
341.614	100.19
341.842	97.19
342.07	89.19
342.298	102.19
342.526	83.19
342.754	91.19
342.981	98.19
343.209	85.19
343.437	96.19
343.665	98.19
343.893	97.19
344.12	95.19
344.348	90.19
344.576	100.19
344.804	90.19
345.031	107.19
345.259	108.19
345.487	76.19
345.714	88.19
345.942	100.19
346.17	81.19
346.397	88.19
346.625	88.19
346.853	97.19
347.08	97.19
347.308	93.19
347.535	90.19
347.763	110.19
347.99	106.19
348.218	94.19
348.445	94.19
348.673	96.19
348.9	99.19
349.128	92.19
349.355	121.19
349.583	92.19
349.81	100.19
350.037	103.19
350.265	106.19
350.492	96.19
350.72	93.19
350.947	101.19
351.174	111.19
351.402	114.19
351.629	112.19
351.856	98.19
352.083	92.19
352.311	105.19
352.538	89.19
352.765	99.19
352.992	117.19
353.22	109.19
353.447	96.19
353.674	119.19
353.901	87.19
354.128	114.19
354.355	105.19
354.583	94.19
354.81	97.19
355.037	96.19
355.264	109.19
355.491	93.19
355.718	109.19
355.945	85.19
356.172	105.19
356.399	108.19
356.626	95.19
356.853	91.19
357.08	103.19
357.307	84.19
357.534	80.19
357.761	90.19
357.988	96.19
358.215	99.19
358.441	77.19
358.668	110.19
358.895	88.19
359.122	85.19
359.349	83.19
359.576	103.19
359.802	89.19
360.029	111.19
360.256	115.19
360.483	105.19
360.709	78.19
360.936	89.19
361.163	88.19
361.39	104.19
361.616	77.19
361.843	77.19
362.07	75.19
362.296	104.19
362.523	100.19
362.749	87.19
362.976	87.19
363.203	111.19
363.429	90.19
363.656	80.19
363.882	87.19
364.109	99.19
364.335	102.19
364.562	96.19
364.788	86.19
365.015	84.19
365.241	101.19
365.468	112.19
365.694	99.19
365.92	100.19
366.147	91.19
366.373	93.19
366.599	94.19
366.826	98.19
367.052	107.19
367.278	100.19
367.505	92.19
367.731	75.19
367.957	90.19
368.184	97.19
368.41	89.19
368.636	110.19
368.862	118.19
369.089	105.19
369.315	88.19
369.541	107.19
369.767	94.19
369.993	92.19
370.219	93.19
370.445	103.19
370.672	92.19
370.898	87.19
371.124	92.19
371.35	89.19
371.576	86.19
371.802	68.19
372.028	94.19
372.254	88.19
372.48	95.19
372.706	86.19
372.932	87.19
373.158	90.19
373.384	81.19
373.61	88.19
373.835	90.19
374.061	88.19
374.287	100.19
374.513	104.19
374.739	91.19
374.965	85.19
375.191	95.19
375.416	95.19
375.642	95.19
375.868	70.19
376.094	81.19
376.319	86.19
376.545	85.19
376.771	79.19
376.997	71.19
377.222	90.19
377.448	94.19
377.674	103.19
377.899	87.19
378.125	100.19
378.35	103.19
378.576	92.19
378.802	84.19
379.027	95.19
379.253	96.19
379.478	96.19
379.704	98.19
379.929	88.19
380.155	89.19
380.38	96.19
380.606	104.19
380.831	99.19
381.057	108.19
381.282	93.19
381.507	88.19
381.733	97.19
381.958	105.19
382.184	106.19
382.409	109.19
382.634	104.19
382.86	106.19
383.085	98.19
383.31	99.19
383.535	96.19
383.761	100.19
383.986	104.19
384.211	101.19
384.436	92.19
384.662	109.19
384.887	105.19
385.112	106.19
385.337	108.19
385.562	99.19
385.787	92.19
386.013	108.19
386.238	118.19
386.463	112.19
386.688	107.19
386.913	92.19
387.138	103.19
387.363	110.19
387.588	96.19
387.813	101.19
388.038	101.19
388.263	120.19
388.488	116.19
388.713	105.19
388.938	84.19
389.163	85.19
389.387	71.19
389.612	85.19
389.837	92.19
390.062	83.19
390.287	90.19
390.512	86.19
390.736	103.19
390.961	100.19
391.186	98.19
391.411	96.19
391.636	94.19
391.86	84.19
392.085	89.19
392.31	91.19
392.534	86.19
392.759	104.19
392.984	87.19
393.208	79.19
393.433	95.19
393.658	89.19
393.882	91.19
394.107	84.19
394.331	76.19
394.556	90.19
394.78	90.19
395.005	89.19
395.229	86.19
395.454	101.19
395.678	85.19
395.903	75.19
396.127	98.19
396.352	91.19
396.576	81.19
396.801	95.19
397.025	81.19
397.249	93.19
397.474	82.19
397.698	110.19
397.922	94.19
398.147	81.19
398.371	88.19
398.595	90.19
398.82	101.19
399.044	90.19
399.268	78.19
399.492	78.19
399.717	91.19
399.941	90.19
400.165	96.19
400.389	95.19
400.613	100.19
400.837	93.19
401.062	89.19
401.286	94.19
401.51	78.19
401.734	100.19
401.958	105.19
402.182	112.19
402.406	136.19
402.63	108.19
402.854	88.19
403.078	96.19
403.302	93.19
403.526	99.19
403.75	98.19
403.974	98.19
404.198	93.19
404.422	101.19
404.645	98.19
404.869	90.19
405.093	98.19
405.317	95.19
405.541	93.19
405.765	104.19
405.988	107.19
406.212	166.19
406.436	220.19
406.66	125.19
406.883	85.19
407.107	76.19
407.331	100.19
407.555	108.19
407.778	94.19
408.002	90.19
408.226	81.19
408.449	85.19
408.673	92.19
408.896	88.19
409.12	96.19
409.344	88.19
409.567	84.19
409.791	105.19
410.014	87.19
410.238	78.19
410.461	91.19
410.685	101.19
410.908	100.19
411.132	99.19
411.355	111.19
411.578	87.19
411.802	89.19
412.025	100.19
412.249	97.19
412.472	86.19
412.695	102.19
412.919	90.19
413.142	72.19
413.365	96.19
413.589	86.19
413.812	92.19
414.035	102.19
414.258	89.19
414.482	84.19
414.705	71.19
414.928	83.19
415.151	81.19
415.374	97.19
415.597	80.19
415.821	73.19
416.044	76.19
416.267	97.19
416.49	80.19
416.713	86.19
416.936	87.19
417.159	83.19
417.382	94.19
417.605	100.19
417.828	100.19
418.051	91.19
418.274	89.19
418.497	76.19
418.72	80.19
418.943	102.19
419.166	87.19
419.389	91.19
419.611	85.19
419.834	96.19
420.057	87.19
420.28	79.19
420.503	84.19
420.726	97.19
420.948	87.19
421.171	101.19
421.394	82.19
421.617	98.19
421.839	95.19
422.062	92.19
422.285	101.19
422.507	89.19
422.73	101.19
422.953	90.19
423.175	89.19
423.398	88.19
423.621	87.19
423.843	82.19
424.066	85.19
424.288	76.19
424.511	85.19
424.733	97.19
424.956	102.19
425.178	92.19
425.401	89.19
425.623	99.19
425.846	81.19
426.068	84.19
426.291	85.19
426.513	85.19
426.735	106.19
426.958	104.19
427.18	113.19
427.402	146.19
427.625	159.19
427.847	145.19
428.069	114.19
428.292	77.19
428.514	94.19
428.736	100.19
428.958	79.19
429.181	91.19
429.403	85.19
429.625	76.19
429.847	80.19
430.069	93.19
430.292	94.19
430.514	88.19
430.736	89.19
430.958	80.19
431.18	94.19
431.402	83.19
431.624	82.19
431.846	85.19
432.068	76.19
432.29	85.19
432.512	94.19
432.734	84.19
432.956	89.19
433.178	105.19
433.4	98.19
433.622	86.19
433.844	92.19
434.066	92.19
434.287	94.19
434.509	93.19
434.731	81.19
434.953	87.19
435.175	88.19
435.397	93.19
435.618	95.19
435.84	101.19
436.062	131.19
436.284	116.19
436.505	86.19
436.727	96.19
436.949	92.19
437.17	88.19
437.392	88.19
437.614	93.19
437.835	111.19
438.057	113.19
438.278	103.19
438.5	108.19
438.721	104.19
438.943	95.19
439.165	89.19
439.386	82.19
439.608	101.19
439.829	109.19
440.05	107.19
440.272	117.19
440.493	90.19
440.715	93.19
440.936	94.19
441.158	104.19
441.379	81.19
441.6	98.19
441.822	93.19
442.043	98.19
442.264	103.19
442.486	95.19
442.707	102.19
442.928	109.19
443.149	108.19
443.371	115.19
443.592	108.19
443.813	113.19
444.034	105.19
444.255	84.19
444.476	88.19
444.698	80.19
444.919	74.19
445.14	131.19
445.361	132.19
445.582	100.19
445.803	138.19
446.024	136.19
446.245	138.19
446.466	99.19
446.687	83.19
446.908	84.19
447.129	89.19
447.35	97.19
447.571	87.19
447.792	106.19
448.013	90.19
448.234	113.19
448.455	93.19
448.675	98.19
448.896	105.19
449.117	102.19
449.338	110.19
449.559	126.19
449.779	130.19
450	98.19
450.221	83.19
450.442	84.19
450.662	112.19
450.883	95.19
451.104	97.19
451.324	102.19
451.545	95.19
451.766	96.19
451.986	91.19
452.207	92.19
452.428	81.19
452.648	96.19
452.869	89.19
453.089	89.19
453.31	112.19
453.53	90.19
453.751	87.19
453.971	85.19
454.192	103.19
454.412	102.19
454.633	81.19
454.853	79.19
455.073	68.19
455.294	103.19
455.514	108.19
455.734	98.19
455.955	82.19
456.175	90.19
456.395	79.19
456.616	76.19
456.836	83.19
457.056	95.19
457.276	98.19
457.497	93.19
457.717	85.19
457.937	87.19
458.157	98.19
458.377	96.19
458.598	105.19
458.818	126.19
459.038	136.19
459.258	112.19
459.478	95.19
459.698	87.19
459.918	87.19
460.138	81.19
460.358	101.19
460.578	96.19
460.798	99.19
461.018	82.19
461.238	97.19
461.458	76.19
461.678	86.19
461.898	83.19
462.118	84.19
462.338	90.19
462.558	95.19
462.777	89.19
462.997	87.19
463.217	90.19
463.437	82.19
463.657	97.19
463.876	84.19
464.096	79.19
464.316	90.19
464.536	89.19
464.755	94.19
464.975	101.19
465.195	157.19
465.414	146.19
465.634	99.19
465.854	85.19
466.073	76.19
466.293	94.19
466.512	79.19
466.732	92.19
466.951	86.19
467.171	95.19
467.391	89.19
467.61	96.19
467.829	87.19
468.049	108.19
468.268	158.19
468.488	88.19
468.707	85.19
468.927	83.19
469.146	83.19
469.365	84.19
469.585	81.19
469.804	87.19
470.023	90.19
470.243	99.19
470.462	89.19
470.681	97.19
470.901	87.19
471.12	82.19
471.339	89.19
471.558	87.19
471.777	99.19
471.997	93.19
472.216	179.19
472.435	270.19
472.654	128.19
472.873	95.19
473.092	95.19
473.311	96.19
473.53	90.19
473.749	92.19
473.968	94.19
474.187	97.19
474.406	101.19
474.625	95.19
474.844	109.19
475.063	89.19
475.282	81.19
475.501	79.19
475.72	85.19
475.939	80.19
476.158	96.19
476.377	108.19
476.596	89.19
476.814	86.19
477.033	105.19
477.252	80.19
477.471	92.19
477.69	87.19
477.908	74.19
478.127	90.19
478.346	79.19
478.564	89.19
478.783	98.19
479.002	106.19
479.22	89.19
479.439	98.19
479.658	97.19
479.876	87.19
480.095	82.19
480.313	94.19
480.532	102.19
480.751	110.19
480.969	172.19
481.188	439.19
481.406	295.19
481.624	111.19
481.843	96.19
482.061	94.19
482.28	95.19
482.498	80.19
482.717	90.19
482.935	86.19
483.153	99.19
483.372	68.19
483.59	82.19
483.808	90.19
484.027	80.19
484.245	81.19
484.463	81.19
484.681	95.19
484.9	94.19
485.118	87.19
485.336	84.19
485.554	95.19
485.772	90.19
485.99	120.19
486.209	96.19
486.427	103.19
486.645	97.19
486.863	103.19
487.081	94.19
487.299	91.19
487.517	89.19
487.735	87.19
487.953	83.19
488.171	92.19
488.389	90.19
488.607	104.19
488.825	79.19
489.043	99.19
489.261	84.19
489.479	95.19
489.696	78.19
489.914	87.19
490.132	88.19
490.35	90.19
490.568	83.19
490.786	83.19
491.003	98.19
491.221	88.19
491.439	98.19
491.657	116.19
491.874	93.19
492.092	99.19
492.31	92.19
492.527	89.19
492.745	89.19
492.963	93.19
493.18	89.19
493.398	84.19
493.615	92.19
493.833	97.19
494.05	81.19
494.268	98.19
494.485	87.19
494.703	77.19
494.92	88.19
495.138	95.19
495.355	89.19
495.573	89.19
495.79	73.19
496.008	84.19
496.225	91.19
496.442	85.19
496.66	90.19
496.877	83.19
497.094	86.19
497.312	94.19
497.529	78.19
497.746	96.19
497.963	90.19
498.181	85.19
498.398	100.19
498.615	94.19
498.832	105.19
499.049	93.19
499.267	91.19
499.484	79.19
499.701	84.19
499.918	101.19
500.135	66.19
500.352	91.19
500.569	94.19
500.786	89.19
501.003	101.19
501.22	100.19
501.437	89.19
501.654	100.19
501.871	102.19
502.088	95.19
502.305	87.19
502.522	89.19
502.739	99.19
502.956	93.19
503.172	84.19
503.389	84.19
503.606	101.19
503.823	90.19
504.04	91.19
504.256	87.19
504.473	87.19
504.69	96.19
504.907	89.19
505.123	78.19
505.34	95.19
505.557	89.19
505.773	89.19
505.99	88.19
506.207	82.19
506.423	96.19
506.64	96.19
506.856	104.19
507.073	92.19
507.289	93.19
507.506	89.19
507.722	99.19
507.939	110.19
508.155	93.19
508.372	87.19
508.588	100.19
508.805	97.19
509.021	104.19
509.238	115.19
509.454	100.19
509.67	98.19
509.887	106.19
510.103	128.19
510.319	189.19
510.536	680.19
510.752	2181.19
510.968	624.19
511.184	155.19
511.401	115.19
511.617	107.19
511.833	95.19
512.049	83.19
512.265	99.19
512.481	90.19
512.698	88.19
512.914	95.19
513.13	97.19
513.346	97.19
513.562	96.19
513.778	97.19
513.994	104.19
514.21	108.19
514.426	113.19
514.642	114.19
514.858	120.19
515.074	154.19
515.29	397.19
515.506	1356.19
515.721	513.19
515.937	153.19
516.153	118.19
516.369	93.19
516.585	108.19
516.801	98.19
517.016	104.19
517.232	97.19
517.448	92.19
517.664	97.19
517.879	91.19
518.095	86.19
518.311	95.19
518.527	100.19
518.742	96.19
518.958	98.19
519.173	92.19
519.389	90.19
519.605	102.19
519.82	106.19
520.036	99.19
520.251	110.19
520.467	111.19
520.682	94.19
520.898	125.19
521.113	117.19
521.329	121.19
521.544	188.19
521.76	512.19
521.975	2136.19
522.19	1367.19
522.406	292.19
522.621	119.19
522.836	109.19
523.052	95.19
523.267	113.19
523.482	102.19
523.698	85.19
523.913	108.19
524.128	106.19
524.343	109.19
524.559	101.19
524.774	94.19
524.989	96.19
525.204	100.19
525.419	92.19
525.634	95.19
525.849	101.19
526.064	93.19
526.28	85.19
526.495	84.19
526.71	83.19
526.925	80.19
527.14	82.19
527.355	101.19
527.57	90.19
527.785	101.19
527.999	84.19
528.214	84.19
528.429	105.19
528.644	89.19
528.859	98.19
529.074	110.19
529.289	113.19
529.503	177.19
529.718	103.19
529.933	92.19
530.148	79.19
530.363	84.19
530.577	80.19
530.792	80.19
531.007	84.19
531.221	83.19
531.436	98.19
531.651	89.19
531.865	96.19
532.08	95.19
532.295	94.19
532.509	94.19
532.724	100.19
532.938	76.19
533.153	98.19
533.367	89.19
533.582	95.19
533.796	98.19
534.011	88.19
534.225	101.19
534.44	107.19
534.654	107.19
534.868	90.19
535.083	68.19
535.297	101.19
535.511	107.19
535.726	95.19
535.94	90.19
536.154	94.19
536.369	92.19
536.583	72.19
536.797	95.19
537.011	99.19
537.225	87.19
537.44	87.19
537.654	94.19
537.868	77.19
538.082	80.19
538.296	82.19
538.51	98.19
538.724	86.19
538.938	85.19
539.153	88.19
539.367	90.19
539.581	85.19
539.795	92.19
540.009	97.19
540.222	88.19
540.436	85.19
540.65	103.19
540.864	92.19
541.078	94.19
541.292	98.19
541.506	80.19
541.72	89.19
541.934	90.19
542.147	82.19
542.361	84.19
542.575	87.19
542.789	75.19
543.002	76.19
543.216	100.19
543.43	89.19
543.644	92.19
543.857	86.19
544.071	102.19
544.285	98.19
544.498	100.19
544.712	103.19
544.925	96.19
545.139	101.19
545.352	86.19
545.566	87.19
545.779	95.19
545.993	97.19
546.206	93.19
546.42	81.19
546.633	80.19
546.847	73.19
547.06	90.19
547.274	91.19
547.487	91.19
547.7	83.19
547.914	115.19
548.127	94.19
548.34	86.19
548.554	87.19
548.767	80.19
548.98	94.19
549.193	89.19
549.407	90.19
549.62	94.19
549.833	95.19
550.046	101.19
550.259	89.19
550.473	87.19
550.686	94.19
550.899	86.19
551.112	90.19
551.325	95.19
551.538	91.19
551.751	82.19
551.964	90.19
552.177	75.19
552.39	77.19
552.603	101.19
552.816	83.19
553.029	93.19
553.242	100.19
553.455	88.19
553.667	114.19
553.88	106.19
554.093	100.19
554.306	93.19
554.519	94.19
554.732	88.19
554.944	81.19
555.157	89.19
555.37	96.19
555.583	99.19
555.795	95.19
556.008	97.19
556.221	98.19
556.433	97.19
556.646	91.19
556.859	97.19
557.071	89.19
557.284	94.19
557.496	96.19
557.709	81.19
557.921	90.19
558.134	103.19
558.346	87.19
558.559	90.19
558.771	86.19
558.984	100.19
559.196	105.19
559.409	93.19
559.621	100.19
559.833	73.19
560.046	92.19
560.258	90.19
560.47	93.19
560.683	84.19
560.895	106.19
561.107	99.19
561.32	86.19
561.532	92.19
561.744	83.19
561.956	94.19
562.168	101.19
562.381	80.19
562.593	83.19
562.805	84.19
563.017	93.19
563.229	87.19
563.441	94.19
563.653	94.19
563.865	97.19
564.077	86.19
564.289	96.19
564.501	88.19
564.713	86.19
564.925	86.19
565.137	98.19
565.349	89.19
565.561	86.19
565.773	98.19
565.985	92.19
566.197	96.19
566.408	88.19
566.62	92.19
566.832	100.19
567.044	72.19
567.255	83.19
567.467	84.19
567.679	93.19
567.891	92.19
568.102	76.19
568.314	94.19
568.526	98.19
568.737	87.19
568.949	73.19
569.161	101.19
569.372	86.19
569.584	85.19
569.795	94.19
570.007	124.19
570.218	237.19
570.43	130.19
570.641	90.19
570.853	90.19
571.064	89.19
571.276	87.19
571.487	86.19
571.698	88.19
571.91	75.19
572.121	87.19
572.333	87.19
572.544	89.19
572.755	90.19
572.966	83.19
573.178	85.19
573.389	88.19
573.6	84.19
573.811	94.19
574.023	92.19
574.234	87.19
574.445	89.19
574.656	80.19
574.867	88.19
575.078	90.19
575.289	86.19
575.501	88.19
575.712	82.19
575.923	86.19
576.134	90.19
576.345	85.19
576.556	95.19
576.767	83.19
576.978	94.19
577.188	101.19
577.399	91.19
577.61	107.19
577.821	109.19
578.032	108.19
578.243	261.19
578.454	730.19
578.665	228.19
578.875	105.19
579.086	98.19
579.297	102.19
579.508	77.19
579.718	84.19
579.929	101.19
580.14	87.19
580.35	91.19
580.561	96.19
580.772	103.19
580.982	88.19
581.193	88.19
581.403	88.19
581.614	88.19
581.825	93.19
582.035	77.19
582.246	75.19
582.456	90.19
582.667	81.19
582.877	95.19
583.087	93.19
583.298	82.19
583.508	92.19
583.719	100.19
583.929	89.19
584.139	82.19
584.35	80.19
584.56	98.19
584.77	97.19
584.981	98.19
585.191	92.19
585.401	86.19
585.611	82.19
585.821	95.19
586.032	95.19
586.242	88.19
586.452	87.19
586.662	80.19
586.872	82.19
587.082	94.19
587.292	77.19
587.502	93.19
587.713	80.19
587.923	89.19
588.133	82.19
588.343	78.19
588.553	86.19
588.762	89.19
588.972	90.19
589.182	110.19
589.392	102.19
589.602	93.19
589.812	96.19
590.022	90.19
590.232	93.19
590.441	95.19
590.651	85.19
590.861	79.19
591.071	74.19
591.281	104.19
591.49	92.19
591.7	90.19
591.91	93.19
592.119	98.19
592.329	93.19
592.539	90.19
592.748	93.19
592.958	97.19
593.167	94.19
593.377	95.19
593.587	87.19
593.796	90.19
594.006	90.19
594.215	80.19
594.424	80.19
594.634	78.19
594.843	79.19
595.053	89.19
595.262	89.19
595.472	88.19
595.681	89.19
595.89	84.19
596.1	98.19
596.309	83.19
596.518	87.19
596.727	92.19
596.937	90.19
597.146	94.19
597.355	101.19
597.564	100.19
597.774	86.19
597.983	84.19
598.192	102.19
598.401	82.19
598.61	91.19
598.819	86.19
599.028	95.19
599.237	96.19
599.446	95.19
599.655	96.19
599.864	90.19
600.073	77.19
600.282	100.19
600.491	73.19
600.7	95.19
600.909	112.19
601.118	92.19
601.327	84.19
601.536	88.19
601.745	95.19
601.953	94.19
602.162	85.19
602.371	81.19
602.58	90.19
602.789	96.19
602.997	78.19
603.206	94.19
603.415	83.19
603.623	83.19
603.832	76.19
604.041	80.19
604.249	86.19
604.458	92.19
604.666	88.19
604.875	76.19
605.084	81.19
605.292	84.19
605.501	74.19
605.709	71.19
605.918	89.19
606.126	110.19
606.334	83.19
606.543	99.19
606.751	72.19
606.96	81.19
607.168	97.19
607.376	93.19
607.585	87.19
607.793	80.19
608.001	89.19
608.21	88.19
608.418	87.19
608.626	72.19
608.834	82.19
609.043	77.19
609.251	80.19
609.459	97.19
609.667	83.19
609.875	90.19
610.083	79.19
610.291	73.19
610.499	77.19
610.707	98.19
610.916	92.19
611.124	87.19
611.332	93.19
611.54	89.19
611.748	88.19
611.955	101.19
612.163	84.19
612.371	89.19
612.579	68.19
612.787	79.19
612.995	93.19
613.203	96.19
613.411	98.19
613.618	102.19
613.826	89.19
614.034	96.19
614.242	94.19
614.449	94.19
614.657	94.19
614.865	88.19
615.072	96.19
615.28	85.19
615.488	84.19
615.695	113.19
615.903	89.19
616.111	81.19
616.318	96.19
616.526	109.19
616.733	104.19
616.941	86.19
617.148	90.19
617.356	90.19
617.563	81.19
617.771	87.19
617.978	92.19
618.185	102.19
618.393	92.19
618.6	82.19
618.807	85.19
619.015	80.19
619.222	100.19
619.429	78.19
619.637	91.19
619.844	82.19
620.051	86.19
620.258	79.19
620.466	90.19
620.673	85.19
620.88	84.19
621.087	91.19
621.294	99.19
621.501	78.19
621.708	87.19
621.915	74.19
622.122	80.19
622.329	84.19
622.536	77.19
622.743	83.19
622.95	81.19
623.157	75.19
623.364	84.19
623.571	93.19
623.778	87.19
623.985	82.19
624.192	97.19
624.399	89.19
624.606	93.19
624.812	88.19
625.019	87.19
625.226	72.19
625.433	87.19
625.639	87.19
625.846	85.19
626.053	86.19
626.259	99.19
626.466	86.19
626.673	74.19
626.879	98.19
627.086	90.19
627.293	100.19
627.499	81.19
627.706	88.19
627.912	79.19
628.119	85.19
628.325	108.19
628.532	79.19
628.738	77.19
628.945	90.19
629.151	85.19
629.357	89.19
629.564	83.19
629.77	86.19
629.976	89.19
630.183	76.19
630.389	94.19
630.595	83.19
630.802	92.19
631.008	81.19
631.214	81.19
631.42	82.19
631.627	75.19
631.833	100.19
632.039	83.19
632.245	88.19
632.451	91.19
632.657	84.19
632.863	80.19
633.069	85.19
633.275	86.19
633.481	94.19
633.688	75.19
633.893	88.19
634.099	86.19
634.305	76.19
634.511	86.19
634.717	84.19
634.923	87.19
635.129	92.19
635.335	79.19
635.541	91.19
635.747	90.19
635.952	74.19
636.158	70.19
636.364	98.19
636.57	82.19
636.775	85.19
636.981	72.19
637.187	89.19
637.392	90.19
637.598	83.19
637.804	95.19
638.009	94.19
638.215	90.19
638.421	83.19
638.626	76.19
638.832	91.19
639.037	82.19
639.243	84.19
639.448	90.19
639.654	78.19
639.859	75.19
640.065	88.19
640.27	96.19
640.475	88.19
640.681	86.19
640.886	99.19
641.091	82.19
641.297	85.19
641.502	84.19
641.707	79.19
641.913	86.19
642.118	100.19
642.323	77.19
642.528	85.19
642.733	96.19
642.939	87.19
643.144	85.19
643.349	85.19
643.554	83.19
643.759	100.19
643.964	97.19
644.169	91.19
644.374	74.19
644.579	91.19
644.784	84.19
644.989	96.19
645.194	80.19
645.399	87.19
645.604	86.19
645.809	82.19
646.014	83.19
646.219	89.19
646.423	80.19
646.628	84.19
646.833	84.19
647.038	74.19
647.243	96.19
647.447	94.19
647.652	88.19
647.857	72.19
648.062	95.19
648.266	89.19
648.471	94.19
648.676	90.19
648.88	100.19
649.085	84.19
649.289	87.19
649.494	101.19
649.698	144.19
649.903	90.19
650.107	93.19
650.312	94.19
650.516	86.19
650.721	110.19
650.925	96.19
651.13	96.19
651.334	98.19
651.539	78.19
651.743	83.19
651.947	74.19
652.152	92.19
652.356	77.19
652.56	89.19
652.764	83.19
652.969	85.19
653.173	81.19
653.377	82.19
653.581	90.19
653.785	87.19
653.99	89.19
654.194	76.19
654.398	81.19
654.602	80.19
654.806	83.19
655.01	105.19
655.214	100.19
655.418	89.19
655.622	87.19
655.826	88.19
656.03	89.19
656.234	83.19
656.438	101.19
656.642	83.19
656.846	89.19
657.049	84.19
657.253	86.19
657.457	81.19
657.661	80.19
657.865	79.19
658.068	81.19
658.272	104.19
658.476	82.19
658.68	79.19
658.883	80.19
659.087	89.19
659.291	79.19
659.494	85.19
659.698	84.19
659.901	77.19
660.105	92.19
660.309	74.19
660.512	83.19
660.716	86.19
660.919	74.19
661.123	82.19
661.326	81.19
661.53	90.19
661.733	95.19
661.936	97.19
662.14	89.19
662.343	95.19
662.546	86.19
662.75	81.19
662.953	96.19
663.156	87.19
663.36	83.19
663.563	77.19
663.766	76.19
663.969	81.19
664.173	86.19
664.376	76.19
664.579	90.19
664.782	85.19
664.985	90.19
665.188	77.19
665.391	73.19
665.594	84.19
665.797	95.19
666	78.19
666.203	83.19
666.406	87.19
666.609	83.19
666.812	88.19
667.015	86.19
667.218	96.19
667.421	81.19
667.624	87.19
667.827	82.19
668.03	84.19
668.232	81.19
668.435	92.19
668.638	81.19
668.841	81.19
669.043	90.19
669.246	88.19
669.449	78.19
669.651	79.19
669.854	88.19
670.057	89.19
670.259	72.19
670.462	77.19
670.665	94.19
670.867	84.19
671.07	71.19
671.272	79.19
671.475	80.19
671.677	79.19
671.88	80.19
672.082	71.19
672.284	80.19
672.487	79.19
672.689	79.19
672.892	67.19
