Data from Circ_2005_H10_HRD10591_00099.txt Node
Date: Wed Jan 03 10:30:10 EST 2024
User: Yrep
Spectrometer: HR+D1059
Trigger mode: 1
Integration Time (sec): 1.000000E-1
Scans to average: 1
Electric dark correction enabled: true
Nonlinearity correction enabled: false
Boxcar width: 0
XAxis mode: Wavelengths
Number of Pixels in Spectrum: 2048
>>>>>Begin Spectral Data<<<<<
223.165	-4.5
223.4	-4.5
223.635	-4.5
223.869	-14.5
224.104	-28.5
224.338	-21.5
224.573	-4.5
224.808	-20.5
225.042	-28.5
225.277	-0.5
225.511	-11.5
225.746	10.5
225.98	10.5
226.215	17.5
226.449	23.5
226.683	28.5
226.918	21.5
227.152	22.5
227.387	47.5
227.621	33.5
227.856	37.5
228.09	52.5
228.324	66.5
228.559	48.5
228.793	54.5
229.027	55.5
229.262	60.5
229.496	60.5
229.73	85.5
229.964	77.5
230.199	74.5
230.433	84.5
230.667	74.5
230.901	83.5
231.136	79.5
231.37	68.5
231.604	75.5
231.838	80.5
232.072	80.5
232.306	76.5
232.541	77.5
232.775	80.5
233.009	76.5
233.243	89.5
233.477	69.5
233.711	93.5
233.945	94.5
234.179	77.5
234.413	82.5
234.647	84.5
234.881	89.5
235.115	85.5
235.349	73.5
235.583	92.5
235.817	74.5
236.051	76.5
236.285	86.5
236.519	72.5
236.753	72.5
236.987	79.5
237.221	77.5
237.455	77.5
237.689	76.5
237.922	74.5
238.156	79.5
238.39	64.5
238.624	77.5
238.858	72.5
239.091	76.5
239.325	76.5
239.559	73.5
239.793	90.5
240.027	67.5
240.26	76.5
240.494	86.5
240.728	72.5
240.961	66.5
241.195	74.5
241.429	70.5
241.662	87.5
241.896	78.5
242.13	83.5
242.363	93.5
242.597	78.5
242.83	70.5
243.064	84.5
243.298	64.5
243.531	76.5
243.765	81.5
243.998	85.5
244.232	95.5
244.465	78.5
244.699	75.5
244.932	70.5
245.166	61.5
245.399	90.5
245.633	57.5
245.866	78.5
246.099	82.5
246.333	82.5
246.566	79.5
246.8	85.5
247.033	67.5
247.266	68.5
247.5	87.5
247.733	76.5
247.966	79.5
248.2	80.5
248.433	89.5
248.666	74.5
248.899	80.5
249.133	88.5
249.366	99.5
249.599	95.5
249.832	74.5
250.066	80.5
250.299	72.5
250.532	87.5
250.765	78.5
250.998	77.5
251.231	88.5
251.465	79.5
251.698	72.5
251.931	84.5
252.164	84.5
252.397	80.5
252.63	81.5
252.863	88.5
253.096	82.5
253.329	75.5
253.562	77.5
253.795	83.5
254.028	82.5
254.261	94.5
254.494	85.5
254.727	73.5
254.96	83.5
255.193	85.5
255.426	82.5
255.659	85.5
255.892	75.5
256.124	76.5
256.357	84.5
256.59	86.5
256.823	88.5
257.056	83.5
257.289	80.5
257.521	90.5
257.754	78.5
257.987	77.5
258.22	87.5
258.452	80.5
258.685	95.5
258.918	85.5
259.151	93.5
259.383	86.5
259.616	82.5
259.849	87.5
260.081	78.5
260.314	83.5
260.547	80.5
260.779	86.5
261.012	86.5
261.244	89.5
261.477	76.5
261.71	87.5
261.942	101.5
262.175	94.5
262.407	87.5
262.64	92.5
262.872	83.5
263.105	78.5
263.337	100.5
263.57	73.5
263.802	81.5
264.035	88.5
264.267	85.5
264.499	76.5
264.732	78.5
264.964	83.5
265.197	82.5
265.429	79.5
265.661	92.5
265.894	75.5
266.126	76.5
266.358	70.5
266.591	97.5
266.823	82.5
267.055	80.5
267.287	88.5
267.52	72.5
267.752	97.5
267.984	82.5
268.216	79.5
268.448	87.5
268.681	80.5
268.913	95.5
269.145	87.5
269.377	87.5
269.609	89.5
269.841	86.5
270.073	82.5
270.306	85.5
270.538	85.5
270.77	99.5
271.002	78.5
271.234	85.5
271.466	86.5
271.698	85.5
271.93	96.5
272.162	102.5
272.394	103.5
272.626	78.5
272.858	74.5
273.09	100.5
273.322	87.5
273.553	93.5
273.785	85.5
274.017	81.5
274.249	70.5
274.481	73.5
274.713	82.5
274.945	88.5
275.176	93.5
275.408	80.5
275.64	93.5
275.872	89.5
276.104	89.5
276.335	77.5
276.567	102.5
276.799	100.5
277.031	103.5
277.262	103.5
277.494	110.5
277.726	88.5
277.957	95.5
278.189	88.5
278.421	89.5
278.652	83.5
278.884	75.5
279.115	80.5
279.347	85.5
279.579	93.5
279.81	95.5
280.042	92.5
280.273	98.5
280.505	74.5
280.736	96.5
280.968	79.5
281.199	97.5
281.431	85.5
281.662	102.5
281.894	78.5
282.125	99.5
282.356	96.5
282.588	111.5
282.819	100.5
283.051	83.5
283.282	76.5
283.513	94.5
283.745	90.5
283.976	84.5
284.207	89.5
284.439	76.5
284.67	83.5
284.901	72.5
285.132	81.5
285.364	79.5
285.595	81.5
285.826	76.5
286.057	83.5
286.288	90.5
286.52	98.5
286.751	85.5
286.982	96.5
287.213	80.5
287.444	84.5
287.675	83.5
287.906	85.5
288.138	93.5
288.369	86.5
288.6	86.5
288.831	83.5
289.062	92.5
289.293	91.5
289.524	85.5
289.755	81.5
289.986	94.5
290.217	90.5
290.448	83.5
290.679	77.5
290.91	85.5
291.141	84.5
291.371	83.5
291.602	87.5
291.833	91.5
292.064	85.5
292.295	74.5
292.526	92.5
292.757	78.5
292.987	98.5
293.218	98.5
293.449	86.5
293.68	95.5
293.91	88.5
294.141	91.5
294.372	81.5
294.603	84.5
294.833	84.5
295.064	91.5
295.295	84.5
295.525	85.5
295.756	88.5
295.987	109.5
296.217	115.5
296.448	121.5
296.679	92.5
296.909	86.5
297.14	76.5
297.37	79.5
297.601	94.5
297.831	80.5
298.062	93.5
298.292	85.5
298.523	78.5
298.753	82.5
298.984	80.5
299.214	82.5
299.445	88.5
299.675	95.5
299.905	87.5
300.136	98.5
300.366	94.5
300.597	81.5
300.827	82.5
301.057	102.5
301.288	107.5
301.518	98.5
301.748	87.5
301.979	87.5
302.209	81.5
302.439	99.5
302.669	84.5
302.9	72.5
303.13	98.5
303.36	103.5
303.59	93.5
303.82	103.5
304.051	95.5
304.281	93.5
304.511	91.5
304.741	81.5
304.971	78.5
305.201	85.5
305.431	82.5
305.661	80.5
305.891	96.5
306.121	92.5
306.352	108.5
306.582	103.5
306.812	87.5
307.042	87.5
307.272	99.5
307.502	95.5
307.731	109.5
307.961	87.5
308.191	75.5
308.421	84.5
308.651	97.5
308.881	86.5
309.111	87.5
309.341	92.5
309.571	100.5
309.8	104.5
310.03	106.5
310.26	98.5
310.49	84.5
310.72	93.5
310.949	90.5
311.179	91.5
311.409	83.5
311.639	87.5
311.868	94.5
312.098	96.5
312.328	81.5
312.557	94.5
312.787	97.5
313.017	85.5
313.246	85.5
313.476	89.5
313.706	86.5
313.935	96.5
314.165	88.5
314.394	93.5
314.624	92.5
314.853	98.5
315.083	103.5
315.312	100.5
315.542	103.5
315.771	86.5
316.001	93.5
316.23	78.5
316.46	88.5
316.689	105.5
316.919	103.5
317.148	103.5
317.377	95.5
317.607	95.5
317.836	94.5
318.065	85.5
318.295	98.5
318.524	86.5
318.753	88.5
318.983	96.5
319.212	100.5
319.441	99.5
319.67	97.5
319.9	74.5
320.129	78.5
320.358	88.5
320.587	97.5
320.816	106.5
321.046	94.5
321.275	89.5
321.504	94.5
321.733	103.5
321.962	93.5
322.191	94.5
322.42	106.5
322.649	101.5
322.878	95.5
323.108	107.5
323.337	122.5
323.566	130.5
323.795	146.5
324.024	200.5
324.253	373.5
324.482	734.5
324.71	1471.5
324.939	1895.5
325.168	733.5
325.397	228.5
325.626	134.5
325.855	116.5
326.084	132.5
326.313	122.5
326.542	138.5
326.77	204.5
326.999	419.5
327.228	806.5
327.457	1492.5
327.686	1211.5
327.914	342.5
328.143	198.5
328.372	179.5
328.6	134.5
328.829	110.5
329.058	124.5
329.287	101.5
329.515	93.5
329.744	128.5
329.972	140.5
330.201	192.5
330.43	239.5
330.658	161.5
330.887	146.5
331.115	108.5
331.344	104.5
331.572	88.5
331.801	94.5
332.03	91.5
332.258	93.5
332.486	73.5
332.715	88.5
332.943	94.5
333.172	86.5
333.4	97.5
333.629	107.5
333.857	109.5
334.085	143.5
334.314	199.5
334.542	291.5
334.771	274.5
334.999	127.5
335.227	114.5
335.455	84.5
335.684	80.5
335.912	98.5
336.14	85.5
336.369	95.5
336.597	98.5
336.825	96.5
337.053	95.5
337.281	100.5
337.51	79.5
337.738	87.5
337.966	85.5
338.194	92.5
338.422	78.5
338.65	81.5
338.878	77.5
339.106	81.5
339.334	94.5
339.562	94.5
339.79	88.5
340.018	90.5
340.246	86.5
340.474	97.5
340.702	106.5
340.93	80.5
341.158	80.5
341.386	96.5
341.614	93.5
341.842	93.5
342.07	70.5
342.298	79.5
342.526	108.5
342.754	85.5
342.981	92.5
343.209	79.5
343.437	86.5
343.665	98.5
343.893	97.5
344.12	88.5
344.348	98.5
344.576	80.5
344.804	87.5
345.031	102.5
345.259	92.5
345.487	105.5
345.714	91.5
345.942	98.5
346.17	88.5
346.397	92.5
346.625	91.5
346.853	107.5
347.08	77.5
347.308	81.5
347.535	93.5
347.763	79.5
347.99	102.5
348.218	107.5
348.445	97.5
348.673	97.5
348.9	100.5
349.128	92.5
349.355	95.5
349.583	100.5
349.81	88.5
350.037	83.5
350.265	98.5
350.492	95.5
350.72	88.5
350.947	91.5
351.174	104.5
351.402	94.5
351.629	99.5
351.856	96.5
352.083	101.5
352.311	97.5
352.538	100.5
352.765	105.5
352.992	108.5
353.22	114.5
353.447	91.5
353.674	93.5
353.901	91.5
354.128	108.5
354.355	101.5
354.583	85.5
354.81	94.5
355.037	109.5
355.264	88.5
355.491	103.5
355.718	92.5
355.945	85.5
356.172	80.5
356.399	98.5
356.626	98.5
356.853	97.5
357.08	104.5
357.307	92.5
357.534	91.5
357.761	94.5
357.988	97.5
358.215	88.5
358.441	90.5
358.668	73.5
358.895	86.5
359.122	95.5
359.349	79.5
359.576	93.5
359.802	92.5
360.029	101.5
360.256	124.5
360.483	88.5
360.709	84.5
360.936	84.5
361.163	86.5
361.39	96.5
361.616	99.5
361.843	87.5
362.07	88.5
362.296	92.5
362.523	95.5
362.749	87.5
362.976	78.5
363.203	84.5
363.429	82.5
363.656	84.5
363.882	92.5
364.109	93.5
364.335	107.5
364.562	85.5
364.788	99.5
365.015	91.5
365.241	98.5
365.468	95.5
365.694	110.5
365.92	94.5
366.147	106.5
366.373	104.5
366.599	99.5
366.826	85.5
367.052	71.5
367.278	92.5
367.505	82.5
367.731	92.5
367.957	82.5
368.184	86.5
368.41	88.5
368.636	116.5
368.862	119.5
369.089	115.5
369.315	82.5
369.541	78.5
369.767	87.5
369.993	92.5
370.219	90.5
370.445	77.5
370.672	89.5
370.898	86.5
371.124	87.5
371.35	90.5
371.576	80.5
371.802	102.5
372.028	92.5
372.254	82.5
372.48	78.5
372.706	90.5
372.932	86.5
373.158	73.5
373.384	97.5
373.61	90.5
373.835	84.5
374.061	76.5
374.287	89.5
374.513	97.5
374.739	85.5
374.965	63.5
375.191	85.5
375.416	86.5
375.642	89.5
375.868	89.5
376.094	83.5
376.319	83.5
376.545	91.5
376.771	84.5
376.997	86.5
377.222	90.5
377.448	98.5
377.674	86.5
377.899	84.5
378.125	93.5
378.35	85.5
378.576	91.5
378.802	77.5
379.027	76.5
379.253	83.5
379.478	86.5
379.704	75.5
379.929	82.5
380.155	89.5
380.38	101.5
380.606	98.5
380.831	91.5
381.057	100.5
381.282	76.5
381.507	82.5
381.733	74.5
381.958	100.5
382.184	110.5
382.409	87.5
382.634	109.5
382.86	86.5
383.085	103.5
383.31	84.5
383.535	87.5
383.761	86.5
383.986	94.5
384.211	101.5
384.436	97.5
384.662	94.5
384.887	104.5
385.112	102.5
385.337	85.5
385.562	96.5
385.787	94.5
386.013	93.5
386.238	92.5
386.463	99.5
386.688	101.5
386.913	111.5
387.138	97.5
387.363	95.5
387.588	92.5
387.813	103.5
388.038	108.5
388.263	107.5
388.488	84.5
388.713	82.5
388.938	71.5
389.163	100.5
389.387	91.5
389.612	78.5
389.837	82.5
390.062	95.5
390.287	103.5
390.512	86.5
390.736	78.5
390.961	93.5
391.186	102.5
391.411	92.5
391.636	94.5
391.86	87.5
392.085	86.5
392.31	83.5
392.534	77.5
392.759	77.5
392.984	91.5
393.208	93.5
393.433	85.5
393.658	91.5
393.882	85.5
394.107	80.5
394.331	83.5
394.556	84.5
394.78	88.5
395.005	84.5
395.229	83.5
395.454	96.5
395.678	88.5
395.903	79.5
396.127	86.5
396.352	85.5
396.576	81.5
396.801	96.5
397.025	93.5
397.249	94.5
397.474	81.5
397.698	79.5
397.922	79.5
398.147	81.5
398.371	82.5
398.595	80.5
398.82	78.5
399.044	85.5
399.268	75.5
399.492	89.5
399.717	92.5
399.941	81.5
400.165	91.5
400.389	84.5
400.613	80.5
400.837	88.5
401.062	104.5
401.286	93.5
401.51	87.5
401.734	108.5
401.958	96.5
402.182	122.5
402.406	143.5
402.63	101.5
402.854	84.5
403.078	91.5
403.302	88.5
403.526	95.5
403.75	81.5
403.974	82.5
404.198	88.5
404.422	83.5
404.645	87.5
404.869	82.5
405.093	88.5
405.317	97.5
405.541	107.5
405.765	110.5
405.988	105.5
406.212	149.5
406.436	186.5
406.66	117.5
406.883	85.5
407.107	96.5
407.331	86.5
407.555	104.5
407.778	98.5
408.002	92.5
408.226	104.5
408.449	91.5
408.673	93.5
408.896	102.5
409.12	98.5
409.344	93.5
409.567	79.5
409.791	94.5
410.014	93.5
410.238	98.5
410.461	86.5
410.685	90.5
410.908	99.5
411.132	107.5
411.355	89.5
411.578	87.5
411.802	90.5
412.025	71.5
412.249	74.5
412.472	88.5
412.695	100.5
412.919	94.5
413.142	84.5
413.365	91.5
413.589	78.5
413.812	82.5
414.035	82.5
414.258	78.5
414.482	86.5
414.705	99.5
414.928	77.5
415.151	91.5
415.374	100.5
415.597	91.5
415.821	101.5
416.044	81.5
416.267	96.5
416.49	86.5
416.713	89.5
416.936	87.5
417.159	100.5
417.382	93.5
417.605	94.5
417.828	82.5
418.051	69.5
418.274	84.5
418.497	73.5
418.72	77.5
418.943	84.5
419.166	81.5
419.389	89.5
419.611	79.5
419.834	98.5
420.057	82.5
420.28	92.5
420.503	85.5
420.726	84.5
420.948	100.5
421.171	79.5
421.394	92.5
421.617	98.5
421.839	85.5
422.062	80.5
422.285	86.5
422.507	82.5
422.73	77.5
422.953	80.5
423.175	98.5
423.398	87.5
423.621	78.5
423.843	83.5
424.066	89.5
424.288	79.5
424.511	91.5
424.733	87.5
424.956	97.5
425.178	92.5
425.401	98.5
425.623	86.5
425.846	85.5
426.068	87.5
426.291	83.5
426.513	99.5
426.735	83.5
426.958	95.5
427.18	88.5
427.402	118.5
427.625	145.5
427.847	132.5
428.069	116.5
428.292	82.5
428.514	86.5
428.736	89.5
428.958	96.5
429.181	81.5
429.403	94.5
429.625	77.5
429.847	90.5
430.069	96.5
430.292	97.5
430.514	82.5
430.736	77.5
430.958	82.5
431.18	90.5
431.402	78.5
431.624	79.5
431.846	92.5
432.068	84.5
432.29	84.5
432.512	103.5
432.734	84.5
432.956	92.5
433.178	106.5
433.4	101.5
433.622	94.5
433.844	75.5
434.066	90.5
434.287	87.5
434.509	101.5
434.731	87.5
434.953	79.5
435.175	83.5
435.397	83.5
435.618	82.5
435.84	81.5
436.062	103.5
436.284	103.5
436.505	111.5
436.727	104.5
436.949	89.5
437.17	73.5
437.392	86.5
437.614	87.5
437.835	102.5
438.057	99.5
438.278	90.5
438.5	98.5
438.721	112.5
438.943	87.5
439.165	89.5
439.386	87.5
439.608	84.5
439.829	92.5
440.05	108.5
440.272	125.5
440.493	98.5
440.715	87.5
440.936	99.5
441.158	88.5
441.379	86.5
441.6	97.5
441.822	99.5
442.043	91.5
442.264	93.5
442.486	106.5
442.707	88.5
442.928	92.5
443.149	128.5
443.371	115.5
443.592	112.5
443.813	100.5
444.034	95.5
444.255	98.5
444.476	86.5
444.698	101.5
444.919	81.5
445.14	136.5
445.361	109.5
445.582	111.5
445.803	127.5
446.024	129.5
446.245	111.5
446.466	101.5
446.687	98.5
446.908	83.5
447.129	80.5
447.35	94.5
447.571	95.5
447.792	88.5
448.013	79.5
448.234	101.5
448.455	87.5
448.675	113.5
448.896	109.5
449.117	95.5
449.338	89.5
449.559	119.5
449.779	108.5
450	92.5
450.221	84.5
450.442	89.5
450.662	96.5
450.883	96.5
451.104	108.5
451.324	76.5
451.545	90.5
451.766	96.5
451.986	76.5
452.207	95.5
452.428	87.5
452.648	102.5
452.869	95.5
453.089	95.5
453.31	130.5
453.53	92.5
453.751	104.5
453.971	92.5
454.192	113.5
454.412	82.5
454.633	86.5
454.853	76.5
455.073	87.5
455.294	77.5
455.514	81.5
455.734	74.5
455.955	93.5
456.175	81.5
456.395	85.5
456.616	87.5
456.836	83.5
457.056	89.5
457.276	78.5
457.497	82.5
457.717	88.5
457.937	80.5
458.157	97.5
458.377	89.5
458.598	109.5
458.818	122.5
459.038	137.5
459.258	103.5
459.478	85.5
459.698	83.5
459.918	81.5
460.138	88.5
460.358	94.5
460.578	79.5
460.798	91.5
461.018	79.5
461.238	72.5
461.458	87.5
461.678	92.5
461.898	76.5
462.118	81.5
462.338	86.5
462.558	84.5
462.777	85.5
462.997	93.5
463.217	81.5
463.437	91.5
463.657	90.5
463.876	87.5
464.096	84.5
464.316	91.5
464.536	94.5
464.755	87.5
464.975	80.5
465.195	135.5
465.414	153.5
465.634	93.5
465.854	86.5
466.073	81.5
466.293	87.5
466.512	91.5
466.732	93.5
466.951	82.5
467.171	85.5
467.391	89.5
467.61	92.5
467.829	99.5
468.049	133.5
468.268	178.5
468.488	106.5
468.707	85.5
468.927	92.5
469.146	79.5
469.365	89.5
469.585	86.5
469.804	78.5
470.023	87.5
470.243	93.5
470.462	94.5
470.681	119.5
470.901	87.5
471.12	92.5
471.339	81.5
471.558	101.5
471.777	91.5
471.997	106.5
472.216	206.5
472.435	395.5
472.654	150.5
472.873	97.5
473.092	77.5
473.311	75.5
473.53	81.5
473.749	76.5
473.968	75.5
474.187	91.5
474.406	85.5
474.625	69.5
474.844	100.5
475.063	94.5
475.282	82.5
475.501	73.5
475.72	88.5
475.939	83.5
476.158	97.5
476.377	89.5
476.596	94.5
476.814	101.5
477.033	98.5
477.252	92.5
477.471	80.5
477.69	97.5
477.908	94.5
478.127	79.5
478.346	85.5
478.564	90.5
478.783	78.5
479.002	115.5
479.22	100.5
479.439	99.5
479.658	101.5
479.876	89.5
480.095	102.5
480.313	100.5
480.532	98.5
480.751	115.5
480.969	214.5
481.188	646.5
481.406	409.5
481.624	116.5
481.843	103.5
482.061	97.5
482.28	90.5
482.498	88.5
482.717	95.5
482.935	79.5
483.153	90.5
483.372	87.5
483.59	76.5
483.808	95.5
484.027	88.5
484.245	97.5
484.463	91.5
484.681	101.5
484.9	87.5
485.118	76.5
485.336	79.5
485.554	91.5
485.772	86.5
485.99	104.5
486.209	114.5
486.427	110.5
486.645	125.5
486.863	96.5
487.081	96.5
487.299	100.5
487.517	95.5
487.735	92.5
487.953	88.5
488.171	96.5
488.389	101.5
488.607	87.5
488.825	78.5
489.043	87.5
489.261	87.5
489.479	103.5
489.696	98.5
489.914	86.5
490.132	82.5
490.35	90.5
490.568	88.5
490.786	84.5
491.003	83.5
491.221	88.5
491.439	90.5
491.657	87.5
491.874	97.5
492.092	78.5
492.31	96.5
492.527	95.5
492.745	98.5
492.963	89.5
493.18	87.5
493.398	86.5
493.615	90.5
493.833	92.5
494.05	71.5
494.268	97.5
494.485	87.5
494.703	76.5
494.92	98.5
495.138	95.5
495.355	107.5
495.573	92.5
495.79	87.5
496.008	80.5
496.225	96.5
496.442	100.5
496.66	95.5
496.877	99.5
497.094	100.5
497.312	95.5
497.529	109.5
497.746	83.5
497.963	89.5
498.181	81.5
498.398	99.5
498.615	106.5
498.832	110.5
499.049	101.5
499.267	103.5
499.484	99.5
499.701	78.5
499.918	81.5
500.135	94.5
500.352	98.5
500.569	81.5
500.786	87.5
501.003	93.5
501.22	87.5
501.437	95.5
501.654	102.5
501.871	101.5
502.088	88.5
502.305	88.5
502.522	97.5
502.739	81.5
502.956	99.5
503.172	99.5
503.389	94.5
503.606	102.5
503.823	99.5
504.04	72.5
504.256	90.5
504.473	80.5
504.69	90.5
504.907	91.5
505.123	92.5
505.34	68.5
505.557	95.5
505.773	85.5
505.99	97.5
506.207	87.5
506.423	90.5
506.64	87.5
506.856	87.5
507.073	84.5
507.289	91.5
507.506	87.5
507.722	102.5
507.939	103.5
508.155	92.5
508.372	86.5
508.588	93.5
508.805	93.5
509.021	101.5
509.238	85.5
509.454	85.5
509.67	91.5
509.887	114.5
510.103	123.5
510.319	191.5
510.536	616.5
510.752	1964.5
510.968	586.5
511.184	163.5
511.401	99.5
511.617	101.5
511.833	89.5
512.049	76.5
512.265	106.5
512.481	99.5
512.698	87.5
512.914	93.5
513.13	100.5
513.346	87.5
513.562	95.5
513.778	93.5
513.994	92.5
514.21	105.5
514.426	116.5
514.642	115.5
514.858	116.5
515.074	140.5
515.29	361.5
515.506	1190.5
515.721	460.5
515.937	136.5
516.153	110.5
516.369	96.5
516.585	109.5
516.801	102.5
517.016	93.5
517.232	93.5
517.448	93.5
517.664	84.5
517.879	89.5
518.095	93.5
518.311	80.5
518.527	78.5
518.742	86.5
518.958	82.5
519.173	92.5
519.389	87.5
519.605	83.5
519.82	75.5
520.036	85.5
520.251	103.5
520.467	95.5
520.682	98.5
520.898	98.5
521.113	100.5
521.329	131.5
521.544	172.5
521.76	454.5
521.975	1957.5
522.19	1204.5
522.406	256.5
522.621	116.5
522.836	104.5
523.052	93.5
523.267	104.5
523.482	95.5
523.698	93.5
523.913	107.5
524.128	116.5
524.343	97.5
524.559	89.5
524.774	96.5
524.989	101.5
525.204	101.5
525.419	102.5
525.634	93.5
525.849	91.5
526.064	93.5
526.28	87.5
526.495	78.5
526.71	86.5
526.925	86.5
527.14	94.5
527.355	83.5
527.57	83.5
527.785	89.5
527.999	85.5
528.214	97.5
528.429	88.5
528.644	99.5
528.859	90.5
529.074	94.5
529.289	101.5
529.503	144.5
529.718	102.5
529.933	86.5
530.148	98.5
530.363	96.5
530.577	95.5
530.792	78.5
531.007	79.5
531.221	86.5
531.436	84.5
531.651	95.5
531.865	86.5
532.08	90.5
532.295	83.5
532.509	74.5
532.724	89.5
532.938	92.5
533.153	88.5
533.367	88.5
533.582	81.5
533.796	80.5
534.011	100.5
534.225	81.5
534.44	84.5
534.654	95.5
534.868	75.5
535.083	88.5
535.297	89.5
535.511	92.5
535.726	90.5
535.94	79.5
536.154	105.5
536.369	101.5
536.583	99.5
536.797	112.5
537.011	85.5
537.225	77.5
537.44	82.5
537.654	97.5
537.868	95.5
538.082	82.5
538.296	83.5
538.51	97.5
538.724	94.5
538.938	97.5
539.153	100.5
539.367	101.5
539.581	110.5
539.795	94.5
540.009	106.5
540.222	81.5
540.436	85.5
540.65	92.5
540.864	77.5
541.078	99.5
541.292	88.5
541.506	97.5
541.72	95.5
541.934	87.5
542.147	92.5
542.361	84.5
542.575	87.5
542.789	93.5
543.002	103.5
543.216	96.5
543.43	108.5
543.644	78.5
543.857	97.5
544.071	75.5
544.285	84.5
544.498	84.5
544.712	80.5
544.925	83.5
545.139	78.5
545.352	73.5
545.566	92.5
545.779	91.5
545.993	83.5
546.206	84.5
546.42	91.5
546.633	101.5
546.847	99.5
547.06	94.5
547.274	86.5
547.487	88.5
547.7	91.5
547.914	88.5
548.127	88.5
548.34	101.5
548.554	81.5
548.767	76.5
548.98	92.5
549.193	94.5
549.407	98.5
549.62	100.5
549.833	85.5
550.046	93.5
550.259	98.5
550.473	74.5
550.686	78.5
550.899	84.5
551.112	85.5
551.325	79.5
551.538	75.5
551.751	92.5
551.964	83.5
552.177	100.5
552.39	94.5
552.603	92.5
552.816	86.5
553.029	88.5
553.242	82.5
553.455	109.5
553.667	88.5
553.88	98.5
554.093	86.5
554.306	92.5
554.519	82.5
554.732	93.5
554.944	96.5
555.157	82.5
555.37	90.5
555.583	88.5
555.795	95.5
556.008	85.5
556.221	80.5
556.433	77.5
556.646	85.5
556.859	97.5
557.071	91.5
557.284	76.5
557.496	99.5
557.709	85.5
557.921	85.5
558.134	89.5
558.346	74.5
558.559	85.5
558.771	81.5
558.984	85.5
559.196	96.5
559.409	94.5
559.621	83.5
559.833	85.5
560.046	102.5
560.258	98.5
560.47	99.5
560.683	95.5
560.895	93.5
561.107	102.5
561.32	83.5
561.532	82.5
561.744	87.5
561.956	82.5
562.168	87.5
562.381	81.5
562.593	82.5
562.805	90.5
563.017	85.5
563.229	78.5
563.441	82.5
563.653	101.5
563.865	96.5
564.077	92.5
564.289	85.5
564.501	90.5
564.713	85.5
564.925	87.5
565.137	94.5
565.349	100.5
565.561	82.5
565.773	90.5
565.985	102.5
566.197	102.5
566.408	79.5
566.62	91.5
566.832	85.5
567.044	88.5
567.255	90.5
567.467	85.5
567.679	90.5
567.891	87.5
568.102	98.5
568.314	69.5
568.526	103.5
568.737	87.5
568.949	91.5
569.161	97.5
569.372	96.5
569.584	86.5
569.795	82.5
570.007	114.5
570.218	214.5
570.43	128.5
570.641	95.5
570.853	90.5
571.064	85.5
571.276	86.5
571.487	90.5
571.698	90.5
571.91	79.5
572.121	83.5
572.333	90.5
572.544	107.5
572.755	91.5
572.966	84.5
573.178	87.5
573.389	91.5
573.6	79.5
573.811	87.5
574.023	96.5
574.234	91.5
574.445	85.5
574.656	85.5
574.867	82.5
575.078	98.5
575.289	94.5
575.501	87.5
575.712	86.5
575.923	74.5
576.134	89.5
576.345	90.5
576.556	100.5
576.767	94.5
576.978	102.5
577.188	87.5
577.399	93.5
577.61	81.5
577.821	96.5
578.032	110.5
578.243	238.5
578.454	638.5
578.665	186.5
578.875	89.5
579.086	91.5
579.297	71.5
579.508	99.5
579.718	78.5
579.929	95.5
580.14	97.5
580.35	78.5
580.561	92.5
580.772	95.5
580.982	81.5
581.193	85.5
581.403	76.5
581.614	86.5
581.825	82.5
582.035	88.5
582.246	94.5
582.456	71.5
582.667	94.5
582.877	98.5
583.087	80.5
583.298	93.5
583.508	86.5
583.719	92.5
583.929	95.5
584.139	91.5
584.35	84.5
584.56	91.5
584.77	84.5
584.981	92.5
585.191	93.5
585.401	93.5
585.611	79.5
585.821	94.5
586.032	87.5
586.242	86.5
586.452	85.5
586.662	81.5
586.872	80.5
587.082	75.5
587.292	85.5
587.502	88.5
587.713	85.5
587.923	93.5
588.133	93.5
588.343	80.5
588.553	71.5
588.762	81.5
588.972	84.5
589.182	94.5
589.392	83.5
589.602	84.5
589.812	97.5
590.022	79.5
590.232	83.5
590.441	88.5
590.651	93.5
590.861	70.5
591.071	85.5
591.281	87.5
591.49	87.5
591.7	93.5
591.91	87.5
592.119	93.5
592.329	90.5
592.539	89.5
592.748	79.5
592.958	80.5
593.167	91.5
593.377	82.5
593.587	90.5
593.796	79.5
594.006	81.5
594.215	75.5
594.424	71.5
594.634	91.5
594.843	105.5
595.053	90.5
595.262	76.5
595.472	92.5
595.681	82.5
595.89	84.5
596.1	85.5
596.309	95.5
596.518	91.5
596.727	82.5
596.937	98.5
597.146	85.5
597.355	91.5
597.564	85.5
597.774	69.5
597.983	82.5
598.192	94.5
598.401	91.5
598.61	81.5
598.819	89.5
599.028	92.5
599.237	90.5
599.446	94.5
599.655	86.5
599.864	87.5
600.073	75.5
600.282	89.5
600.491	84.5
600.7	93.5
600.909	76.5
601.118	95.5
601.327	84.5
601.536	86.5
601.745	90.5
601.953	90.5
602.162	98.5
602.371	82.5
602.58	98.5
602.789	85.5
602.997	78.5
603.206	84.5
603.415	88.5
603.623	84.5
603.832	73.5
604.041	102.5
604.249	84.5
604.458	85.5
604.666	84.5
604.875	79.5
605.084	87.5
605.292	89.5
605.501	85.5
605.709	82.5
605.918	83.5
606.126	80.5
606.334	80.5
606.543	75.5
606.751	83.5
606.96	83.5
607.168	78.5
607.376	87.5
607.585	96.5
607.793	82.5
608.001	83.5
608.21	104.5
608.418	88.5
608.626	84.5
608.834	91.5
609.043	91.5
609.251	88.5
609.459	84.5
609.667	102.5
609.875	91.5
610.083	80.5
610.291	96.5
610.499	88.5
610.707	98.5
610.916	90.5
611.124	75.5
611.332	100.5
611.54	90.5
611.748	95.5
611.955	78.5
612.163	86.5
612.371	86.5
612.579	94.5
612.787	75.5
612.995	87.5
613.203	73.5
613.411	101.5
613.618	87.5
613.826	83.5
614.034	83.5
614.242	77.5
614.449	84.5
614.657	92.5
614.865	84.5
615.072	76.5
615.28	96.5
615.488	83.5
615.695	76.5
615.903	92.5
616.111	94.5
616.318	94.5
616.526	89.5
616.733	96.5
616.941	95.5
617.148	93.5
617.356	72.5
617.563	86.5
617.771	103.5
617.978	84.5
618.185	62.5
618.393	87.5
618.6	84.5
618.807	84.5
619.015	86.5
619.222	86.5
619.429	84.5
619.637	79.5
619.844	80.5
620.051	79.5
620.258	77.5
620.466	89.5
620.673	88.5
620.88	81.5
621.087	83.5
621.294	97.5
621.501	92.5
621.708	94.5
621.915	95.5
622.122	72.5
622.329	95.5
622.536	86.5
622.743	89.5
622.95	82.5
623.157	88.5
623.364	78.5
623.571	80.5
623.778	81.5
623.985	77.5
624.192	68.5
624.399	77.5
624.606	81.5
624.812	70.5
625.019	82.5
625.226	90.5
625.433	88.5
625.639	80.5
625.846	74.5
626.053	86.5
626.259	84.5
626.466	79.5
626.673	88.5
626.879	84.5
627.086	83.5
627.293	87.5
627.499	88.5
627.706	99.5
627.912	90.5
628.119	91.5
628.325	98.5
628.532	84.5
628.738	76.5
628.945	82.5
629.151	86.5
629.357	92.5
629.564	90.5
629.77	70.5
629.976	84.5
630.183	75.5
630.389	69.5
630.595	84.5
630.802	79.5
631.008	75.5
631.214	84.5
631.42	86.5
631.627	76.5
631.833	92.5
632.039	79.5
632.245	79.5
632.451	87.5
632.657	80.5
632.863	80.5
633.069	78.5
633.275	51.5
633.481	70.5
633.688	76.5
633.893	92.5
634.099	100.5
634.305	89.5
634.511	79.5
634.717	73.5
634.923	82.5
635.129	90.5
635.335	90.5
635.541	100.5
635.747	82.5
635.952	90.5
636.158	86.5
636.364	126.5
636.57	103.5
636.775	81.5
636.981	83.5
637.187	80.5
637.392	80.5
637.598	75.5
637.804	90.5
638.009	94.5
638.215	80.5
638.421	79.5
638.626	82.5
638.832	97.5
639.037	85.5
639.243	99.5
639.448	82.5
639.654	87.5
639.859	76.5
640.065	86.5
640.27	90.5
640.475	76.5
640.681	82.5
640.886	85.5
641.091	81.5
641.297	92.5
641.502	86.5
641.707	93.5
641.913	89.5
642.118	82.5
642.323	91.5
642.528	91.5
642.733	96.5
642.939	85.5
643.144	88.5
643.349	74.5
643.554	76.5
643.759	80.5
643.964	76.5
644.169	88.5
644.374	79.5
644.579	97.5
644.784	77.5
644.989	81.5
645.194	86.5
645.399	86.5
645.604	88.5
645.809	87.5
646.014	79.5
646.219	87.5
646.423	82.5
646.628	78.5
646.833	91.5
647.038	90.5
647.243	78.5
647.447	89.5
647.652	80.5
647.857	82.5
648.062	86.5
648.266	84.5
648.471	88.5
648.676	85.5
648.88	80.5
649.085	90.5
649.289	88.5
649.494	113.5
649.698	119.5
649.903	93.5
650.107	71.5
650.312	83.5
650.516	85.5
650.721	95.5
650.925	78.5
651.13	85.5
651.334	86.5
651.539	80.5
651.743	77.5
651.947	86.5
652.152	90.5
652.356	88.5
652.56	74.5
652.764	83.5
652.969	76.5
653.173	73.5
653.377	80.5
653.581	82.5
653.785	79.5
653.99	80.5
654.194	69.5
654.398	80.5
654.602	98.5
654.806	69.5
655.01	106.5
655.214	98.5
655.418	94.5
655.622	68.5
655.826	96.5
656.03	79.5
656.234	90.5
656.438	92.5
656.642	99.5
656.846	76.5
657.049	79.5
657.253	67.5
657.457	84.5
657.661	83.5
657.865	87.5
658.068	77.5
658.272	80.5
658.476	78.5
658.68	75.5
658.883	85.5
659.087	90.5
659.291	85.5
659.494	76.5
659.698	95.5
659.901	67.5
660.105	73.5
660.309	80.5
660.512	77.5
660.716	80.5
660.919	86.5
661.123	91.5
661.326	92.5
661.53	77.5
661.733	81.5
661.936	84.5
662.14	80.5
662.343	67.5
662.546	85.5
662.75	82.5
662.953	67.5
663.156	80.5
663.36	88.5
663.563	62.5
663.766	74.5
663.969	78.5
664.173	73.5
664.376	82.5
664.579	72.5
664.782	84.5
664.985	90.5
665.188	82.5
665.391	83.5
665.594	81.5
665.797	88.5
666	84.5
666.203	75.5
666.406	90.5
666.609	72.5
666.812	90.5
667.015	84.5
667.218	87.5
667.421	86.5
667.624	74.5
667.827	85.5
668.03	88.5
668.232	82.5
668.435	68.5
668.638	90.5
668.841	82.5
669.043	88.5
669.246	72.5
669.449	74.5
669.651	76.5
669.854	93.5
670.057	83.5
670.259	78.5
670.462	84.5
670.665	76.5
670.867	94.5
671.07	74.5
671.272	89.5
671.475	78.5
671.677	79.5
671.88	88.5
672.082	89.5
672.284	74.5
672.487	77.5
672.689	79.5
672.892	73.5
