Data from Circ_2005_H10_HRD10591_00076.txt Node
Date: Wed Jan 03 10:30:06 EST 2024
User: Yrep
Spectrometer: HR+D1059
Trigger mode: 1
Integration Time (sec): 1.000000E-1
Scans to average: 1
Electric dark correction enabled: true
Nonlinearity correction enabled: false
Boxcar width: 0
XAxis mode: Wavelengths
Number of Pixels in Spectrum: 2048
>>>>>Begin Spectral Data<<<<<
223.165	-2.81
223.4	-2.81
223.635	-2.81
223.869	-13.81
224.104	-14.81
224.338	-28.81
224.573	-17.81
224.808	-14.81
225.042	-5.81
225.277	-4.81
225.511	3.19
225.746	14.19
225.98	6.19
226.215	7.19
226.449	18.19
226.683	8.19
226.918	12.19
227.152	34.19
227.387	25.19
227.621	32.19
227.856	41.19
228.09	52.19
228.324	38.19
228.559	55.19
228.793	55.19
229.027	66.19
229.262	84.19
229.496	75.19
229.73	77.19
229.964	82.19
230.199	76.19
230.433	69.19
230.667	60.19
230.901	76.19
231.136	82.19
231.37	76.19
231.604	87.19
231.838	69.19
232.072	85.19
232.306	82.19
232.541	74.19
232.775	88.19
233.009	78.19
233.243	83.19
233.477	72.19
233.711	90.19
233.945	82.19
234.179	78.19
234.413	86.19
234.647	74.19
234.881	99.19
235.115	72.19
235.349	76.19
235.583	88.19
235.817	75.19
236.051	76.19
236.285	71.19
236.519	75.19
236.753	68.19
236.987	85.19
237.221	79.19
237.455	68.19
237.689	90.19
237.922	83.19
238.156	70.19
238.39	62.19
238.624	69.19
238.858	68.19
239.091	76.19
239.325	87.19
239.559	83.19
239.793	68.19
240.027	71.19
240.26	80.19
240.494	64.19
240.728	78.19
240.961	70.19
241.195	71.19
241.429	87.19
241.662	90.19
241.896	78.19
242.13	75.19
242.363	62.19
242.597	67.19
242.83	74.19
243.064	76.19
243.298	78.19
243.531	67.19
243.765	75.19
243.998	88.19
244.232	70.19
244.465	72.19
244.699	83.19
244.932	82.19
245.166	81.19
245.399	80.19
245.633	66.19
245.866	67.19
246.099	78.19
246.333	82.19
246.566	72.19
246.8	71.19
247.033	77.19
247.266	102.19
247.5	83.19
247.733	76.19
247.966	77.19
248.2	78.19
248.433	68.19
248.666	74.19
248.899	68.19
249.133	86.19
249.366	97.19
249.599	87.19
249.832	74.19
250.066	79.19
250.299	87.19
250.532	79.19
250.765	68.19
250.998	84.19
251.231	91.19
251.465	89.19
251.698	82.19
251.931	80.19
252.164	87.19
252.397	78.19
252.63	79.19
252.863	78.19
253.096	80.19
253.329	77.19
253.562	74.19
253.795	85.19
254.028	74.19
254.261	72.19
254.494	80.19
254.727	80.19
254.96	72.19
255.193	79.19
255.426	88.19
255.659	87.19
255.892	76.19
256.124	87.19
256.357	95.19
256.59	88.19
256.823	77.19
257.056	89.19
257.289	86.19
257.521	88.19
257.754	92.19
257.987	79.19
258.22	86.19
258.452	88.19
258.685	93.19
258.918	80.19
259.151	82.19
259.383	72.19
259.616	86.19
259.849	79.19
260.081	86.19
260.314	78.19
260.547	91.19
260.779	92.19
261.012	88.19
261.244	74.19
261.477	78.19
261.71	92.19
261.942	112.19
262.175	106.19
262.407	101.19
262.64	60.19
262.872	72.19
263.105	86.19
263.337	99.19
263.57	83.19
263.802	77.19
264.035	70.19
264.267	91.19
264.499	94.19
264.732	76.19
264.964	82.19
265.197	84.19
265.429	84.19
265.661	78.19
265.894	82.19
266.126	81.19
266.358	81.19
266.591	77.19
266.823	77.19
267.055	71.19
267.287	88.19
267.52	71.19
267.752	81.19
267.984	82.19
268.216	73.19
268.448	101.19
268.681	83.19
268.913	80.19
269.145	85.19
269.377	87.19
269.609	84.19
269.841	79.19
270.073	95.19
270.306	86.19
270.538	89.19
270.77	81.19
271.002	97.19
271.234	79.19
271.466	90.19
271.698	90.19
271.93	101.19
272.162	86.19
272.394	86.19
272.626	77.19
272.858	91.19
273.09	88.19
273.322	86.19
273.553	76.19
273.785	89.19
274.017	81.19
274.249	84.19
274.481	83.19
274.713	86.19
274.945	72.19
275.176	76.19
275.408	80.19
275.64	91.19
275.872	86.19
276.104	87.19
276.335	88.19
276.567	95.19
276.799	98.19
277.031	90.19
277.262	83.19
277.494	93.19
277.726	74.19
277.957	84.19
278.189	88.19
278.421	94.19
278.652	82.19
278.884	83.19
279.115	87.19
279.347	82.19
279.579	99.19
279.81	86.19
280.042	96.19
280.273	95.19
280.505	88.19
280.736	83.19
280.968	83.19
281.199	80.19
281.431	87.19
281.662	78.19
281.894	85.19
282.125	102.19
282.356	119.19
282.588	139.19
282.819	99.19
283.051	76.19
283.282	98.19
283.513	85.19
283.745	83.19
283.976	82.19
284.207	68.19
284.439	85.19
284.67	77.19
284.901	94.19
285.132	91.19
285.364	79.19
285.595	82.19
285.826	86.19
286.057	80.19
286.288	71.19
286.52	90.19
286.751	84.19
286.982	83.19
287.213	86.19
287.444	76.19
287.675	95.19
287.906	97.19
288.138	83.19
288.369	91.19
288.6	92.19
288.831	82.19
289.062	84.19
289.293	91.19
289.524	88.19
289.755	96.19
289.986	94.19
290.217	81.19
290.448	84.19
290.679	104.19
290.91	80.19
291.141	83.19
291.371	78.19
291.602	78.19
291.833	65.19
292.064	83.19
292.295	101.19
292.526	76.19
292.757	78.19
292.987	76.19
293.218	88.19
293.449	83.19
293.68	101.19
293.91	84.19
294.141	96.19
294.372	82.19
294.603	94.19
294.833	90.19
295.064	91.19
295.295	90.19
295.525	87.19
295.756	98.19
295.987	116.19
296.217	135.19
296.448	121.19
296.679	83.19
296.909	87.19
297.14	90.19
297.37	86.19
297.601	99.19
297.831	102.19
298.062	93.19
298.292	89.19
298.523	89.19
298.753	91.19
298.984	83.19
299.214	96.19
299.445	87.19
299.675	84.19
299.905	76.19
300.136	77.19
300.366	80.19
300.597	75.19
300.827	93.19
301.057	92.19
301.288	100.19
301.518	94.19
301.748	98.19
301.979	105.19
302.209	87.19
302.439	77.19
302.669	79.19
302.9	95.19
303.13	97.19
303.36	83.19
303.59	99.19
303.82	100.19
304.051	87.19
304.281	89.19
304.511	87.19
304.741	91.19
304.971	78.19
305.201	95.19
305.431	89.19
305.661	77.19
305.891	75.19
306.121	91.19
306.352	85.19
306.582	96.19
306.812	108.19
307.042	93.19
307.272	87.19
307.502	101.19
307.731	88.19
307.961	102.19
308.191	95.19
308.421	98.19
308.651	95.19
308.881	86.19
309.111	84.19
309.341	104.19
309.571	92.19
309.8	73.19
310.03	94.19
310.26	102.19
310.49	99.19
310.72	88.19
310.949	92.19
311.179	89.19
311.409	93.19
311.639	96.19
311.868	98.19
312.098	104.19
312.328	104.19
312.557	106.19
312.787	99.19
313.017	96.19
313.246	101.19
313.476	87.19
313.706	92.19
313.935	78.19
314.165	77.19
314.394	96.19
314.624	89.19
314.853	100.19
315.083	81.19
315.312	85.19
315.542	80.19
315.771	85.19
316.001	90.19
316.23	94.19
316.46	73.19
316.689	84.19
316.919	99.19
317.148	100.19
317.377	103.19
317.607	86.19
317.836	83.19
318.065	85.19
318.295	87.19
318.524	97.19
318.753	92.19
318.983	87.19
319.212	84.19
319.441	105.19
319.67	102.19
319.9	75.19
320.129	92.19
320.358	74.19
320.587	79.19
320.816	90.19
321.046	101.19
321.275	111.19
321.504	91.19
321.733	86.19
321.962	100.19
322.191	112.19
322.42	100.19
322.649	117.19
322.878	109.19
323.108	112.19
323.337	110.19
323.566	136.19
323.795	147.19
324.024	197.19
324.253	354.19
324.482	744.19
324.71	1492.19
324.939	1934.19
325.168	720.19
325.397	224.19
325.626	129.19
325.855	122.19
326.084	117.19
326.313	115.19
326.542	152.19
326.77	212.19
326.999	436.19
327.228	861.19
327.457	1541.19
327.686	1194.19
327.914	345.19
328.143	195.19
328.372	168.19
328.6	131.19
328.829	115.19
329.058	116.19
329.287	136.19
329.515	109.19
329.744	95.19
329.972	124.19
330.201	153.19
330.43	192.19
330.658	130.19
330.887	106.19
331.115	122.19
331.344	93.19
331.572	93.19
331.801	88.19
332.03	96.19
332.258	119.19
332.486	84.19
332.715	87.19
332.943	101.19
333.172	88.19
333.4	90.19
333.629	115.19
333.857	111.19
334.085	104.19
334.314	155.19
334.542	212.19
334.771	209.19
334.999	124.19
335.227	103.19
335.455	91.19
335.684	87.19
335.912	98.19
336.14	94.19
336.369	102.19
336.597	85.19
336.825	94.19
337.053	91.19
337.281	91.19
337.51	89.19
337.738	105.19
337.966	104.19
338.194	101.19
338.422	103.19
338.65	88.19
338.878	98.19
339.106	102.19
339.334	93.19
339.562	97.19
339.79	92.19
340.018	97.19
340.246	81.19
340.474	94.19
340.702	90.19
340.93	92.19
341.158	88.19
341.386	77.19
341.614	86.19
341.842	103.19
342.07	93.19
342.298	97.19
342.526	88.19
342.754	71.19
342.981	98.19
343.209	94.19
343.437	105.19
343.665	90.19
343.893	76.19
344.12	94.19
344.348	77.19
344.576	99.19
344.804	84.19
345.031	86.19
345.259	92.19
345.487	87.19
345.714	74.19
345.942	87.19
346.17	96.19
346.397	100.19
346.625	89.19
346.853	89.19
347.08	83.19
347.308	104.19
347.535	107.19
347.763	92.19
347.99	95.19
348.218	95.19
348.445	106.19
348.673	84.19
348.9	93.19
349.128	92.19
349.355	90.19
349.583	97.19
349.81	89.19
350.037	94.19
350.265	93.19
350.492	101.19
350.72	85.19
350.947	95.19
351.174	96.19
351.402	88.19
351.629	85.19
351.856	93.19
352.083	96.19
352.311	94.19
352.538	99.19
352.765	104.19
352.992	100.19
353.22	100.19
353.447	94.19
353.674	93.19
353.901	87.19
354.128	84.19
354.355	99.19
354.583	103.19
354.81	92.19
355.037	103.19
355.264	96.19
355.491	89.19
355.718	79.19
355.945	79.19
356.172	87.19
356.399	97.19
356.626	106.19
356.853	92.19
357.08	91.19
357.307	91.19
357.534	88.19
357.761	88.19
357.988	92.19
358.215	89.19
358.441	91.19
358.668	80.19
358.895	80.19
359.122	91.19
359.349	83.19
359.576	94.19
359.802	80.19
360.029	101.19
360.256	96.19
360.483	98.19
360.709	92.19
360.936	100.19
361.163	86.19
361.39	96.19
361.616	86.19
361.843	79.19
362.07	95.19
362.296	86.19
362.523	79.19
362.749	104.19
362.976	99.19
363.203	85.19
363.429	100.19
363.656	95.19
363.882	79.19
364.109	95.19
364.335	101.19
364.562	92.19
364.788	89.19
365.015	88.19
365.241	97.19
365.468	113.19
365.694	105.19
365.92	99.19
366.147	86.19
366.373	92.19
366.599	83.19
366.826	72.19
367.052	94.19
367.278	93.19
367.505	81.19
367.731	97.19
367.957	90.19
368.184	82.19
368.41	85.19
368.636	101.19
368.862	101.19
369.089	115.19
369.315	77.19
369.541	83.19
369.767	112.19
369.993	78.19
370.219	84.19
370.445	95.19
370.672	89.19
370.898	86.19
371.124	99.19
371.35	81.19
371.576	76.19
371.802	96.19
372.028	87.19
372.254	80.19
372.48	86.19
372.706	80.19
372.932	103.19
373.158	81.19
373.384	83.19
373.61	94.19
373.835	81.19
374.061	85.19
374.287	98.19
374.513	79.19
374.739	78.19
374.965	81.19
375.191	90.19
375.416	94.19
375.642	86.19
375.868	81.19
376.094	85.19
376.319	88.19
376.545	86.19
376.771	92.19
376.997	99.19
377.222	81.19
377.448	78.19
377.674	92.19
377.899	88.19
378.125	88.19
378.35	87.19
378.576	101.19
378.802	101.19
379.027	78.19
379.253	91.19
379.478	96.19
379.704	98.19
379.929	85.19
380.155	83.19
380.38	106.19
380.606	87.19
380.831	98.19
381.057	92.19
381.282	105.19
381.507	80.19
381.733	99.19
381.958	82.19
382.184	89.19
382.409	103.19
382.634	101.19
382.86	97.19
383.085	91.19
383.31	92.19
383.535	100.19
383.761	97.19
383.986	109.19
384.211	106.19
384.436	93.19
384.662	94.19
384.887	87.19
385.112	114.19
385.337	97.19
385.562	106.19
385.787	93.19
386.013	88.19
386.238	117.19
386.463	97.19
386.688	109.19
386.913	106.19
387.138	100.19
387.363	89.19
387.588	92.19
387.813	106.19
388.038	109.19
388.263	101.19
388.488	89.19
388.713	86.19
388.938	90.19
389.163	93.19
389.387	87.19
389.612	99.19
389.837	98.19
390.062	100.19
390.287	93.19
390.512	98.19
390.736	93.19
390.961	70.19
391.186	93.19
391.411	99.19
391.636	85.19
391.86	88.19
392.085	84.19
392.31	80.19
392.534	93.19
392.759	88.19
392.984	91.19
393.208	101.19
393.433	90.19
393.658	76.19
393.882	84.19
394.107	70.19
394.331	88.19
394.556	77.19
394.78	93.19
395.005	79.19
395.229	78.19
395.454	82.19
395.678	93.19
395.903	94.19
396.127	97.19
396.352	84.19
396.576	83.19
396.801	81.19
397.025	88.19
397.249	98.19
397.474	89.19
397.698	98.19
397.922	87.19
398.147	87.19
398.371	82.19
398.595	98.19
398.82	84.19
399.044	86.19
399.268	92.19
399.492	79.19
399.717	80.19
399.941	94.19
400.165	83.19
400.389	81.19
400.613	68.19
400.837	79.19
401.062	78.19
401.286	88.19
401.51	81.19
401.734	88.19
401.958	90.19
402.182	122.19
402.406	149.19
402.63	105.19
402.854	90.19
403.078	82.19
403.302	98.19
403.526	92.19
403.75	87.19
403.974	78.19
404.198	81.19
404.422	81.19
404.645	91.19
404.869	104.19
405.093	126.19
405.317	110.19
405.541	112.19
405.765	108.19
405.988	111.19
406.212	156.19
406.436	202.19
406.66	136.19
406.883	101.19
407.107	94.19
407.331	98.19
407.555	106.19
407.778	105.19
408.002	104.19
408.226	77.19
408.449	86.19
408.673	93.19
408.896	94.19
409.12	88.19
409.344	92.19
409.567	88.19
409.791	91.19
410.014	87.19
410.238	105.19
410.461	71.19
410.685	91.19
410.908	90.19
411.132	93.19
411.355	93.19
411.578	95.19
411.802	92.19
412.025	72.19
412.249	81.19
412.472	79.19
412.695	94.19
412.919	99.19
413.142	76.19
413.365	78.19
413.589	77.19
413.812	93.19
414.035	88.19
414.258	86.19
414.482	80.19
414.705	71.19
414.928	76.19
415.151	97.19
415.374	90.19
415.597	77.19
415.821	91.19
416.044	90.19
416.267	83.19
416.49	91.19
416.713	95.19
416.936	99.19
417.159	81.19
417.382	75.19
417.605	86.19
417.828	78.19
418.051	89.19
418.274	86.19
418.497	90.19
418.72	77.19
418.943	83.19
419.166	102.19
419.389	82.19
419.611	87.19
419.834	86.19
420.057	94.19
420.28	75.19
420.503	87.19
420.726	93.19
420.948	105.19
421.171	82.19
421.394	82.19
421.617	85.19
421.839	68.19
422.062	75.19
422.285	85.19
422.507	95.19
422.73	96.19
422.953	95.19
423.175	94.19
423.398	82.19
423.621	86.19
423.843	92.19
424.066	85.19
424.288	88.19
424.511	85.19
424.733	80.19
424.956	98.19
425.178	93.19
425.401	95.19
425.623	92.19
425.846	86.19
426.068	97.19
426.291	96.19
426.513	94.19
426.735	80.19
426.958	87.19
427.18	99.19
427.402	127.19
427.625	150.19
427.847	119.19
428.069	122.19
428.292	92.19
428.514	70.19
428.736	83.19
428.958	74.19
429.181	77.19
429.403	88.19
429.625	80.19
429.847	78.19
430.069	98.19
430.292	91.19
430.514	81.19
430.736	80.19
430.958	78.19
431.18	87.19
431.402	106.19
431.624	76.19
431.846	89.19
432.068	98.19
432.29	95.19
432.512	84.19
432.734	87.19
432.956	99.19
433.178	93.19
433.4	86.19
433.622	85.19
433.844	85.19
434.066	102.19
434.287	103.19
434.509	79.19
434.731	88.19
434.953	77.19
435.175	83.19
435.397	80.19
435.618	101.19
435.84	102.19
436.062	118.19
436.284	103.19
436.505	99.19
436.727	110.19
436.949	86.19
437.17	88.19
437.392	91.19
437.614	93.19
437.835	100.19
438.057	110.19
438.278	101.19
438.5	117.19
438.721	102.19
438.943	109.19
439.165	100.19
439.386	93.19
439.608	80.19
439.829	97.19
440.05	115.19
440.272	118.19
440.493	82.19
440.715	84.19
440.936	93.19
441.158	97.19
441.379	94.19
441.6	97.19
441.822	92.19
442.043	94.19
442.264	90.19
442.486	106.19
442.707	83.19
442.928	101.19
443.149	120.19
443.371	116.19
443.592	112.19
443.813	99.19
444.034	98.19
444.255	94.19
444.476	77.19
444.698	92.19
444.919	84.19
445.14	119.19
445.361	111.19
445.582	103.19
445.803	114.19
446.024	124.19
446.245	132.19
446.466	99.19
446.687	91.19
446.908	87.19
447.129	76.19
447.35	90.19
447.571	85.19
447.792	98.19
448.013	86.19
448.234	99.19
448.455	103.19
448.675	106.19
448.896	116.19
449.117	111.19
449.338	86.19
449.559	107.19
449.779	133.19
450	92.19
450.221	92.19
450.442	79.19
450.662	94.19
450.883	103.19
451.104	96.19
451.324	89.19
451.545	92.19
451.766	95.19
451.986	96.19
452.207	79.19
452.428	93.19
452.648	102.19
452.869	113.19
453.089	116.19
453.31	93.19
453.53	93.19
453.751	81.19
453.971	90.19
454.192	106.19
454.412	99.19
454.633	84.19
454.853	94.19
455.073	103.19
455.294	71.19
455.514	87.19
455.734	89.19
455.955	87.19
456.175	95.19
456.395	78.19
456.616	83.19
456.836	82.19
457.056	94.19
457.276	71.19
457.497	93.19
457.717	80.19
457.937	85.19
458.157	91.19
458.377	86.19
458.598	89.19
458.818	119.19
459.038	156.19
459.258	117.19
459.478	80.19
459.698	69.19
459.918	90.19
460.138	84.19
460.358	70.19
460.578	85.19
460.798	84.19
461.018	85.19
461.238	89.19
461.458	77.19
461.678	88.19
461.898	75.19
462.118	97.19
462.338	84.19
462.558	87.19
462.777	91.19
462.997	81.19
463.217	90.19
463.437	88.19
463.657	74.19
463.876	84.19
464.096	80.19
464.316	89.19
464.536	83.19
464.755	94.19
464.975	94.19
465.195	141.19
465.414	152.19
465.634	96.19
465.854	80.19
466.073	87.19
466.293	71.19
466.512	89.19
466.732	76.19
466.951	66.19
467.171	93.19
467.391	103.19
467.61	96.19
467.829	91.19
468.049	123.19
468.268	131.19
468.488	87.19
468.707	84.19
468.927	98.19
469.146	92.19
469.365	88.19
469.585	73.19
469.804	88.19
470.023	93.19
470.243	81.19
470.462	96.19
470.681	92.19
470.901	86.19
471.12	80.19
471.339	96.19
471.558	94.19
471.777	74.19
471.997	97.19
472.216	171.19
472.435	272.19
472.654	94.19
472.873	85.19
473.092	87.19
473.311	100.19
473.53	74.19
473.749	84.19
473.968	94.19
474.187	96.19
474.406	95.19
474.625	90.19
474.844	100.19
475.063	87.19
475.282	79.19
475.501	86.19
475.72	75.19
475.939	72.19
476.158	74.19
476.377	84.19
476.596	100.19
476.814	91.19
477.033	94.19
477.252	96.19
477.471	85.19
477.69	91.19
477.908	87.19
478.127	83.19
478.346	85.19
478.564	87.19
478.783	94.19
479.002	76.19
479.22	90.19
479.439	100.19
479.658	110.19
479.876	96.19
480.095	79.19
480.313	89.19
480.532	94.19
480.751	112.19
480.969	164.19
481.188	417.19
481.406	284.19
481.624	117.19
481.843	99.19
482.061	92.19
482.28	88.19
482.498	95.19
482.717	93.19
482.935	80.19
483.153	78.19
483.372	90.19
483.59	97.19
483.808	90.19
484.027	100.19
484.245	78.19
484.463	98.19
484.681	95.19
484.9	79.19
485.118	102.19
485.336	79.19
485.554	94.19
485.772	100.19
485.99	96.19
486.209	91.19
486.427	103.19
486.645	111.19
486.863	96.19
487.081	99.19
487.299	85.19
487.517	95.19
487.735	103.19
487.953	92.19
488.171	92.19
488.389	90.19
488.607	79.19
488.825	92.19
489.043	90.19
489.261	95.19
489.479	94.19
489.696	88.19
489.914	84.19
490.132	83.19
490.35	82.19
490.568	81.19
490.786	93.19
491.003	82.19
491.221	93.19
491.439	90.19
491.657	92.19
491.874	88.19
492.092	85.19
492.31	94.19
492.527	84.19
492.745	94.19
492.963	86.19
493.18	83.19
493.398	94.19
493.615	88.19
493.833	94.19
494.05	84.19
494.268	96.19
494.485	82.19
494.703	79.19
494.92	88.19
495.138	80.19
495.355	87.19
495.573	96.19
495.79	85.19
496.008	103.19
496.225	93.19
496.442	87.19
496.66	76.19
496.877	87.19
497.094	88.19
497.312	94.19
497.529	83.19
497.746	85.19
497.963	87.19
498.181	87.19
498.398	86.19
498.615	91.19
498.832	97.19
499.049	89.19
499.267	90.19
499.484	78.19
499.701	82.19
499.918	91.19
500.135	97.19
500.352	94.19
500.569	88.19
500.786	102.19
501.003	94.19
501.22	71.19
501.437	91.19
501.654	84.19
501.871	105.19
502.088	87.19
502.305	94.19
502.522	85.19
502.739	76.19
502.956	79.19
503.172	101.19
503.389	94.19
503.606	110.19
503.823	96.19
504.04	86.19
504.256	100.19
504.473	74.19
504.69	86.19
504.907	87.19
505.123	80.19
505.34	84.19
505.557	86.19
505.773	96.19
505.99	85.19
506.207	88.19
506.423	93.19
506.64	90.19
506.856	91.19
507.073	86.19
507.289	86.19
507.506	88.19
507.722	100.19
507.939	94.19
508.155	97.19
508.372	97.19
508.588	95.19
508.805	93.19
509.021	98.19
509.238	110.19
509.454	96.19
509.67	111.19
509.887	99.19
510.103	125.19
510.319	204.19
510.536	672.19
510.752	2110.19
510.968	606.19
511.184	157.19
511.401	105.19
511.617	102.19
511.833	90.19
512.049	75.19
512.265	96.19
512.481	106.19
512.698	79.19
512.914	85.19
513.13	85.19
513.346	104.19
513.562	91.19
513.778	95.19
513.994	105.19
514.21	90.19
514.426	122.19
514.642	122.19
514.858	118.19
515.074	154.19
515.29	385.19
515.506	1242.19
515.721	486.19
515.937	145.19
516.153	110.19
516.369	85.19
516.585	92.19
516.801	96.19
517.016	82.19
517.232	96.19
517.448	86.19
517.664	90.19
517.879	89.19
518.095	87.19
518.311	88.19
518.527	99.19
518.742	95.19
518.958	79.19
519.173	100.19
519.389	82.19
519.605	91.19
519.82	94.19
520.036	86.19
520.251	106.19
520.467	117.19
520.682	112.19
520.898	103.19
521.113	111.19
521.329	139.19
521.544	174.19
521.76	479.19
521.975	1994.19
522.19	1252.19
522.406	282.19
522.621	113.19
522.836	96.19
523.052	95.19
523.267	89.19
523.482	85.19
523.698	88.19
523.913	131.19
524.128	104.19
524.343	91.19
524.559	86.19
524.774	82.19
524.989	98.19
525.204	90.19
525.419	92.19
525.634	88.19
525.849	92.19
526.064	89.19
526.28	88.19
526.495	97.19
526.71	87.19
526.925	91.19
527.14	78.19
527.355	80.19
527.57	87.19
527.785	97.19
527.999	87.19
528.214	96.19
528.429	91.19
528.644	93.19
528.859	94.19
529.074	93.19
529.289	104.19
529.503	134.19
529.718	86.19
529.933	84.19
530.148	75.19
530.363	83.19
530.577	93.19
530.792	78.19
531.007	91.19
531.221	93.19
531.436	96.19
531.651	90.19
531.865	88.19
532.08	93.19
532.295	87.19
532.509	77.19
532.724	93.19
532.938	83.19
533.153	87.19
533.367	83.19
533.582	89.19
533.796	85.19
534.011	88.19
534.225	96.19
534.44	84.19
534.654	86.19
534.868	91.19
535.083	92.19
535.297	80.19
535.511	91.19
535.726	95.19
535.94	93.19
536.154	104.19
536.369	84.19
536.583	84.19
536.797	76.19
537.011	88.19
537.225	93.19
537.44	85.19
537.654	81.19
537.868	78.19
538.082	86.19
538.296	84.19
538.51	94.19
538.724	90.19
538.938	80.19
539.153	84.19
539.367	99.19
539.581	86.19
539.795	71.19
540.009	102.19
540.222	78.19
540.436	83.19
540.65	77.19
540.864	86.19
541.078	101.19
541.292	96.19
541.506	81.19
541.72	96.19
541.934	82.19
542.147	90.19
542.361	98.19
542.575	98.19
542.789	77.19
543.002	83.19
543.216	84.19
543.43	101.19
543.644	86.19
543.857	91.19
544.071	90.19
544.285	87.19
544.498	95.19
544.712	91.19
544.925	92.19
545.139	77.19
545.352	108.19
545.566	89.19
545.779	79.19
545.993	85.19
546.206	82.19
546.42	84.19
546.633	91.19
546.847	105.19
547.06	80.19
547.274	95.19
547.487	85.19
547.7	95.19
547.914	81.19
548.127	90.19
548.34	88.19
548.554	102.19
548.767	94.19
548.98	81.19
549.193	87.19
549.407	88.19
549.62	84.19
549.833	90.19
550.046	93.19
550.259	94.19
550.473	77.19
550.686	84.19
550.899	72.19
551.112	90.19
551.325	86.19
551.538	82.19
551.751	90.19
551.964	78.19
552.177	98.19
552.39	69.19
552.603	94.19
552.816	92.19
553.029	94.19
553.242	93.19
553.455	96.19
553.667	97.19
553.88	92.19
554.093	103.19
554.306	96.19
554.519	89.19
554.732	90.19
554.944	93.19
555.157	84.19
555.37	86.19
555.583	94.19
555.795	86.19
556.008	88.19
556.221	79.19
556.433	88.19
556.646	100.19
556.859	92.19
557.071	96.19
557.284	84.19
557.496	86.19
557.709	86.19
557.921	88.19
558.134	80.19
558.346	89.19
558.559	86.19
558.771	80.19
558.984	77.19
559.196	78.19
559.409	85.19
559.621	94.19
559.833	87.19
560.046	93.19
560.258	86.19
560.47	82.19
560.683	90.19
560.895	78.19
561.107	83.19
561.32	95.19
561.532	87.19
561.744	94.19
561.956	86.19
562.168	94.19
562.381	92.19
562.593	90.19
562.805	86.19
563.017	90.19
563.229	80.19
563.441	101.19
563.653	91.19
563.865	77.19
564.077	75.19
564.289	83.19
564.501	94.19
564.713	111.19
564.925	97.19
565.137	97.19
565.349	84.19
565.561	96.19
565.773	94.19
565.985	87.19
566.197	90.19
566.408	92.19
566.62	91.19
566.832	95.19
567.044	71.19
567.255	86.19
567.467	92.19
567.679	77.19
567.891	87.19
568.102	81.19
568.314	89.19
568.526	91.19
568.737	79.19
568.949	81.19
569.161	86.19
569.372	73.19
569.584	78.19
569.795	108.19
570.007	108.19
570.218	218.19
570.43	126.19
570.641	93.19
570.853	89.19
571.064	101.19
571.276	98.19
571.487	81.19
571.698	88.19
571.91	71.19
572.121	87.19
572.333	86.19
572.544	89.19
572.755	109.19
572.966	103.19
573.178	76.19
573.389	85.19
573.6	88.19
573.811	93.19
574.023	82.19
574.234	85.19
574.445	87.19
574.656	80.19
574.867	83.19
575.078	87.19
575.289	89.19
575.501	97.19
575.712	79.19
575.923	93.19
576.134	89.19
576.345	87.19
576.556	90.19
576.767	69.19
576.978	88.19
577.188	87.19
577.399	96.19
577.61	91.19
577.821	110.19
578.032	108.19
578.243	238.19
578.454	661.19
578.665	196.19
578.875	104.19
579.086	98.19
579.297	92.19
579.508	86.19
579.718	70.19
579.929	75.19
580.14	88.19
580.35	83.19
580.561	91.19
580.772	93.19
580.982	72.19
581.193	92.19
581.403	76.19
581.614	79.19
581.825	78.19
582.035	87.19
582.246	81.19
582.456	78.19
582.667	91.19
582.877	71.19
583.087	83.19
583.298	95.19
583.508	66.19
583.719	87.19
583.929	88.19
584.139	83.19
584.35	90.19
584.56	92.19
584.77	82.19
584.981	84.19
585.191	82.19
585.401	90.19
585.611	82.19
585.821	75.19
586.032	81.19
586.242	78.19
586.452	90.19
586.662	76.19
586.872	90.19
587.082	90.19
587.292	71.19
587.502	72.19
587.713	85.19
587.923	86.19
588.133	92.19
588.343	80.19
588.553	76.19
588.762	75.19
588.972	88.19
589.182	113.19
589.392	93.19
589.602	98.19
589.812	90.19
590.022	94.19
590.232	96.19
590.441	84.19
590.651	91.19
590.861	81.19
591.071	81.19
591.281	98.19
591.49	82.19
591.7	87.19
591.91	85.19
592.119	94.19
592.329	87.19
592.539	90.19
592.748	88.19
592.958	89.19
593.167	73.19
593.377	73.19
593.587	80.19
593.796	88.19
594.006	93.19
594.215	90.19
594.424	77.19
594.634	93.19
594.843	92.19
595.053	79.19
595.262	72.19
595.472	74.19
595.681	86.19
595.89	87.19
596.1	75.19
596.309	84.19
596.518	88.19
596.727	85.19
596.937	90.19
597.146	87.19
597.355	92.19
597.564	86.19
597.774	80.19
597.983	91.19
598.192	91.19
598.401	90.19
598.61	97.19
598.819	86.19
599.028	96.19
599.237	80.19
599.446	85.19
599.655	87.19
599.864	80.19
600.073	84.19
600.282	79.19
600.491	73.19
600.7	92.19
600.909	86.19
601.118	87.19
601.327	95.19
601.536	71.19
601.745	85.19
601.953	79.19
602.162	87.19
602.371	97.19
602.58	88.19
602.789	92.19
602.997	72.19
603.206	84.19
603.415	97.19
603.623	93.19
603.832	76.19
604.041	76.19
604.249	88.19
604.458	93.19
604.666	107.19
604.875	83.19
605.084	76.19
605.292	85.19
605.501	81.19
605.709	74.19
605.918	88.19
606.126	82.19
606.334	82.19
606.543	79.19
606.751	85.19
606.96	72.19
607.168	87.19
607.376	89.19
607.585	83.19
607.793	84.19
608.001	94.19
608.21	94.19
608.418	80.19
608.626	86.19
608.834	84.19
609.043	85.19
609.251	82.19
609.459	91.19
609.667	79.19
609.875	79.19
610.083	77.19
610.291	79.19
610.499	70.19
610.707	74.19
610.916	84.19
611.124	81.19
611.332	77.19
611.54	80.19
611.748	77.19
611.955	74.19
612.163	80.19
612.371	90.19
612.579	81.19
612.787	84.19
612.995	100.19
613.203	77.19
613.411	82.19
613.618	87.19
613.826	80.19
614.034	76.19
614.242	71.19
614.449	75.19
614.657	86.19
614.865	74.19
615.072	86.19
615.28	91.19
615.488	85.19
615.695	87.19
615.903	85.19
616.111	85.19
616.318	91.19
616.526	86.19
616.733	85.19
616.941	83.19
617.148	88.19
617.356	82.19
617.563	87.19
617.771	72.19
617.978	99.19
618.185	77.19
618.393	81.19
618.6	77.19
618.807	83.19
619.015	77.19
619.222	83.19
619.429	74.19
619.637	85.19
619.844	90.19
620.051	85.19
620.258	84.19
620.466	73.19
620.673	87.19
620.88	82.19
621.087	72.19
621.294	87.19
621.501	83.19
621.708	84.19
621.915	84.19
622.122	91.19
622.329	90.19
622.536	87.19
622.743	98.19
622.95	70.19
623.157	78.19
623.364	87.19
623.571	76.19
623.778	70.19
623.985	77.19
624.192	87.19
624.399	78.19
624.606	79.19
624.812	84.19
625.019	88.19
625.226	84.19
625.433	85.19
625.639	88.19
625.846	81.19
626.053	82.19
626.259	94.19
626.466	71.19
626.673	82.19
626.879	82.19
627.086	78.19
627.293	80.19
627.499	88.19
627.706	90.19
627.912	90.19
628.119	80.19
628.325	75.19
628.532	78.19
628.738	93.19
628.945	93.19
629.151	85.19
629.357	88.19
629.564	80.19
629.77	87.19
629.976	84.19
630.183	95.19
630.389	76.19
630.595	80.19
630.802	71.19
631.008	76.19
631.214	71.19
631.42	75.19
631.627	92.19
631.833	93.19
632.039	74.19
632.245	75.19
632.451	93.19
632.657	86.19
632.863	76.19
633.069	85.19
633.275	85.19
633.481	81.19
633.688	87.19
633.893	92.19
634.099	94.19
634.305	86.19
634.511	83.19
634.717	81.19
634.923	80.19
635.129	83.19
635.335	85.19
635.541	90.19
635.747	94.19
635.952	83.19
636.158	92.19
636.364	102.19
636.57	87.19
636.775	79.19
636.981	82.19
637.187	87.19
637.392	83.19
637.598	64.19
637.804	86.19
638.009	86.19
638.215	77.19
638.421	94.19
638.626	83.19
638.832	81.19
639.037	76.19
639.243	86.19
639.448	80.19
639.654	82.19
639.859	80.19
640.065	85.19
640.27	94.19
640.475	85.19
640.681	66.19
640.886	87.19
641.091	82.19
641.297	99.19
641.502	92.19
641.707	88.19
641.913	84.19
642.118	97.19
642.323	90.19
642.528	86.19
642.733	77.19
642.939	75.19
643.144	82.19
643.349	78.19
643.554	92.19
643.759	86.19
643.964	82.19
644.169	87.19
644.374	83.19
644.579	68.19
644.784	84.19
644.989	78.19
645.194	85.19
645.399	87.19
645.604	80.19
645.809	84.19
646.014	90.19
646.219	83.19
646.423	94.19
646.628	98.19
646.833	93.19
647.038	83.19
647.243	65.19
647.447	78.19
647.652	79.19
647.857	72.19
648.062	84.19
648.266	83.19
648.471	87.19
648.676	84.19
648.88	80.19
649.085	85.19
649.289	86.19
649.494	89.19
649.698	133.19
649.903	88.19
650.107	92.19
650.312	99.19
650.516	87.19
650.721	84.19
650.925	75.19
651.13	81.19
651.334	76.19
651.539	84.19
651.743	79.19
651.947	83.19
652.152	88.19
652.356	90.19
652.56	83.19
652.764	94.19
652.969	78.19
653.173	76.19
653.377	78.19
653.581	98.19
653.785	80.19
653.99	66.19
654.194	92.19
654.398	93.19
654.602	69.19
654.806	80.19
655.01	107.19
655.214	92.19
655.418	91.19
655.622	80.19
655.826	87.19
656.03	88.19
656.234	106.19
656.438	94.19
656.642	96.19
656.846	81.19
657.049	70.19
657.253	87.19
657.457	87.19
657.661	88.19
657.865	88.19
658.068	74.19
658.272	98.19
658.476	63.19
658.68	86.19
658.883	63.19
659.087	80.19
659.291	92.19
659.494	75.19
659.698	76.19
659.901	69.19
660.105	82.19
660.309	78.19
660.512	76.19
660.716	82.19
660.919	72.19
661.123	74.19
661.326	72.19
661.53	85.19
661.733	88.19
661.936	86.19
662.14	88.19
662.343	78.19
662.546	79.19
662.75	87.19
662.953	86.19
663.156	78.19
663.36	80.19
663.563	65.19
663.766	81.19
663.969	91.19
664.173	88.19
664.376	86.19
664.579	80.19
664.782	95.19
664.985	89.19
665.188	82.19
665.391	88.19
665.594	91.19
665.797	80.19
666	82.19
666.203	80.19
666.406	63.19
666.609	83.19
666.812	90.19
667.015	77.19
667.218	94.19
667.421	80.19
667.624	72.19
667.827	72.19
668.03	87.19
668.232	62.19
668.435	86.19
668.638	70.19
668.841	88.19
669.043	83.19
669.246	79.19
669.449	81.19
669.651	76.19
669.854	72.19
670.057	83.19
670.259	81.19
670.462	59.19
670.665	82.19
670.867	80.19
671.07	75.19
671.272	85.19
671.475	93.19
671.677	77.19
671.88	82.19
672.082	64.19
672.284	85.19
672.487	90.19
672.689	70.19
672.892	73.19
