Data from Circ_2005_H10_HRD10591_00079.txt Node
Date: Wed Jan 03 10:30:06 EST 2024
User: Yrep
Spectrometer: HR+D1059
Trigger mode: 1
Integration Time (sec): 1.000000E-1
Scans to average: 1
Electric dark correction enabled: true
Nonlinearity correction enabled: false
Boxcar width: 0
XAxis mode: Wavelengths
Number of Pixels in Spectrum: 2048
>>>>>Begin Spectral Data<<<<<
223.165	-18.94
223.4	-18.94
223.635	-18.94
223.869	-16.94
224.104	-17.94
224.338	-18.94
224.573	-15.94
224.808	-11.94
225.042	-5.94
225.277	-9.94
225.511	-1.94
225.746	-0.94
225.98	9.06
226.215	14.06
226.449	19.06
226.683	14.06
226.918	23.06
227.152	40.06
227.387	27.06
227.621	42.06
227.856	22.06
228.09	41.06
228.324	42.06
228.559	59.06
228.793	51.06
229.027	65.06
229.262	76.06
229.496	58.06
229.73	74.06
229.964	83.06
230.199	79.06
230.433	61.06
230.667	74.06
230.901	76.06
231.136	82.06
231.37	75.06
231.604	92.06
231.838	78.06
232.072	71.06
232.306	89.06
232.541	71.06
232.775	81.06
233.009	84.06
233.243	85.06
233.477	87.06
233.711	60.06
233.945	74.06
234.179	79.06
234.413	64.06
234.647	74.06
234.881	73.06
235.115	78.06
235.349	67.06
235.583	81.06
235.817	79.06
236.051	73.06
236.285	82.06
236.519	71.06
236.753	84.06
236.987	53.06
237.221	79.06
237.455	88.06
237.689	69.06
237.922	85.06
238.156	75.06
238.39	66.06
238.624	74.06
238.858	75.06
239.091	78.06
239.325	75.06
239.559	80.06
239.793	69.06
240.027	75.06
240.26	73.06
240.494	74.06
240.728	60.06
240.961	61.06
241.195	78.06
241.429	82.06
241.662	73.06
241.896	76.06
242.13	83.06
242.363	77.06
242.597	64.06
242.83	76.06
243.064	78.06
243.298	84.06
243.531	90.06
243.765	73.06
243.998	78.06
244.232	70.06
244.465	87.06
244.699	76.06
244.932	84.06
245.166	76.06
245.399	67.06
245.633	82.06
245.866	62.06
246.099	80.06
246.333	71.06
246.566	68.06
246.8	61.06
247.033	73.06
247.266	63.06
247.5	65.06
247.733	75.06
247.966	73.06
248.2	88.06
248.433	86.06
248.666	77.06
248.899	77.06
249.133	90.06
249.366	91.06
249.599	92.06
249.832	97.06
250.066	75.06
250.299	66.06
250.532	78.06
250.765	76.06
250.998	75.06
251.231	76.06
251.465	83.06
251.698	75.06
251.931	72.06
252.164	71.06
252.397	63.06
252.63	79.06
252.863	79.06
253.096	84.06
253.329	75.06
253.562	82.06
253.795	68.06
254.028	83.06
254.261	73.06
254.494	66.06
254.727	84.06
254.96	68.06
255.193	78.06
255.426	80.06
255.659	67.06
255.892	68.06
256.124	81.06
256.357	89.06
256.59	72.06
256.823	68.06
257.056	72.06
257.289	61.06
257.521	87.06
257.754	72.06
257.987	64.06
258.22	84.06
258.452	75.06
258.685	65.06
258.918	87.06
259.151	69.06
259.383	88.06
259.616	71.06
259.849	70.06
260.081	76.06
260.314	82.06
260.547	81.06
260.779	79.06
261.012	91.06
261.244	80.06
261.477	90.06
261.71	89.06
261.942	95.06
262.175	116.06
262.407	78.06
262.64	74.06
262.872	79.06
263.105	82.06
263.337	84.06
263.57	73.06
263.802	83.06
264.035	74.06
264.267	75.06
264.499	73.06
264.732	77.06
264.964	69.06
265.197	66.06
265.429	91.06
265.661	81.06
265.894	67.06
266.126	79.06
266.358	80.06
266.591	69.06
266.823	83.06
267.055	78.06
267.287	72.06
267.52	72.06
267.752	92.06
267.984	79.06
268.216	88.06
268.448	94.06
268.681	78.06
268.913	83.06
269.145	86.06
269.377	92.06
269.609	85.06
269.841	76.06
270.073	83.06
270.306	69.06
270.538	76.06
270.77	88.06
271.002	85.06
271.234	74.06
271.466	76.06
271.698	85.06
271.93	80.06
272.162	89.06
272.394	78.06
272.626	78.06
272.858	78.06
273.09	79.06
273.322	82.06
273.553	84.06
273.785	91.06
274.017	81.06
274.249	90.06
274.481	91.06
274.713	81.06
274.945	65.06
275.176	70.06
275.408	91.06
275.64	85.06
275.872	90.06
276.104	77.06
276.335	85.06
276.567	110.06
276.799	107.06
277.031	95.06
277.262	91.06
277.494	93.06
277.726	83.06
277.957	83.06
278.189	80.06
278.421	90.06
278.652	88.06
278.884	81.06
279.115	85.06
279.347	85.06
279.579	81.06
279.81	73.06
280.042	85.06
280.273	92.06
280.505	74.06
280.736	66.06
280.968	82.06
281.199	68.06
281.431	86.06
281.662	75.06
281.894	86.06
282.125	99.06
282.356	112.06
282.588	128.06
282.819	107.06
283.051	82.06
283.282	77.06
283.513	92.06
283.745	85.06
283.976	78.06
284.207	81.06
284.439	85.06
284.67	92.06
284.901	96.06
285.132	80.06
285.364	85.06
285.595	90.06
285.826	77.06
286.057	79.06
286.288	72.06
286.52	83.06
286.751	85.06
286.982	84.06
287.213	88.06
287.444	76.06
287.675	85.06
287.906	80.06
288.138	79.06
288.369	80.06
288.6	90.06
288.831	90.06
289.062	80.06
289.293	78.06
289.524	95.06
289.755	76.06
289.986	83.06
290.217	84.06
290.448	88.06
290.679	75.06
290.91	73.06
291.141	86.06
291.371	98.06
291.602	85.06
291.833	78.06
292.064	74.06
292.295	90.06
292.526	90.06
292.757	99.06
292.987	85.06
293.218	73.06
293.449	69.06
293.68	72.06
293.91	89.06
294.141	89.06
294.372	92.06
294.603	82.06
294.833	99.06
295.064	81.06
295.295	94.06
295.525	83.06
295.756	92.06
295.987	100.06
296.217	113.06
296.448	112.06
296.679	92.06
296.909	83.06
297.14	97.06
297.37	94.06
297.601	92.06
297.831	63.06
298.062	74.06
298.292	85.06
298.523	76.06
298.753	81.06
298.984	88.06
299.214	72.06
299.445	88.06
299.675	82.06
299.905	99.06
300.136	82.06
300.366	65.06
300.597	85.06
300.827	94.06
301.057	95.06
301.288	95.06
301.518	76.06
301.748	79.06
301.979	97.06
302.209	86.06
302.439	86.06
302.669	77.06
302.9	91.06
303.13	89.06
303.36	89.06
303.59	99.06
303.82	97.06
304.051	93.06
304.281	94.06
304.511	88.06
304.741	61.06
304.971	96.06
305.201	83.06
305.431	76.06
305.661	83.06
305.891	76.06
306.121	91.06
306.352	104.06
306.582	105.06
306.812	100.06
307.042	76.06
307.272	86.06
307.502	97.06
307.731	110.06
307.961	100.06
308.191	85.06
308.421	80.06
308.651	76.06
308.881	84.06
309.111	91.06
309.341	84.06
309.571	97.06
309.8	85.06
310.03	97.06
310.26	98.06
310.49	91.06
310.72	84.06
310.949	86.06
311.179	100.06
311.409	88.06
311.639	79.06
311.868	88.06
312.098	90.06
312.328	91.06
312.557	82.06
312.787	98.06
313.017	82.06
313.246	97.06
313.476	84.06
313.706	72.06
313.935	99.06
314.165	86.06
314.394	85.06
314.624	86.06
314.853	93.06
315.083	83.06
315.312	79.06
315.542	104.06
315.771	79.06
316.001	84.06
316.23	88.06
316.46	100.06
316.689	80.06
316.919	99.06
317.148	99.06
317.377	84.06
317.607	93.06
317.836	82.06
318.065	94.06
318.295	90.06
318.524	87.06
318.753	82.06
318.983	91.06
319.212	94.06
319.441	100.06
319.67	114.06
319.9	93.06
320.129	99.06
320.358	102.06
320.587	108.06
320.816	100.06
321.046	107.06
321.275	99.06
321.504	97.06
321.733	96.06
321.962	96.06
322.191	89.06
322.42	93.06
322.649	99.06
322.878	106.06
323.108	102.06
323.337	124.06
323.566	138.06
323.795	134.06
324.024	192.06
324.253	353.06
324.482	766.06
324.71	1593.06
324.939	2031.06
325.168	755.06
325.397	237.06
325.626	146.06
325.855	118.06
326.084	124.06
326.313	124.06
326.542	157.06
326.77	237.06
326.999	435.06
327.228	866.06
327.457	1580.06
327.686	1298.06
327.914	360.06
328.143	190.06
328.372	156.06
328.6	122.06
328.829	101.06
329.058	108.06
329.287	118.06
329.515	108.06
329.744	98.06
329.972	111.06
330.201	163.06
330.43	192.06
330.658	137.06
330.887	139.06
331.115	107.06
331.344	86.06
331.572	109.06
331.801	104.06
332.03	104.06
332.258	99.06
332.486	77.06
332.715	87.06
332.943	99.06
333.172	95.06
333.4	108.06
333.629	101.06
333.857	105.06
334.085	142.06
334.314	164.06
334.542	241.06
334.771	231.06
334.999	105.06
335.227	94.06
335.455	91.06
335.684	99.06
335.912	104.06
336.14	98.06
336.369	104.06
336.597	97.06
336.825	88.06
337.053	97.06
337.281	94.06
337.51	92.06
337.738	92.06
337.966	91.06
338.194	75.06
338.422	79.06
338.65	80.06
338.878	73.06
339.106	73.06
339.334	93.06
339.562	90.06
339.79	83.06
340.018	93.06
340.246	88.06
340.474	92.06
340.702	84.06
340.93	85.06
341.158	87.06
341.386	99.06
341.614	89.06
341.842	100.06
342.07	84.06
342.298	76.06
342.526	62.06
342.754	82.06
342.981	78.06
343.209	104.06
343.437	96.06
343.665	93.06
343.893	75.06
344.12	104.06
344.348	101.06
344.576	89.06
344.804	85.06
345.031	98.06
345.259	99.06
345.487	96.06
345.714	106.06
345.942	98.06
346.17	92.06
346.397	81.06
346.625	79.06
346.853	91.06
347.08	88.06
347.308	83.06
347.535	92.06
347.763	81.06
347.99	91.06
348.218	91.06
348.445	82.06
348.673	102.06
348.9	90.06
349.128	87.06
349.355	78.06
349.583	81.06
349.81	80.06
350.037	84.06
350.265	91.06
350.492	86.06
350.72	84.06
350.947	88.06
351.174	107.06
351.402	103.06
351.629	112.06
351.856	104.06
352.083	108.06
352.311	103.06
352.538	101.06
352.765	99.06
352.992	111.06
353.22	112.06
353.447	92.06
353.674	89.06
353.901	97.06
354.128	93.06
354.355	87.06
354.583	91.06
354.81	113.06
355.037	86.06
355.264	88.06
355.491	83.06
355.718	87.06
355.945	90.06
356.172	86.06
356.399	72.06
356.626	90.06
356.853	87.06
357.08	87.06
357.307	98.06
357.534	85.06
357.761	86.06
357.988	88.06
358.215	111.06
358.441	94.06
358.668	77.06
358.895	100.06
359.122	78.06
359.349	104.06
359.576	95.06
359.802	101.06
360.029	106.06
360.256	96.06
360.483	96.06
360.709	78.06
360.936	85.06
361.163	83.06
361.39	97.06
361.616	93.06
361.843	87.06
362.07	79.06
362.296	99.06
362.523	91.06
362.749	85.06
362.976	92.06
363.203	80.06
363.429	92.06
363.656	92.06
363.882	86.06
364.109	105.06
364.335	97.06
364.562	87.06
364.788	104.06
365.015	105.06
365.241	100.06
365.468	99.06
365.694	96.06
365.92	76.06
366.147	90.06
366.373	92.06
366.599	90.06
366.826	88.06
367.052	67.06
367.278	86.06
367.505	86.06
367.731	95.06
367.957	97.06
368.184	78.06
368.41	98.06
368.636	109.06
368.862	111.06
369.089	96.06
369.315	90.06
369.541	89.06
369.767	86.06
369.993	92.06
370.219	85.06
370.445	68.06
370.672	83.06
370.898	92.06
371.124	84.06
371.35	81.06
371.576	75.06
371.802	92.06
372.028	78.06
372.254	84.06
372.48	89.06
372.706	91.06
372.932	82.06
373.158	88.06
373.384	91.06
373.61	88.06
373.835	82.06
374.061	90.06
374.287	97.06
374.513	85.06
374.739	98.06
374.965	86.06
375.191	85.06
375.416	77.06
375.642	89.06
375.868	76.06
376.094	86.06
376.319	93.06
376.545	72.06
376.771	78.06
376.997	81.06
377.222	98.06
377.448	100.06
377.674	87.06
377.899	92.06
378.125	90.06
378.35	94.06
378.576	80.06
378.802	86.06
379.027	82.06
379.253	81.06
379.478	100.06
379.704	84.06
379.929	83.06
380.155	104.06
380.38	93.06
380.606	90.06
380.831	86.06
381.057	96.06
381.282	103.06
381.507	86.06
381.733	97.06
381.958	85.06
382.184	99.06
382.409	93.06
382.634	95.06
382.86	83.06
383.085	90.06
383.31	94.06
383.535	92.06
383.761	91.06
383.986	100.06
384.211	95.06
384.436	84.06
384.662	112.06
384.887	94.06
385.112	88.06
385.337	82.06
385.562	90.06
385.787	92.06
386.013	89.06
386.238	96.06
386.463	95.06
386.688	98.06
386.913	101.06
387.138	110.06
387.363	104.06
387.588	102.06
387.813	98.06
388.038	104.06
388.263	98.06
388.488	100.06
388.713	96.06
388.938	100.06
389.163	94.06
389.387	90.06
389.612	93.06
389.837	87.06
390.062	91.06
390.287	85.06
390.512	73.06
390.736	93.06
390.961	83.06
391.186	101.06
391.411	99.06
391.636	101.06
391.86	104.06
392.085	89.06
392.31	80.06
392.534	84.06
392.759	72.06
392.984	101.06
393.208	77.06
393.433	88.06
393.658	91.06
393.882	97.06
394.107	80.06
394.331	63.06
394.556	71.06
394.78	87.06
395.005	85.06
395.229	87.06
395.454	81.06
395.678	76.06
395.903	86.06
396.127	81.06
396.352	74.06
396.576	79.06
396.801	90.06
397.025	76.06
397.249	77.06
397.474	101.06
397.698	86.06
397.922	87.06
398.147	88.06
398.371	95.06
398.595	92.06
398.82	72.06
399.044	89.06
399.268	69.06
399.492	87.06
399.717	93.06
399.941	67.06
400.165	85.06
400.389	75.06
400.613	85.06
400.837	88.06
401.062	72.06
401.286	81.06
401.51	82.06
401.734	83.06
401.958	101.06
402.182	128.06
402.406	148.06
402.63	129.06
402.854	94.06
403.078	86.06
403.302	82.06
403.526	85.06
403.75	90.06
403.974	90.06
404.198	76.06
404.422	65.06
404.645	95.06
404.869	82.06
405.093	89.06
405.317	94.06
405.541	89.06
405.765	99.06
405.988	104.06
406.212	164.06
406.436	214.06
406.66	140.06
406.883	92.06
407.107	77.06
407.331	92.06
407.555	109.06
407.778	104.06
408.002	91.06
408.226	80.06
408.449	87.06
408.673	88.06
408.896	93.06
409.12	83.06
409.344	80.06
409.567	88.06
409.791	91.06
410.014	89.06
410.238	95.06
410.461	84.06
410.685	96.06
410.908	99.06
411.132	94.06
411.355	106.06
411.578	86.06
411.802	73.06
412.025	84.06
412.249	91.06
412.472	78.06
412.695	78.06
412.919	83.06
413.142	82.06
413.365	76.06
413.589	97.06
413.812	93.06
414.035	91.06
414.258	89.06
414.482	93.06
414.705	90.06
414.928	89.06
415.151	91.06
415.374	100.06
415.597	78.06
415.821	85.06
416.044	93.06
416.267	89.06
416.49	82.06
416.713	96.06
416.936	92.06
417.159	76.06
417.382	80.06
417.605	100.06
417.828	86.06
418.051	85.06
418.274	94.06
418.497	85.06
418.72	84.06
418.943	92.06
419.166	81.06
419.389	94.06
419.611	85.06
419.834	94.06
420.057	73.06
420.28	79.06
420.503	80.06
420.726	92.06
420.948	99.06
421.171	91.06
421.394	102.06
421.617	85.06
421.839	71.06
422.062	91.06
422.285	85.06
422.507	87.06
422.73	97.06
422.953	76.06
423.175	87.06
423.398	84.06
423.621	105.06
423.843	91.06
424.066	89.06
424.288	100.06
424.511	85.06
424.733	103.06
424.956	109.06
425.178	94.06
425.401	91.06
425.623	93.06
425.846	87.06
426.068	95.06
426.291	86.06
426.513	71.06
426.735	95.06
426.958	96.06
427.18	104.06
427.402	126.06
427.625	146.06
427.847	122.06
428.069	122.06
428.292	82.06
428.514	84.06
428.736	83.06
428.958	92.06
429.181	98.06
429.403	84.06
429.625	76.06
429.847	95.06
430.069	83.06
430.292	93.06
430.514	80.06
430.736	79.06
430.958	84.06
431.18	79.06
431.402	83.06
431.624	80.06
431.846	84.06
432.068	75.06
432.29	90.06
432.512	85.06
432.734	95.06
432.956	92.06
433.178	90.06
433.4	90.06
433.622	92.06
433.844	92.06
434.066	73.06
434.287	78.06
434.509	73.06
434.731	82.06
434.953	86.06
435.175	96.06
435.397	86.06
435.618	92.06
435.84	74.06
436.062	108.06
436.284	100.06
436.505	95.06
436.727	93.06
436.949	81.06
437.17	83.06
437.392	76.06
437.614	97.06
437.835	103.06
438.057	110.06
438.278	86.06
438.5	109.06
438.721	124.06
438.943	97.06
439.165	82.06
439.386	68.06
439.608	99.06
439.829	104.06
440.05	109.06
440.272	114.06
440.493	95.06
440.715	92.06
440.936	82.06
441.158	82.06
441.379	78.06
441.6	87.06
441.822	86.06
442.043	85.06
442.264	85.06
442.486	82.06
442.707	80.06
442.928	99.06
443.149	123.06
443.371	125.06
443.592	98.06
443.813	85.06
444.034	101.06
444.255	84.06
444.476	83.06
444.698	86.06
444.919	83.06
445.14	134.06
445.361	109.06
445.582	87.06
445.803	124.06
446.024	128.06
446.245	131.06
446.466	98.06
446.687	82.06
446.908	84.06
447.129	77.06
447.35	85.06
447.571	108.06
447.792	86.06
448.013	98.06
448.234	111.06
448.455	103.06
448.675	89.06
448.896	109.06
449.117	85.06
449.338	97.06
449.559	124.06
449.779	108.06
450	100.06
450.221	96.06
450.442	85.06
450.662	85.06
450.883	97.06
451.104	90.06
451.324	87.06
451.545	68.06
451.766	72.06
451.986	72.06
452.207	99.06
452.428	83.06
452.648	96.06
452.869	109.06
453.089	101.06
453.31	107.06
453.53	76.06
453.751	78.06
453.971	110.06
454.192	92.06
454.412	87.06
454.633	95.06
454.853	76.06
455.073	73.06
455.294	97.06
455.514	98.06
455.734	91.06
455.955	76.06
456.175	85.06
456.395	91.06
456.616	90.06
456.836	80.06
457.056	92.06
457.276	85.06
457.497	75.06
457.717	83.06
457.937	89.06
458.157	92.06
458.377	90.06
458.598	113.06
458.818	122.06
459.038	135.06
459.258	110.06
459.478	77.06
459.698	85.06
459.918	85.06
460.138	83.06
460.358	76.06
460.578	75.06
460.798	88.06
461.018	79.06
461.238	98.06
461.458	87.06
461.678	78.06
461.898	82.06
462.118	58.06
462.338	86.06
462.558	78.06
462.777	95.06
462.997	91.06
463.217	83.06
463.437	81.06
463.657	80.06
463.876	97.06
464.096	90.06
464.316	91.06
464.536	81.06
464.755	84.06
464.975	98.06
465.195	149.06
465.414	150.06
465.634	87.06
465.854	80.06
466.073	84.06
466.293	100.06
466.512	94.06
466.732	76.06
466.951	88.06
467.171	103.06
467.391	90.06
467.61	88.06
467.829	99.06
468.049	121.06
468.268	155.06
468.488	102.06
468.707	85.06
468.927	88.06
469.146	91.06
469.365	85.06
469.585	89.06
469.804	89.06
470.023	89.06
470.243	92.06
470.462	99.06
470.681	101.06
470.901	90.06
471.12	97.06
471.339	92.06
471.558	83.06
471.777	90.06
471.997	106.06
472.216	170.06
472.435	294.06
472.654	127.06
472.873	84.06
473.092	94.06
473.311	84.06
473.53	92.06
473.749	82.06
473.968	82.06
474.187	97.06
474.406	77.06
474.625	75.06
474.844	96.06
475.063	86.06
475.282	85.06
475.501	80.06
475.72	88.06
475.939	88.06
476.158	81.06
476.377	85.06
476.596	81.06
476.814	98.06
477.033	91.06
477.252	89.06
477.471	92.06
477.69	81.06
477.908	80.06
478.127	87.06
478.346	100.06
478.564	89.06
478.783	91.06
479.002	95.06
479.22	86.06
479.439	102.06
479.658	106.06
479.876	96.06
480.095	93.06
480.313	90.06
480.532	79.06
480.751	99.06
480.969	180.06
481.188	480.06
481.406	323.06
481.624	112.06
481.843	82.06
482.061	76.06
482.28	90.06
482.498	98.06
482.717	91.06
482.935	100.06
483.153	98.06
483.372	88.06
483.59	77.06
483.808	79.06
484.027	79.06
484.245	95.06
484.463	87.06
484.681	93.06
484.9	83.06
485.118	93.06
485.336	91.06
485.554	91.06
485.772	97.06
485.99	86.06
486.209	95.06
486.427	108.06
486.645	102.06
486.863	110.06
487.081	93.06
487.299	96.06
487.517	88.06
487.735	77.06
487.953	80.06
488.171	93.06
488.389	77.06
488.607	88.06
488.825	94.06
489.043	81.06
489.261	80.06
489.479	89.06
489.696	88.06
489.914	89.06
490.132	95.06
490.35	108.06
490.568	83.06
490.786	90.06
491.003	82.06
491.221	81.06
491.439	92.06
491.657	93.06
491.874	92.06
492.092	107.06
492.31	79.06
492.527	82.06
492.745	90.06
492.963	82.06
493.18	90.06
493.398	81.06
493.615	85.06
493.833	80.06
494.05	82.06
494.268	89.06
494.485	74.06
494.703	75.06
494.92	97.06
495.138	81.06
495.355	89.06
495.573	83.06
495.79	93.06
496.008	86.06
496.225	89.06
496.442	96.06
496.66	83.06
496.877	88.06
497.094	84.06
497.312	86.06
497.529	90.06
497.746	85.06
497.963	85.06
498.181	90.06
498.398	99.06
498.615	90.06
498.832	98.06
499.049	84.06
499.267	92.06
499.484	91.06
499.701	92.06
499.918	97.06
500.135	88.06
500.352	87.06
500.569	75.06
500.786	81.06
501.003	89.06
501.22	70.06
501.437	92.06
501.654	109.06
501.871	93.06
502.088	98.06
502.305	94.06
502.522	89.06
502.739	85.06
502.956	78.06
503.172	82.06
503.389	91.06
503.606	101.06
503.823	80.06
504.04	77.06
504.256	81.06
504.473	93.06
504.69	85.06
504.907	85.06
505.123	72.06
505.34	104.06
505.557	93.06
505.773	76.06
505.99	90.06
506.207	91.06
506.423	93.06
506.64	84.06
506.856	98.06
507.073	85.06
507.289	96.06
507.506	90.06
507.722	107.06
507.939	101.06
508.155	98.06
508.372	95.06
508.588	88.06
508.805	86.06
509.021	105.06
509.238	98.06
509.454	96.06
509.67	102.06
509.887	102.06
510.103	126.06
510.319	205.06
510.536	709.06
510.752	2285.06
510.968	613.06
511.184	136.06
511.401	99.06
511.617	97.06
511.833	91.06
512.049	97.06
512.265	83.06
512.481	91.06
512.698	85.06
512.914	101.06
513.13	90.06
513.346	94.06
513.562	83.06
513.778	88.06
513.994	89.06
514.21	101.06
514.426	104.06
514.642	123.06
514.858	124.06
515.074	140.06
515.29	382.06
515.506	1357.06
515.721	513.06
515.937	154.06
516.153	100.06
516.369	97.06
516.585	101.06
516.801	110.06
517.016	92.06
517.232	80.06
517.448	85.06
517.664	74.06
517.879	96.06
518.095	93.06
518.311	106.06
518.527	88.06
518.742	89.06
518.958	90.06
519.173	95.06
519.389	76.06
519.605	84.06
519.82	113.06
520.036	99.06
520.251	115.06
520.467	99.06
520.682	94.06
520.898	96.06
521.113	109.06
521.329	131.06
521.544	208.06
521.76	495.06
521.975	2175.06
522.19	1350.06
522.406	296.06
522.621	124.06
522.836	104.06
523.052	80.06
523.267	91.06
523.482	85.06
523.698	93.06
523.913	101.06
524.128	111.06
524.343	77.06
524.559	94.06
524.774	91.06
524.989	97.06
525.204	106.06
525.419	105.06
525.634	92.06
525.849	92.06
526.064	89.06
526.28	94.06
526.495	76.06
526.71	92.06
526.925	77.06
527.14	73.06
527.355	77.06
527.57	89.06
527.785	86.06
527.999	79.06
528.214	88.06
528.429	78.06
528.644	98.06
528.859	80.06
529.074	93.06
529.289	113.06
529.503	149.06
529.718	93.06
529.933	96.06
530.148	78.06
530.363	83.06
530.577	91.06
530.792	85.06
531.007	86.06
531.221	89.06
531.436	108.06
531.651	90.06
531.865	88.06
532.08	76.06
532.295	80.06
532.509	79.06
532.724	95.06
532.938	88.06
533.153	101.06
533.367	102.06
533.582	90.06
533.796	81.06
534.011	102.06
534.225	89.06
534.44	94.06
534.654	90.06
534.868	86.06
535.083	83.06
535.297	94.06
535.511	90.06
535.726	95.06
535.94	88.06
536.154	97.06
536.369	105.06
536.583	85.06
536.797	105.06
537.011	86.06
537.225	83.06
537.44	84.06
537.654	81.06
537.868	96.06
538.082	71.06
538.296	84.06
538.51	89.06
538.724	84.06
538.938	82.06
539.153	99.06
539.367	90.06
539.581	88.06
539.795	87.06
540.009	90.06
540.222	91.06
540.436	101.06
540.65	75.06
540.864	95.06
541.078	91.06
541.292	87.06
541.506	76.06
541.72	81.06
541.934	83.06
542.147	84.06
542.361	65.06
542.575	78.06
542.789	93.06
543.002	84.06
543.216	77.06
543.43	104.06
543.644	76.06
543.857	89.06
544.071	83.06
544.285	85.06
544.498	92.06
544.712	84.06
544.925	82.06
545.139	83.06
545.352	72.06
545.566	88.06
545.779	86.06
545.993	91.06
546.206	94.06
546.42	84.06
546.633	90.06
546.847	92.06
547.06	79.06
547.274	86.06
547.487	98.06
547.7	82.06
547.914	89.06
548.127	87.06
548.34	91.06
548.554	85.06
548.767	100.06
548.98	92.06
549.193	82.06
549.407	90.06
549.62	80.06
549.833	82.06
550.046	78.06
550.259	99.06
550.473	81.06
550.686	79.06
550.899	80.06
551.112	85.06
551.325	84.06
551.538	84.06
551.751	89.06
551.964	89.06
552.177	89.06
552.39	74.06
552.603	81.06
552.816	78.06
553.029	90.06
553.242	86.06
553.455	86.06
553.667	107.06
553.88	98.06
554.093	78.06
554.306	97.06
554.519	100.06
554.732	82.06
554.944	88.06
555.157	84.06
555.37	91.06
555.583	91.06
555.795	96.06
556.008	81.06
556.221	92.06
556.433	79.06
556.646	85.06
556.859	98.06
557.071	90.06
557.284	107.06
557.496	96.06
557.709	89.06
557.921	84.06
558.134	92.06
558.346	81.06
558.559	99.06
558.771	78.06
558.984	92.06
559.196	93.06
559.409	86.06
559.621	92.06
559.833	68.06
560.046	78.06
560.258	89.06
560.47	87.06
560.683	93.06
560.895	99.06
561.107	80.06
561.32	85.06
561.532	84.06
561.744	75.06
561.956	110.06
562.168	82.06
562.381	82.06
562.593	73.06
562.805	88.06
563.017	94.06
563.229	87.06
563.441	93.06
563.653	74.06
563.865	90.06
564.077	86.06
564.289	80.06
564.501	87.06
564.713	85.06
564.925	87.06
565.137	92.06
565.349	82.06
565.561	90.06
565.773	80.06
565.985	92.06
566.197	84.06
566.408	90.06
566.62	82.06
566.832	69.06
567.044	79.06
567.255	92.06
567.467	80.06
567.679	94.06
567.891	88.06
568.102	81.06
568.314	77.06
568.526	82.06
568.737	68.06
568.949	75.06
569.161	81.06
569.372	85.06
569.584	83.06
569.795	92.06
570.007	119.06
570.218	235.06
570.43	123.06
570.641	90.06
570.853	79.06
571.064	80.06
571.276	82.06
571.487	88.06
571.698	77.06
571.91	92.06
572.121	78.06
572.333	91.06
572.544	83.06
572.755	74.06
572.966	92.06
573.178	82.06
573.389	96.06
573.6	89.06
573.811	85.06
574.023	85.06
574.234	94.06
574.445	80.06
574.656	80.06
574.867	92.06
575.078	100.06
575.289	96.06
575.501	85.06
575.712	73.06
575.923	92.06
576.134	81.06
576.345	75.06
576.556	87.06
576.767	94.06
576.978	90.06
577.188	82.06
577.399	92.06
577.61	91.06
577.821	93.06
578.032	126.06
578.243	253.06
578.454	716.06
578.665	196.06
578.875	86.06
579.086	91.06
579.297	72.06
579.508	88.06
579.718	83.06
579.929	84.06
580.14	84.06
580.35	88.06
580.561	101.06
580.772	87.06
580.982	90.06
581.193	96.06
581.403	89.06
581.614	84.06
581.825	75.06
582.035	84.06
582.246	98.06
582.456	71.06
582.667	79.06
582.877	84.06
583.087	95.06
583.298	76.06
583.508	83.06
583.719	89.06
583.929	89.06
584.139	85.06
584.35	91.06
584.56	78.06
584.77	86.06
584.981	78.06
585.191	81.06
585.401	84.06
585.611	68.06
585.821	79.06
586.032	107.06
586.242	100.06
586.452	84.06
586.662	97.06
586.872	83.06
587.082	66.06
587.292	88.06
587.502	78.06
587.713	74.06
587.923	74.06
588.133	67.06
588.343	85.06
588.553	99.06
588.762	81.06
588.972	91.06
589.182	85.06
589.392	95.06
589.602	80.06
589.812	101.06
590.022	77.06
590.232	96.06
590.441	93.06
590.651	96.06
590.861	69.06
591.071	77.06
591.281	78.06
591.49	80.06
591.7	73.06
591.91	91.06
592.119	86.06
592.329	96.06
592.539	91.06
592.748	98.06
592.958	95.06
593.167	91.06
593.377	82.06
593.587	89.06
593.796	92.06
594.006	86.06
594.215	81.06
594.424	77.06
594.634	72.06
594.843	64.06
595.053	67.06
595.262	84.06
595.472	83.06
595.681	84.06
595.89	85.06
596.1	87.06
596.309	85.06
596.518	83.06
596.727	82.06
596.937	76.06
597.146	75.06
597.355	81.06
597.564	72.06
597.774	83.06
597.983	74.06
598.192	94.06
598.401	76.06
598.61	61.06
598.819	74.06
599.028	98.06
599.237	100.06
599.446	87.06
599.655	82.06
599.864	75.06
600.073	64.06
600.282	90.06
600.491	79.06
600.7	73.06
600.909	84.06
601.118	84.06
601.327	96.06
601.536	96.06
601.745	97.06
601.953	88.06
602.162	80.06
602.371	79.06
602.58	90.06
602.789	94.06
602.997	78.06
603.206	81.06
603.415	77.06
603.623	83.06
603.832	87.06
604.041	78.06
604.249	83.06
604.458	76.06
604.666	99.06
604.875	81.06
605.084	73.06
605.292	81.06
605.501	75.06
605.709	89.06
605.918	83.06
606.126	91.06
606.334	74.06
606.543	79.06
606.751	89.06
606.96	74.06
607.168	91.06
607.376	72.06
607.585	86.06
607.793	82.06
608.001	89.06
608.21	68.06
608.418	90.06
608.626	81.06
608.834	83.06
609.043	77.06
609.251	82.06
609.459	93.06
609.667	90.06
609.875	78.06
610.083	80.06
610.291	83.06
610.499	80.06
610.707	84.06
610.916	78.06
611.124	85.06
611.332	79.06
611.54	86.06
611.748	88.06
611.955	85.06
612.163	81.06
612.371	70.06
612.579	68.06
612.787	75.06
612.995	82.06
613.203	81.06
613.411	91.06
613.618	84.06
613.826	67.06
614.034	78.06
614.242	72.06
614.449	73.06
614.657	87.06
614.865	90.06
615.072	82.06
615.28	88.06
615.488	77.06
615.695	77.06
615.903	98.06
616.111	104.06
616.318	89.06
616.526	71.06
616.733	81.06
616.941	92.06
617.148	82.06
617.356	95.06
617.563	85.06
617.771	78.06
617.978	98.06
618.185	65.06
618.393	78.06
618.6	89.06
618.807	77.06
619.015	78.06
619.222	91.06
619.429	79.06
619.637	77.06
619.844	77.06
620.051	77.06
620.258	78.06
620.466	68.06
620.673	91.06
620.88	80.06
621.087	93.06
621.294	81.06
621.501	81.06
621.708	80.06
621.915	74.06
622.122	88.06
622.329	81.06
622.536	83.06
622.743	85.06
622.95	81.06
623.157	89.06
623.364	89.06
623.571	77.06
623.778	89.06
623.985	69.06
624.192	88.06
624.399	70.06
624.606	81.06
624.812	77.06
625.019	97.06
625.226	86.06
625.433	81.06
625.639	78.06
625.846	86.06
626.053	94.06
626.259	90.06
626.466	83.06
626.673	78.06
626.879	83.06
627.086	93.06
627.293	70.06
627.499	76.06
627.706	69.06
627.912	86.06
628.119	87.06
628.325	81.06
628.532	62.06
628.738	82.06
628.945	69.06
629.151	80.06
629.357	83.06
629.564	88.06
629.77	74.06
629.976	100.06
630.183	80.06
630.389	75.06
630.595	83.06
630.802	69.06
631.008	82.06
631.214	88.06
631.42	75.06
631.627	93.06
631.833	89.06
632.039	75.06
632.245	75.06
632.451	70.06
632.657	69.06
632.863	81.06
633.069	69.06
633.275	73.06
633.481	78.06
633.688	81.06
633.893	88.06
634.099	80.06
634.305	81.06
634.511	76.06
634.717	79.06
634.923	76.06
635.129	86.06
635.335	72.06
635.541	79.06
635.747	83.06
635.952	73.06
636.158	87.06
636.364	96.06
636.57	105.06
636.775	91.06
636.981	69.06
637.187	84.06
637.392	83.06
637.598	93.06
637.804	94.06
638.009	74.06
638.215	75.06
638.421	104.06
638.626	84.06
638.832	89.06
639.037	69.06
639.243	81.06
639.448	85.06
639.654	81.06
639.859	66.06
640.065	80.06
640.27	94.06
640.475	81.06
640.681	90.06
640.886	95.06
641.091	77.06
641.297	87.06
641.502	74.06
641.707	102.06
641.913	91.06
642.118	76.06
642.323	79.06
642.528	87.06
642.733	88.06
642.939	77.06
643.144	84.06
643.349	75.06
643.554	77.06
643.759	83.06
643.964	71.06
644.169	72.06
644.374	91.06
644.579	77.06
644.784	74.06
644.989	76.06
645.194	71.06
645.399	81.06
645.604	76.06
645.809	81.06
646.014	81.06
646.219	79.06
646.423	82.06
646.628	75.06
646.833	87.06
647.038	82.06
647.243	95.06
647.447	86.06
647.652	83.06
647.857	81.06
648.062	86.06
648.266	85.06
648.471	90.06
648.676	99.06
648.88	94.06
649.085	100.06
649.289	86.06
649.494	85.06
649.698	132.06
649.903	99.06
650.107	101.06
650.312	85.06
650.516	78.06
650.721	80.06
650.925	73.06
651.13	84.06
651.334	84.06
651.539	85.06
651.743	63.06
651.947	79.06
652.152	85.06
652.356	86.06
652.56	77.06
652.764	85.06
652.969	78.06
653.173	72.06
653.377	88.06
653.581	78.06
653.785	73.06
653.99	68.06
654.194	85.06
654.398	92.06
654.602	86.06
654.806	96.06
655.01	109.06
655.214	87.06
655.418	72.06
655.622	81.06
655.826	82.06
656.03	90.06
656.234	73.06
656.438	88.06
656.642	89.06
656.846	83.06
657.049	80.06
657.253	92.06
657.457	91.06
657.661	79.06
657.865	66.06
658.068	69.06
658.272	96.06
658.476	84.06
658.68	83.06
658.883	75.06
659.087	74.06
659.291	79.06
659.494	69.06
659.698	67.06
659.901	78.06
660.105	85.06
660.309	83.06
660.512	91.06
660.716	79.06
660.919	86.06
661.123	87.06
661.326	92.06
661.53	73.06
661.733	78.06
661.936	87.06
662.14	76.06
662.343	85.06
662.546	82.06
662.75	77.06
662.953	75.06
663.156	70.06
663.36	85.06
663.563	64.06
663.766	75.06
663.969	82.06
664.173	73.06
664.376	72.06
664.579	83.06
664.782	66.06
664.985	91.06
665.188	73.06
665.391	72.06
665.594	78.06
665.797	88.06
666	88.06
666.203	79.06
666.406	81.06
666.609	69.06
666.812	77.06
667.015	82.06
667.218	76.06
667.421	70.06
667.624	76.06
667.827	85.06
668.03	67.06
668.232	79.06
668.435	91.06
668.638	89.06
668.841	91.06
669.043	69.06
669.246	62.06
669.449	74.06
669.651	64.06
669.854	67.06
670.057	88.06
670.259	81.06
670.462	75.06
670.665	69.06
670.867	78.06
671.07	76.06
671.272	77.06
671.475	78.06
671.677	80.06
671.88	73.06
672.082	76.06
672.284	76.06
672.487	82.06
672.689	80.06
672.892	71.06
