Data from Uncirc_2000_H10_HRD10591_00049.txt Node
Date: Wed Jan 03 10:48:27 EST 2024
User: Yrep
Spectrometer: HR+D1059
Trigger mode: 1
Integration Time (sec): 1.000000E-1
Scans to average: 1
Electric dark correction enabled: true
Nonlinearity correction enabled: false
Boxcar width: 0
XAxis mode: Wavelengths
Number of Pixels in Spectrum: 2048
>>>>>Begin Spectral Data<<<<<
223.165	-21.31
223.4	-21.31
223.635	-21.31
223.869	-20.31
224.104	-20.31
224.338	-19.31
224.573	-13.31
224.808	-20.31
225.042	9.69
225.277	-3.31
225.511	-2.31
225.746	0.69
225.98	-0.31
226.215	19.69
226.449	15.69
226.683	29.69
226.918	16.69
227.152	28.69
227.387	28.69
227.621	33.69
227.856	64.69
228.09	43.69
228.324	56.69
228.559	56.69
228.793	43.69
229.027	64.69
229.262	74.69
229.496	84.69
229.73	79.69
229.964	83.69
230.199	72.69
230.433	71.69
230.667	82.69
230.901	81.69
231.136	81.69
231.37	81.69
231.604	74.69
231.838	77.69
232.072	58.69
232.306	89.69
232.541	80.69
232.775	83.69
233.009	74.69
233.243	72.69
233.477	77.69
233.711	75.69
233.945	75.69
234.179	89.69
234.413	81.69
234.647	63.69
234.881	77.69
235.115	79.69
235.349	89.69
235.583	91.69
235.817	94.69
236.051	73.69
236.285	72.69
236.519	69.69
236.753	76.69
236.987	73.69
237.221	82.69
237.455	91.69
237.689	74.69
237.922	72.69
238.156	90.69
238.39	87.69
238.624	72.69
238.858	76.69
239.091	85.69
239.325	76.69
239.559	83.69
239.793	76.69
240.027	83.69
240.26	66.69
240.494	76.69
240.728	73.69
240.961	76.69
241.195	71.69
241.429	83.69
241.662	69.69
241.896	79.69
242.13	77.69
242.363	70.69
242.597	76.69
242.83	73.69
243.064	85.69
243.298	93.69
243.531	82.69
243.765	74.69
243.998	82.69
244.232	101.69
244.465	88.69
244.699	84.69
244.932	67.69
245.166	85.69
245.399	81.69
245.633	80.69
245.866	72.69
246.099	72.69
246.333	76.69
246.566	76.69
246.8	70.69
247.033	73.69
247.266	73.69
247.5	76.69
247.733	77.69
247.966	80.69
248.2	70.69
248.433	94.69
248.666	79.69
248.899	76.69
249.133	92.69
249.366	96.69
249.599	94.69
249.832	72.69
250.066	77.69
250.299	63.69
250.532	75.69
250.765	69.69
250.998	77.69
251.231	75.69
251.465	81.69
251.698	75.69
251.931	91.69
252.164	80.69
252.397	91.69
252.63	87.69
252.863	75.69
253.096	79.69
253.329	86.69
253.562	84.69
253.795	75.69
254.028	86.69
254.261	82.69
254.494	78.69
254.727	77.69
254.96	92.69
255.193	79.69
255.426	87.69
255.659	84.69
255.892	82.69
256.124	83.69
256.357	81.69
256.59	70.69
256.823	88.69
257.056	86.69
257.289	82.69
257.521	61.69
257.754	88.69
257.987	83.69
258.22	80.69
258.452	85.69
258.685	87.69
258.918	78.69
259.151	76.69
259.383	72.69
259.616	82.69
259.849	90.69
260.081	69.69
260.314	81.69
260.547	82.69
260.779	87.69
261.012	81.69
261.244	84.69
261.477	82.69
261.71	88.69
261.942	107.69
262.175	86.69
262.407	93.69
262.64	100.69
262.872	89.69
263.105	93.69
263.337	85.69
263.57	70.69
263.802	92.69
264.035	87.69
264.267	75.69
264.499	74.69
264.732	77.69
264.964	85.69
265.197	86.69
265.429	88.69
265.661	88.69
265.894	87.69
266.126	83.69
266.358	70.69
266.591	84.69
266.823	69.69
267.055	74.69
267.287	84.69
267.52	95.69
267.752	78.69
267.984	101.69
268.216	93.69
268.448	86.69
268.681	92.69
268.913	83.69
269.145	88.69
269.377	84.69
269.609	98.69
269.841	82.69
270.073	90.69
270.306	87.69
270.538	73.69
270.77	66.69
271.002	76.69
271.234	85.69
271.466	85.69
271.698	72.69
271.93	83.69
272.162	87.69
272.394	82.69
272.626	83.69
272.858	87.69
273.09	95.69
273.322	96.69
273.553	103.69
273.785	84.69
274.017	95.69
274.249	85.69
274.481	77.69
274.713	80.69
274.945	73.69
275.176	89.69
275.408	91.69
275.64	76.69
275.872	85.69
276.104	95.69
276.335	89.69
276.567	104.69
276.799	104.69
277.031	88.69
277.262	90.69
277.494	71.69
277.726	97.69
277.957	73.69
278.189	88.69
278.421	80.69
278.652	83.69
278.884	92.69
279.115	76.69
279.347	81.69
279.579	78.69
279.81	93.69
280.042	98.69
280.273	79.69
280.505	83.69
280.736	87.69
280.968	75.69
281.199	85.69
281.431	74.69
281.662	96.69
281.894	88.69
282.125	101.69
282.356	106.69
282.588	121.69
282.819	101.69
283.051	82.69
283.282	97.69
283.513	87.69
283.745	86.69
283.976	89.69
284.207	84.69
284.439	89.69
284.67	86.69
284.901	87.69
285.132	91.69
285.364	87.69
285.595	83.69
285.826	79.69
286.057	80.69
286.288	79.69
286.52	96.69
286.751	95.69
286.982	86.69
287.213	107.69
287.444	96.69
287.675	81.69
287.906	91.69
288.138	102.69
288.369	79.69
288.6	75.69
288.831	73.69
289.062	97.69
289.293	75.69
289.524	70.69
289.755	92.69
289.986	93.69
290.217	97.69
290.448	97.69
290.679	80.69
290.91	87.69
291.141	80.69
291.371	86.69
291.602	79.69
291.833	97.69
292.064	97.69
292.295	97.69
292.526	97.69
292.757	81.69
292.987	74.69
293.218	90.69
293.449	81.69
293.68	79.69
293.91	82.69
294.141	95.69
294.372	77.69
294.603	91.69
294.833	75.69
295.064	93.69
295.295	83.69
295.525	99.69
295.756	99.69
295.987	122.69
296.217	128.69
296.448	123.69
296.679	97.69
296.909	85.69
297.14	85.69
297.37	96.69
297.601	100.69
297.831	85.69
298.062	94.69
298.292	83.69
298.523	83.69
298.753	75.69
298.984	87.69
299.214	86.69
299.445	87.69
299.675	84.69
299.905	103.69
300.136	86.69
300.366	92.69
300.597	98.69
300.827	87.69
301.057	89.69
301.288	101.69
301.518	112.69
301.748	95.69
301.979	96.69
302.209	84.69
302.439	95.69
302.669	73.69
302.9	84.69
303.13	87.69
303.36	101.69
303.59	93.69
303.82	103.69
304.051	104.69
304.281	86.69
304.511	101.69
304.741	91.69
304.971	84.69
305.201	89.69
305.431	90.69
305.661	83.69
305.891	94.69
306.121	92.69
306.352	106.69
306.582	99.69
306.812	105.69
307.042	90.69
307.272	86.69
307.502	90.69
307.731	77.69
307.961	93.69
308.191	79.69
308.421	88.69
308.651	86.69
308.881	98.69
309.111	80.69
309.341	104.69
309.571	97.69
309.8	77.69
310.03	102.69
310.26	90.69
310.49	95.69
310.72	99.69
310.949	92.69
311.179	91.69
311.409	95.69
311.639	92.69
311.868	93.69
312.098	87.69
312.328	81.69
312.557	95.69
312.787	104.69
313.017	94.69
313.246	91.69
313.476	95.69
313.706	84.69
313.935	83.69
314.165	90.69
314.394	98.69
314.624	84.69
314.853	90.69
315.083	86.69
315.312	92.69
315.542	90.69
315.771	84.69
316.001	104.69
316.23	92.69
316.46	89.69
316.689	80.69
316.919	90.69
317.148	79.69
317.377	88.69
317.607	93.69
317.836	88.69
318.065	83.69
318.295	93.69
318.524	93.69
318.753	101.69
318.983	107.69
319.212	107.69
319.441	95.69
319.67	98.69
319.9	97.69
320.129	90.69
320.358	99.69
320.587	96.69
320.816	96.69
321.046	97.69
321.275	98.69
321.504	87.69
321.733	93.69
321.962	96.69
322.191	95.69
322.42	109.69
322.649	104.69
322.878	108.69
323.108	107.69
323.337	123.69
323.566	110.69
323.795	153.69
324.024	209.69
324.253	377.69
324.482	805.69
324.71	1610.69
324.939	2137.69
325.168	778.69
325.397	224.69
325.626	141.69
325.855	119.69
326.084	140.69
326.313	145.69
326.542	157.69
326.77	233.69
326.999	458.69
327.228	924.69
327.457	1636.69
327.686	1276.69
327.914	352.69
328.143	177.69
328.372	131.69
328.6	110.69
328.829	117.69
329.058	121.69
329.287	116.69
329.515	108.69
329.744	104.69
329.972	91.69
330.201	92.69
330.43	105.69
330.658	99.69
330.887	117.69
331.115	128.69
331.344	96.69
331.572	103.69
331.801	112.69
332.03	98.69
332.258	93.69
332.486	88.69
332.715	92.69
332.943	87.69
333.172	103.69
333.4	100.69
333.629	90.69
333.857	93.69
334.085	108.69
334.314	72.69
334.542	98.69
334.771	93.69
334.999	92.69
335.227	93.69
335.455	76.69
335.684	85.69
335.912	97.69
336.14	89.69
336.369	100.69
336.597	90.69
336.825	96.69
337.053	95.69
337.281	100.69
337.51	95.69
337.738	93.69
337.966	77.69
338.194	90.69
338.422	90.69
338.65	96.69
338.878	100.69
339.106	81.69
339.334	105.69
339.562	97.69
339.79	96.69
340.018	89.69
340.246	93.69
340.474	88.69
340.702	97.69
340.93	87.69
341.158	106.69
341.386	89.69
341.614	107.69
341.842	77.69
342.07	85.69
342.298	96.69
342.526	85.69
342.754	81.69
342.981	77.69
343.209	85.69
343.437	93.69
343.665	92.69
343.893	100.69
344.12	98.69
344.348	103.69
344.576	75.69
344.804	84.69
345.031	88.69
345.259	91.69
345.487	82.69
345.714	103.69
345.942	88.69
346.17	96.69
346.397	93.69
346.625	93.69
346.853	96.69
347.08	84.69
347.308	89.69
347.535	106.69
347.763	96.69
347.99	105.69
348.218	93.69
348.445	100.69
348.673	108.69
348.9	84.69
349.128	84.69
349.355	92.69
349.583	81.69
349.81	90.69
350.037	83.69
350.265	100.69
350.492	102.69
350.72	96.69
350.947	99.69
351.174	102.69
351.402	112.69
351.629	92.69
351.856	101.69
352.083	113.69
352.311	103.69
352.538	102.69
352.765	96.69
352.992	119.69
353.22	113.69
353.447	85.69
353.674	103.69
353.901	87.69
354.128	95.69
354.355	100.69
354.583	97.69
354.81	108.69
355.037	105.69
355.264	90.69
355.491	95.69
355.718	96.69
355.945	91.69
356.172	85.69
356.399	93.69
356.626	88.69
356.853	92.69
357.08	79.69
357.307	97.69
357.534	93.69
357.761	82.69
357.988	90.69
358.215	93.69
358.441	101.69
358.668	89.69
358.895	92.69
359.122	92.69
359.349	84.69
359.576	98.69
359.802	96.69
360.029	106.69
360.256	116.69
360.483	98.69
360.709	84.69
360.936	96.69
361.163	90.69
361.39	89.69
361.616	93.69
361.843	92.69
362.07	99.69
362.296	84.69
362.523	81.69
362.749	79.69
362.976	101.69
363.203	111.69
363.429	88.69
363.656	104.69
363.882	85.69
364.109	99.69
364.335	85.69
364.562	79.69
364.788	79.69
365.015	111.69
365.241	88.69
365.468	99.69
365.694	96.69
365.92	91.69
366.147	87.69
366.373	97.69
366.599	90.69
366.826	91.69
367.052	103.69
367.278	81.69
367.505	89.69
367.731	87.69
367.957	92.69
368.184	70.69
368.41	86.69
368.636	92.69
368.862	123.69
369.089	88.69
369.315	81.69
369.541	93.69
369.767	94.69
369.993	85.69
370.219	85.69
370.445	87.69
370.672	93.69
370.898	92.69
371.124	101.69
371.35	100.69
371.576	92.69
371.802	85.69
372.028	91.69
372.254	82.69
372.48	99.69
372.706	77.69
372.932	84.69
373.158	78.69
373.384	91.69
373.61	98.69
373.835	86.69
374.061	80.69
374.287	101.69
374.513	83.69
374.739	82.69
374.965	92.69
375.191	92.69
375.416	88.69
375.642	87.69
375.868	89.69
376.094	89.69
376.319	84.69
376.545	89.69
376.771	99.69
376.997	97.69
377.222	89.69
377.448	99.69
377.674	91.69
377.899	83.69
378.125	98.69
378.35	91.69
378.576	85.69
378.802	89.69
379.027	96.69
379.253	89.69
379.478	84.69
379.704	105.69
379.929	108.69
380.155	104.69
380.38	104.69
380.606	89.69
380.831	101.69
381.057	96.69
381.282	92.69
381.507	96.69
381.733	105.69
381.958	84.69
382.184	90.69
382.409	91.69
382.634	100.69
382.86	105.69
383.085	93.69
383.31	89.69
383.535	92.69
383.761	90.69
383.986	86.69
384.211	89.69
384.436	90.69
384.662	88.69
384.887	86.69
385.112	94.69
385.337	96.69
385.562	104.69
385.787	98.69
386.013	93.69
386.238	101.69
386.463	98.69
386.688	116.69
386.913	91.69
387.138	105.69
387.363	87.69
387.588	97.69
387.813	101.69
388.038	97.69
388.263	100.69
388.488	102.69
388.713	95.69
388.938	91.69
389.163	96.69
389.387	93.69
389.612	97.69
389.837	91.69
390.062	91.69
390.287	83.69
390.512	85.69
390.736	77.69
390.961	95.69
391.186	101.69
391.411	91.69
391.636	79.69
391.86	86.69
392.085	86.69
392.31	93.69
392.534	101.69
392.759	83.69
392.984	79.69
393.208	83.69
393.433	98.69
393.658	91.69
393.882	70.69
394.107	81.69
394.331	70.69
394.556	93.69
394.78	96.69
395.005	84.69
395.229	91.69
395.454	74.69
395.678	76.69
395.903	93.69
396.127	87.69
396.352	79.69
396.576	84.69
396.801	90.69
397.025	89.69
397.249	77.69
397.474	89.69
397.698	95.69
397.922	89.69
398.147	97.69
398.371	95.69
398.595	76.69
398.82	95.69
399.044	90.69
399.268	89.69
399.492	85.69
399.717	84.69
399.941	87.69
400.165	86.69
400.389	91.69
400.613	99.69
400.837	82.69
401.062	82.69
401.286	92.69
401.51	88.69
401.734	79.69
401.958	104.69
402.182	130.69
402.406	147.69
402.63	111.69
402.854	97.69
403.078	98.69
403.302	77.69
403.526	97.69
403.75	88.69
403.974	89.69
404.198	84.69
404.422	80.69
404.645	98.69
404.869	85.69
405.093	81.69
405.317	98.69
405.541	85.69
405.765	79.69
405.988	104.69
406.212	167.69
406.436	224.69
406.66	155.69
406.883	92.69
407.107	91.69
407.331	88.69
407.555	96.69
407.778	82.69
408.002	84.69
408.226	92.69
408.449	84.69
408.673	80.69
408.896	92.69
409.12	95.69
409.344	79.69
409.567	97.69
409.791	92.69
410.014	91.69
410.238	98.69
410.461	87.69
410.685	88.69
410.908	97.69
411.132	90.69
411.355	91.69
411.578	92.69
411.802	85.69
412.025	81.69
412.249	95.69
412.472	91.69
412.695	77.69
412.919	89.69
413.142	75.69
413.365	83.69
413.589	92.69
413.812	93.69
414.035	84.69
414.258	92.69
414.482	90.69
414.705	73.69
414.928	96.69
415.151	83.69
415.374	87.69
415.597	88.69
415.821	91.69
416.044	103.69
416.267	82.69
416.49	95.69
416.713	99.69
416.936	86.69
417.159	72.69
417.382	84.69
417.605	88.69
417.828	84.69
418.051	95.69
418.274	89.69
418.497	70.69
418.72	82.69
418.943	92.69
419.166	97.69
419.389	80.69
419.611	81.69
419.834	102.69
420.057	80.69
420.28	77.69
420.503	80.69
420.726	89.69
420.948	76.69
421.171	88.69
421.394	81.69
421.617	87.69
421.839	93.69
422.062	103.69
422.285	83.69
422.507	95.69
422.73	103.69
422.953	81.69
423.175	83.69
423.398	80.69
423.621	88.69
423.843	83.69
424.066	91.69
424.288	94.69
424.511	76.69
424.733	95.69
424.956	106.69
425.178	106.69
425.401	119.69
425.623	95.69
425.846	86.69
426.068	87.69
426.291	100.69
426.513	90.69
426.735	98.69
426.958	92.69
427.18	109.69
427.402	128.69
427.625	148.69
427.847	114.69
428.069	96.69
428.292	80.69
428.514	81.69
428.736	77.69
428.958	83.69
429.181	98.69
429.403	81.69
429.625	82.69
429.847	89.69
430.069	106.69
430.292	99.69
430.514	95.69
430.736	97.69
430.958	80.69
431.18	88.69
431.402	106.69
431.624	77.69
431.846	75.69
432.068	92.69
432.29	96.69
432.512	82.69
432.734	75.69
432.956	89.69
433.178	89.69
433.4	98.69
433.622	90.69
433.844	85.69
434.066	81.69
434.287	83.69
434.509	87.69
434.731	85.69
434.953	83.69
435.175	79.69
435.397	89.69
435.618	105.69
435.84	103.69
436.062	111.69
436.284	118.69
436.505	101.69
436.727	84.69
436.949	89.69
437.17	89.69
437.392	93.69
437.614	82.69
437.835	106.69
438.057	106.69
438.278	108.69
438.5	96.69
438.721	109.69
438.943	107.69
439.165	86.69
439.386	75.69
439.608	83.69
439.829	99.69
440.05	115.69
440.272	125.69
440.493	88.69
440.715	87.69
440.936	81.69
441.158	89.69
441.379	82.69
441.6	77.69
441.822	96.69
442.043	84.69
442.264	100.69
442.486	93.69
442.707	87.69
442.928	110.69
443.149	117.69
443.371	130.69
443.592	118.69
443.813	122.69
444.034	113.69
444.255	96.69
444.476	82.69
444.698	88.69
444.919	96.69
445.14	139.69
445.361	116.69
445.582	119.69
445.803	114.69
446.024	112.69
446.245	129.69
446.466	107.69
446.687	72.69
446.908	94.69
447.129	104.69
447.35	88.69
447.571	83.69
447.792	98.69
448.013	82.69
448.234	100.69
448.455	89.69
448.675	113.69
448.896	125.69
449.117	116.69
449.338	106.69
449.559	134.69
449.779	122.69
450	79.69
450.221	83.69
450.442	80.69
450.662	87.69
450.883	90.69
451.104	105.69
451.324	83.69
451.545	89.69
451.766	87.69
451.986	83.69
452.207	101.69
452.428	79.69
452.648	96.69
452.869	102.69
453.089	97.69
453.31	123.69
453.53	95.69
453.751	97.69
453.971	100.69
454.192	114.69
454.412	89.69
454.633	92.69
454.853	87.69
455.073	71.69
455.294	79.69
455.514	85.69
455.734	90.69
455.955	79.69
456.175	94.69
456.395	99.69
456.616	96.69
456.836	80.69
457.056	92.69
457.276	89.69
457.497	76.69
457.717	79.69
457.937	84.69
458.157	86.69
458.377	96.69
458.598	105.69
458.818	140.69
459.038	169.69
459.258	108.69
459.478	87.69
459.698	92.69
459.918	97.69
460.138	94.69
460.358	80.69
460.578	96.69
460.798	86.69
461.018	84.69
461.238	96.69
461.458	81.69
461.678	82.69
461.898	89.69
462.118	85.69
462.338	84.69
462.558	91.69
462.777	86.69
462.997	82.69
463.217	84.69
463.437	77.69
463.657	79.69
463.876	98.69
464.096	87.69
464.316	92.69
464.536	96.69
464.755	93.69
464.975	113.69
465.195	151.69
465.414	147.69
465.634	97.69
465.854	79.69
466.073	75.69
466.293	75.69
466.512	89.69
466.732	87.69
466.951	85.69
467.171	101.69
467.391	96.69
467.61	89.69
467.829	96.69
468.049	83.69
468.268	91.69
468.488	98.69
468.707	77.69
468.927	75.69
469.146	84.69
469.365	94.69
469.585	73.69
469.804	84.69
470.023	101.69
470.243	84.69
470.462	97.69
470.681	98.69
470.901	84.69
471.12	90.69
471.339	76.69
471.558	91.69
471.777	87.69
471.997	92.69
472.216	81.69
472.435	97.69
472.654	99.69
472.873	77.69
473.092	90.69
473.311	87.69
473.53	77.69
473.749	77.69
473.968	94.69
474.187	103.69
474.406	88.69
474.625	89.69
474.844	87.69
475.063	97.69
475.282	87.69
475.501	70.69
475.72	92.69
475.939	91.69
476.158	85.69
476.377	87.69
476.596	76.69
476.814	88.69
477.033	90.69
477.252	110.69
477.471	86.69
477.69	99.69
477.908	94.69
478.127	83.69
478.346	75.69
478.564	89.69
478.783	101.69
479.002	101.69
479.22	92.69
479.439	86.69
479.658	103.69
479.876	88.69
480.095	90.69
480.313	95.69
480.532	99.69
480.751	97.69
480.969	77.69
481.188	95.69
481.406	84.69
481.624	85.69
481.843	93.69
482.061	86.69
482.28	90.69
482.498	83.69
482.717	84.69
482.935	87.69
483.153	83.69
483.372	91.69
483.59	96.69
483.808	103.69
484.027	87.69
484.245	97.69
484.463	96.69
484.681	97.69
484.9	99.69
485.118	98.69
485.336	101.69
485.554	111.69
485.772	92.69
485.99	104.69
486.209	96.69
486.427	96.69
486.645	111.69
486.863	108.69
487.081	95.69
487.299	97.69
487.517	101.69
487.735	73.69
487.953	101.69
488.171	102.69
488.389	95.69
488.607	103.69
488.825	88.69
489.043	88.69
489.261	86.69
489.479	82.69
489.696	93.69
489.914	74.69
490.132	91.69
490.35	90.69
490.568	89.69
490.786	101.69
491.003	97.69
491.221	97.69
491.439	92.69
491.657	82.69
491.874	81.69
492.092	94.69
492.31	81.69
492.527	79.69
492.745	83.69
492.963	73.69
493.18	79.69
493.398	97.69
493.615	98.69
493.833	95.69
494.05	97.69
494.268	92.69
494.485	100.69
494.703	96.69
494.92	98.69
495.138	87.69
495.355	88.69
495.573	103.69
495.79	83.69
496.008	89.69
496.225	95.69
496.442	79.69
496.66	103.69
496.877	96.69
497.094	100.69
497.312	95.69
497.529	92.69
497.746	101.69
497.963	72.69
498.181	87.69
498.398	90.69
498.615	100.69
498.832	86.69
499.049	99.69
499.267	99.69
499.484	85.69
499.701	84.69
499.918	97.69
500.135	93.69
500.352	91.69
500.569	80.69
500.786	88.69
501.003	92.69
501.22	81.69
501.437	95.69
501.654	95.69
501.871	89.69
502.088	100.69
502.305	101.69
502.522	91.69
502.739	90.69
502.956	96.69
503.172	90.69
503.389	92.69
503.606	94.69
503.823	98.69
504.04	88.69
504.256	84.69
504.473	92.69
504.69	84.69
504.907	89.69
505.123	99.69
505.34	97.69
505.557	74.69
505.773	93.69
505.99	92.69
506.207	90.69
506.423	104.69
506.64	85.69
506.856	92.69
507.073	91.69
507.289	87.69
507.506	85.69
507.722	115.69
507.939	99.69
508.155	95.69
508.372	102.69
508.588	88.69
508.805	83.69
509.021	99.69
509.238	102.69
509.454	104.69
509.67	85.69
509.887	104.69
510.103	114.69
510.319	202.69
510.536	756.69
510.752	2320.69
510.968	655.69
511.184	150.69
511.401	101.69
511.617	85.69
511.833	95.69
512.049	104.69
512.265	97.69
512.481	102.69
512.698	73.69
512.914	107.69
513.13	96.69
513.346	77.69
513.562	81.69
513.778	97.69
513.994	109.69
514.21	110.69
514.426	120.69
514.642	121.69
514.858	140.69
515.074	165.69
515.29	422.69
515.506	1355.69
515.721	500.69
515.937	137.69
516.153	101.69
516.369	106.69
516.585	92.69
516.801	95.69
517.016	101.69
517.232	89.69
517.448	92.69
517.664	90.69
517.879	96.69
518.095	91.69
518.311	99.69
518.527	89.69
518.742	100.69
518.958	98.69
519.173	92.69
519.389	96.69
519.605	107.69
519.82	88.69
520.036	86.69
520.251	122.69
520.467	111.69
520.682	100.69
520.898	106.69
521.113	115.69
521.329	128.69
521.544	207.69
521.76	509.69
521.975	2219.69
522.19	1320.69
522.406	290.69
522.621	129.69
522.836	114.69
523.052	97.69
523.267	90.69
523.482	91.69
523.698	97.69
523.913	104.69
524.128	104.69
524.343	80.69
524.559	103.69
524.774	86.69
524.989	107.69
525.204	101.69
525.419	96.69
525.634	97.69
525.849	82.69
526.064	96.69
526.28	96.69
526.495	99.69
526.71	97.69
526.925	98.69
527.14	88.69
527.355	80.69
527.57	85.69
527.785	82.69
527.999	91.69
528.214	106.69
528.429	89.69
528.644	75.69
528.859	90.69
529.074	107.69
529.289	112.69
529.503	163.69
529.718	97.69
529.933	95.69
530.148	79.69
530.363	92.69
530.577	92.69
530.792	102.69
531.007	104.69
531.221	81.69
531.436	91.69
531.651	85.69
531.865	90.69
532.08	95.69
532.295	111.69
532.509	99.69
532.724	97.69
532.938	90.69
533.153	95.69
533.367	111.69
533.582	105.69
533.796	89.69
534.011	99.69
534.225	87.69
534.44	92.69
534.654	91.69
534.868	85.69
535.083	84.69
535.297	75.69
535.511	92.69
535.726	99.69
535.94	106.69
536.154	93.69
536.369	94.69
536.583	78.69
536.797	101.69
537.011	95.69
537.225	88.69
537.44	88.69
537.654	96.69
537.868	91.69
538.082	83.69
538.296	85.69
538.51	92.69
538.724	83.69
538.938	91.69
539.153	93.69
539.367	104.69
539.581	88.69
539.795	91.69
540.009	83.69
540.222	91.69
540.436	104.69
540.65	94.69
540.864	87.69
541.078	100.69
541.292	90.69
541.506	92.69
541.72	95.69
541.934	90.69
542.147	92.69
542.361	83.69
542.575	91.69
542.789	87.69
543.002	90.69
543.216	89.69
543.43	97.69
543.644	92.69
543.857	92.69
544.071	82.69
544.285	74.69
544.498	88.69
544.712	91.69
544.925	89.69
545.139	93.69
545.352	86.69
545.566	88.69
545.779	98.69
545.993	94.69
546.206	105.69
546.42	92.69
546.633	88.69
546.847	91.69
547.06	91.69
547.274	100.69
547.487	109.69
547.7	89.69
547.914	96.69
548.127	70.69
548.34	83.69
548.554	92.69
548.767	95.69
548.98	94.69
549.193	84.69
549.407	81.69
549.62	66.69
549.833	84.69
550.046	92.69
550.259	91.69
550.473	97.69
550.686	86.69
550.899	82.69
551.112	84.69
551.325	96.69
551.538	91.69
551.751	79.69
551.964	81.69
552.177	77.69
552.39	81.69
552.603	97.69
552.816	92.69
553.029	100.69
553.242	81.69
553.455	96.69
553.667	101.69
553.88	92.69
554.093	96.69
554.306	98.69
554.519	84.69
554.732	99.69
554.944	79.69
555.157	96.69
555.37	89.69
555.583	85.69
555.795	101.69
556.008	97.69
556.221	90.69
556.433	95.69
556.646	95.69
556.859	98.69
557.071	97.69
557.284	83.69
557.496	87.69
557.709	82.69
557.921	80.69
558.134	90.69
558.346	101.69
558.559	81.69
558.771	97.69
558.984	92.69
559.196	97.69
559.409	94.69
559.621	91.69
559.833	89.69
560.046	81.69
560.258	80.69
560.47	88.69
560.683	88.69
560.895	86.69
561.107	85.69
561.32	80.69
561.532	94.69
561.744	95.69
561.956	99.69
562.168	99.69
562.381	99.69
562.593	89.69
562.805	95.69
563.017	93.69
563.229	71.69
563.441	89.69
563.653	79.69
563.865	87.69
564.077	99.69
564.289	98.69
564.501	93.69
564.713	89.69
564.925	83.69
565.137	93.69
565.349	92.69
565.561	96.69
565.773	83.69
565.985	82.69
566.197	91.69
566.408	87.69
566.62	86.69
566.832	72.69
567.044	75.69
567.255	81.69
567.467	83.69
567.679	88.69
567.891	89.69
568.102	85.69
568.314	96.69
568.526	88.69
568.737	88.69
568.949	93.69
569.161	99.69
569.372	89.69
569.584	88.69
569.795	93.69
570.007	114.69
570.218	255.69
570.43	128.69
570.641	99.69
570.853	94.69
571.064	78.69
571.276	83.69
571.487	78.69
571.698	86.69
571.91	93.69
572.121	88.69
572.333	96.69
572.544	88.69
572.755	99.69
572.966	89.69
573.178	76.69
573.389	90.69
573.6	98.69
573.811	83.69
574.023	98.69
574.234	81.69
574.445	89.69
574.656	83.69
574.867	87.69
575.078	94.69
575.289	99.69
575.501	96.69
575.712	73.69
575.923	87.69
576.134	80.69
576.345	90.69
576.556	76.69
576.767	102.69
576.978	86.69
577.188	90.69
577.399	92.69
577.61	101.69
577.821	89.69
578.032	99.69
578.243	278.69
578.454	771.69
578.665	230.69
578.875	108.69
579.086	98.69
579.297	83.69
579.508	84.69
579.718	87.69
579.929	93.69
580.14	96.69
580.35	76.69
580.561	84.69
580.772	99.69
580.982	77.69
581.193	74.69
581.403	89.69
581.614	99.69
581.825	94.69
582.035	102.69
582.246	83.69
582.456	90.69
582.667	90.69
582.877	99.69
583.087	77.69
583.298	90.69
583.508	81.69
583.719	83.69
583.929	91.69
584.139	92.69
584.35	76.69
584.56	79.69
584.77	79.69
584.981	82.69
585.191	80.69
585.401	95.69
585.611	81.69
585.821	91.69
586.032	74.69
586.242	84.69
586.452	84.69
586.662	79.69
586.872	85.69
587.082	101.69
587.292	92.69
587.502	81.69
587.713	87.69
587.923	92.69
588.133	99.69
588.343	90.69
588.553	79.69
588.762	97.69
588.972	93.69
589.182	97.69
589.392	89.69
589.602	82.69
589.812	87.69
590.022	103.69
590.232	81.69
590.441	98.69
590.651	76.69
590.861	102.69
591.071	85.69
591.281	85.69
591.49	92.69
591.7	81.69
591.91	91.69
592.119	86.69
592.329	88.69
592.539	90.69
592.748	97.69
592.958	81.69
593.167	87.69
593.377	79.69
593.587	95.69
593.796	92.69
594.006	86.69
594.215	82.69
594.424	87.69
594.634	89.69
594.843	77.69
595.053	78.69
595.262	88.69
595.472	72.69
595.681	86.69
595.89	82.69
596.1	98.69
596.309	100.69
596.518	88.69
596.727	83.69
596.937	86.69
597.146	80.69
597.355	101.69
597.564	80.69
597.774	87.69
597.983	73.69
598.192	84.69
598.401	81.69
598.61	91.69
598.819	82.69
599.028	87.69
599.237	86.69
599.446	80.69
599.655	85.69
599.864	80.69
600.073	80.69
600.282	99.69
600.491	101.69
600.7	98.69
600.909	93.69
601.118	77.69
601.327	84.69
601.536	81.69
601.745	78.69
601.953	90.69
602.162	92.69
602.371	90.69
602.58	84.69
602.789	77.69
602.997	88.69
603.206	89.69
603.415	76.69
603.623	82.69
603.832	97.69
604.041	96.69
604.249	87.69
604.458	75.69
604.666	92.69
604.875	82.69
605.084	84.69
605.292	85.69
605.501	77.69
605.709	86.69
605.918	79.69
606.126	91.69
606.334	93.69
606.543	94.69
606.751	92.69
606.96	89.69
607.168	95.69
607.376	80.69
607.585	91.69
607.793	87.69
608.001	87.69
608.21	86.69
608.418	75.69
608.626	87.69
608.834	103.69
609.043	82.69
609.251	86.69
609.459	82.69
609.667	76.69
609.875	84.69
610.083	104.69
610.291	79.69
610.499	93.69
610.707	96.69
610.916	80.69
611.124	82.69
611.332	84.69
611.54	88.69
611.748	83.69
611.955	98.69
612.163	92.69
612.371	98.69
612.579	89.69
612.787	93.69
612.995	73.69
613.203	84.69
613.411	95.69
613.618	79.69
613.826	82.69
614.034	97.69
614.242	86.69
614.449	80.69
614.657	86.69
614.865	85.69
615.072	83.69
615.28	83.69
615.488	91.69
615.695	107.69
615.903	88.69
616.111	110.69
616.318	93.69
616.526	101.69
616.733	103.69
616.941	89.69
617.148	94.69
617.356	93.69
617.563	90.69
617.771	90.69
617.978	79.69
618.185	88.69
618.393	96.69
618.6	100.69
618.807	80.69
619.015	82.69
619.222	84.69
619.429	95.69
619.637	86.69
619.844	91.69
620.051	89.69
620.258	84.69
620.466	82.69
620.673	95.69
620.88	88.69
621.087	85.69
621.294	88.69
621.501	79.69
621.708	84.69
621.915	85.69
622.122	90.69
622.329	78.69
622.536	83.69
622.743	65.69
622.95	98.69
623.157	93.69
623.364	79.69
623.571	91.69
623.778	85.69
623.985	75.69
624.192	93.69
624.399	81.69
624.606	76.69
624.812	78.69
625.019	81.69
625.226	86.69
625.433	74.69
625.639	85.69
625.846	80.69
626.053	67.69
626.259	69.69
626.466	84.69
626.673	87.69
626.879	77.69
627.086	87.69
627.293	83.69
627.499	91.69
627.706	87.69
627.912	89.69
628.119	98.69
628.325	82.69
628.532	88.69
628.738	81.69
628.945	84.69
629.151	76.69
629.357	93.69
629.564	90.69
629.77	84.69
629.976	88.69
630.183	64.69
630.389	96.69
630.595	91.69
630.802	84.69
631.008	99.69
631.214	93.69
631.42	80.69
631.627	88.69
631.833	84.69
632.039	83.69
632.245	91.69
632.451	80.69
632.657	82.69
632.863	79.69
633.069	87.69
633.275	89.69
633.481	75.69
633.688	77.69
633.893	82.69
634.099	86.69
634.305	91.69
634.511	83.69
634.717	95.69
634.923	82.69
635.129	80.69
635.335	79.69
635.541	73.69
635.747	87.69
635.952	87.69
636.158	91.69
636.364	82.69
636.57	90.69
636.775	85.69
636.981	89.69
637.187	84.69
637.392	75.69
637.598	87.69
637.804	89.69
638.009	100.69
638.215	81.69
638.421	84.69
638.626	85.69
638.832	84.69
639.037	80.69
639.243	79.69
639.448	73.69
639.654	91.69
639.859	79.69
640.065	79.69
640.27	86.69
640.475	73.69
640.681	67.69
640.886	63.69
641.091	97.69
641.297	94.69
641.502	88.69
641.707	83.69
641.913	86.69
642.118	79.69
642.323	76.69
642.528	89.69
642.733	70.69
642.939	82.69
643.144	90.69
643.349	85.69
643.554	77.69
643.759	98.69
643.964	82.69
644.169	93.69
644.374	91.69
644.579	96.69
644.784	83.69
644.989	82.69
645.194	87.69
645.399	77.69
645.604	80.69
645.809	79.69
646.014	85.69
646.219	85.69
646.423	82.69
646.628	92.69
646.833	88.69
647.038	92.69
647.243	90.69
647.447	93.69
647.652	84.69
647.857	81.69
648.062	80.69
648.266	90.69
648.471	86.69
648.676	96.69
648.88	92.69
649.085	84.69
649.289	97.69
649.494	104.69
649.698	112.69
649.903	95.69
650.107	84.69
650.312	88.69
650.516	80.69
650.721	83.69
650.925	84.69
651.13	91.69
651.334	83.69
651.539	95.69
651.743	86.69
651.947	74.69
652.152	92.69
652.356	88.69
652.56	85.69
652.764	72.69
652.969	79.69
653.173	83.69
653.377	86.69
653.581	93.69
653.785	79.69
653.99	80.69
654.194	80.69
654.398	87.69
654.602	75.69
654.806	77.69
655.01	94.69
655.214	61.69
655.418	88.69
655.622	96.69
655.826	101.69
656.03	82.69
656.234	81.69
656.438	86.69
656.642	92.69
656.846	91.69
657.049	89.69
657.253	83.69
657.457	80.69
657.661	81.69
657.865	97.69
658.068	91.69
658.272	84.69
658.476	68.69
658.68	85.69
658.883	85.69
659.087	77.69
659.291	78.69
659.494	81.69
659.698	77.69
659.901	80.69
660.105	67.69
660.309	83.69
660.512	83.69
660.716	90.69
660.919	92.69
661.123	80.69
661.326	78.69
661.53	72.69
661.733	82.69
661.936	87.69
662.14	83.69
662.343	69.69
662.546	76.69
662.75	84.69
662.953	91.69
663.156	83.69
663.36	77.69
663.563	88.69
663.766	75.69
663.969	85.69
664.173	90.69
664.376	65.69
664.579	73.69
664.782	76.69
664.985	83.69
665.188	97.69
665.391	81.69
665.594	87.69
665.797	92.69
666	79.69
666.203	75.69
666.406	83.69
666.609	75.69
666.812	84.69
667.015	79.69
667.218	97.69
667.421	91.69
667.624	74.69
667.827	81.69
668.03	83.69
668.232	76.69
668.435	85.69
668.638	89.69
668.841	81.69
669.043	87.69
669.246	65.69
669.449	65.69
669.651	81.69
669.854	72.69
670.057	76.69
670.259	79.69
670.462	85.69
670.665	83.69
670.867	93.69
671.07	77.69
671.272	79.69
671.475	69.69
671.677	84.69
671.88	76.69
672.082	81.69
672.284	76.69
672.487	83.69
672.689	69.69
672.892	84.69
