Data from Circ_2016_H10_HRD10591_00083.txt Node
Date: Wed Jan 03 09:58:57 EST 2024
User: Yrep
Spectrometer: HR+D1059
Trigger mode: 1
Integration Time (sec): 1.000000E-1
Scans to average: 1
Electric dark correction enabled: true
Nonlinearity correction enabled: false
Boxcar width: 0
XAxis mode: Wavelengths
Number of Pixels in Spectrum: 2048
>>>>>Begin Spectral Data<<<<<
223.165	-7.69
223.4	-7.69
223.635	-7.69
223.869	-7.69
224.104	-26.69
224.338	-2.69
224.573	-9.69
224.808	-25.69
225.042	-17.69
225.277	-5.69
225.511	-3.69
225.746	-7.69
225.98	12.31
226.215	14.31
226.449	7.31
226.683	24.31
226.918	17.31
227.152	39.31
227.387	44.31
227.621	42.31
227.856	40.31
228.09	41.31
228.324	54.31
228.559	55.31
228.793	38.31
229.027	62.31
229.262	52.31
229.496	66.31
229.73	82.31
229.964	79.31
230.199	67.31
230.433	85.31
230.667	87.31
230.901	87.31
231.136	87.31
231.37	81.31
231.604	84.31
231.838	81.31
232.072	76.31
232.306	86.31
232.541	86.31
232.775	84.31
233.009	77.31
233.243	89.31
233.477	78.31
233.711	82.31
233.945	78.31
234.179	75.31
234.413	85.31
234.647	90.31
234.881	82.31
235.115	75.31
235.349	84.31
235.583	86.31
235.817	82.31
236.051	73.31
236.285	77.31
236.519	62.31
236.753	78.31
236.987	82.31
237.221	79.31
237.455	77.31
237.689	87.31
237.922	80.31
238.156	75.31
238.39	92.31
238.624	81.31
238.858	79.31
239.091	70.31
239.325	90.31
239.559	66.31
239.793	85.31
240.027	75.31
240.26	71.31
240.494	82.31
240.728	82.31
240.961	72.31
241.195	67.31
241.429	84.31
241.662	75.31
241.896	61.31
242.13	83.31
242.363	86.31
242.597	80.31
242.83	89.31
243.064	75.31
243.298	74.31
243.531	89.31
243.765	78.31
243.998	85.31
244.232	81.31
244.465	91.31
244.699	89.31
244.932	69.31
245.166	69.31
245.399	79.31
245.633	78.31
245.866	68.31
246.099	79.31
246.333	88.31
246.566	84.31
246.8	85.31
247.033	89.31
247.266	74.31
247.5	82.31
247.733	73.31
247.966	83.31
248.2	84.31
248.433	76.31
248.666	84.31
248.899	87.31
249.133	71.31
249.366	93.31
249.599	97.31
249.832	83.31
250.066	95.31
250.299	88.31
250.532	89.31
250.765	77.31
250.998	83.31
251.231	81.31
251.465	80.31
251.698	66.31
251.931	73.31
252.164	78.31
252.397	73.31
252.63	74.31
252.863	76.31
253.096	72.31
253.329	81.31
253.562	87.31
253.795	72.31
254.028	82.31
254.261	75.31
254.494	76.31
254.727	77.31
254.96	76.31
255.193	85.31
255.426	82.31
255.659	76.31
255.892	80.31
256.124	74.31
256.357	87.31
256.59	67.31
256.823	96.31
257.056	78.31
257.289	82.31
257.521	77.31
257.754	78.31
257.987	85.31
258.22	75.31
258.452	61.31
258.685	75.31
258.918	82.31
259.151	82.31
259.383	97.31
259.616	78.31
259.849	79.31
260.081	85.31
260.314	73.31
260.547	89.31
260.779	89.31
261.012	96.31
261.244	74.31
261.477	94.31
261.71	78.31
261.942	111.31
262.175	116.31
262.407	88.31
262.64	89.31
262.872	75.31
263.105	75.31
263.337	95.31
263.57	86.31
263.802	84.31
264.035	86.31
264.267	78.31
264.499	83.31
264.732	79.31
264.964	82.31
265.197	75.31
265.429	88.31
265.661	75.31
265.894	81.31
266.126	82.31
266.358	100.31
266.591	85.31
266.823	78.31
267.055	83.31
267.287	75.31
267.52	85.31
267.752	91.31
267.984	90.31
268.216	74.31
268.448	85.31
268.681	69.31
268.913	87.31
269.145	83.31
269.377	91.31
269.609	84.31
269.841	92.31
270.073	90.31
270.306	82.31
270.538	92.31
270.77	68.31
271.002	96.31
271.234	80.31
271.466	82.31
271.698	77.31
271.93	87.31
272.162	82.31
272.394	84.31
272.626	93.31
272.858	95.31
273.09	98.31
273.322	71.31
273.553	88.31
273.785	75.31
274.017	73.31
274.249	82.31
274.481	92.31
274.713	84.31
274.945	67.31
275.176	82.31
275.408	97.31
275.64	83.31
275.872	79.31
276.104	91.31
276.335	85.31
276.567	96.31
276.799	101.31
277.031	119.31
277.262	83.31
277.494	99.31
277.726	68.31
277.957	78.31
278.189	86.31
278.421	80.31
278.652	84.31
278.884	83.31
279.115	80.31
279.347	102.31
279.579	92.31
279.81	86.31
280.042	94.31
280.273	93.31
280.505	78.31
280.736	87.31
280.968	84.31
281.199	89.31
281.431	84.31
281.662	77.31
281.894	91.31
282.125	102.31
282.356	112.31
282.588	136.31
282.819	116.31
283.051	97.31
283.282	84.31
283.513	97.31
283.745	108.31
283.976	98.31
284.207	97.31
284.439	86.31
284.67	90.31
284.901	80.31
285.132	94.31
285.364	82.31
285.595	81.31
285.826	72.31
286.057	104.31
286.288	91.31
286.52	82.31
286.751	92.31
286.982	91.31
287.213	92.31
287.444	89.31
287.675	83.31
287.906	81.31
288.138	97.31
288.369	84.31
288.6	81.31
288.831	90.31
289.062	95.31
289.293	75.31
289.524	70.31
289.755	78.31
289.986	86.31
290.217	97.31
290.448	75.31
290.679	75.31
290.91	85.31
291.141	66.31
291.371	74.31
291.602	88.31
291.833	96.31
292.064	80.31
292.295	92.31
292.526	80.31
292.757	90.31
292.987	91.31
293.218	85.31
293.449	89.31
293.68	84.31
293.91	84.31
294.141	86.31
294.372	89.31
294.603	80.31
294.833	80.31
295.064	91.31
295.295	98.31
295.525	85.31
295.756	113.31
295.987	119.31
296.217	137.31
296.448	120.31
296.679	99.31
296.909	87.31
297.14	89.31
297.37	89.31
297.601	87.31
297.831	88.31
298.062	84.31
298.292	94.31
298.523	89.31
298.753	85.31
298.984	74.31
299.214	77.31
299.445	100.31
299.675	93.31
299.905	94.31
300.136	98.31
300.366	88.31
300.597	86.31
300.827	101.31
301.057	107.31
301.288	103.31
301.518	83.31
301.748	91.31
301.979	89.31
302.209	94.31
302.439	90.31
302.669	86.31
302.9	77.31
303.13	84.31
303.36	87.31
303.59	101.31
303.82	93.31
304.051	88.31
304.281	84.31
304.511	79.31
304.741	77.31
304.971	87.31
305.201	92.31
305.431	92.31
305.661	93.31
305.891	87.31
306.121	98.31
306.352	100.31
306.582	100.31
306.812	103.31
307.042	90.31
307.272	107.31
307.502	94.31
307.731	83.31
307.961	101.31
308.191	94.31
308.421	87.31
308.651	85.31
308.881	98.31
309.111	95.31
309.341	90.31
309.571	100.31
309.8	88.31
310.03	107.31
310.26	107.31
310.49	94.31
310.72	88.31
310.949	122.31
311.179	92.31
311.409	76.31
311.639	87.31
311.868	89.31
312.098	84.31
312.328	97.31
312.557	96.31
312.787	97.31
313.017	97.31
313.246	107.31
313.476	95.31
313.706	87.31
313.935	103.31
314.165	94.31
314.394	99.31
314.624	92.31
314.853	99.31
315.083	99.31
315.312	75.31
315.542	76.31
315.771	103.31
316.001	89.31
316.23	94.31
316.46	82.31
316.689	87.31
316.919	83.31
317.148	96.31
317.377	88.31
317.607	81.31
317.836	84.31
318.065	97.31
318.295	83.31
318.524	84.31
318.753	94.31
318.983	98.31
319.212	115.31
319.441	109.31
319.67	110.31
319.9	92.31
320.129	90.31
320.358	83.31
320.587	92.31
320.816	98.31
321.046	105.31
321.275	92.31
321.504	99.31
321.733	111.31
321.962	96.31
322.191	94.31
322.42	108.31
322.649	108.31
322.878	128.31
323.108	129.31
323.337	137.31
323.566	141.31
323.795	157.31
324.024	208.31
324.253	412.31
324.482	855.31
324.71	1789.31
324.939	2342.31
325.168	862.31
325.397	241.31
325.626	158.31
325.855	126.31
326.084	130.31
326.313	131.31
326.542	170.31
326.77	236.31
326.999	477.31
327.228	1003.31
327.457	1843.31
327.686	1407.31
327.914	386.31
328.143	210.31
328.372	161.31
328.6	143.31
328.829	121.31
329.058	134.31
329.287	121.31
329.515	111.31
329.744	114.31
329.972	112.31
330.201	141.31
330.43	162.31
330.658	136.31
330.887	134.31
331.115	119.31
331.344	105.31
331.572	104.31
331.801	90.31
332.03	88.31
332.258	95.31
332.486	96.31
332.715	87.31
332.943	101.31
333.172	96.31
333.4	96.31
333.629	97.31
333.857	117.31
334.085	110.31
334.314	147.31
334.542	191.31
334.771	181.31
334.999	115.31
335.227	103.31
335.455	79.31
335.684	88.31
335.912	92.31
336.14	97.31
336.369	96.31
336.597	88.31
336.825	77.31
337.053	89.31
337.281	87.31
337.51	86.31
337.738	105.31
337.966	93.31
338.194	88.31
338.422	90.31
338.65	92.31
338.878	88.31
339.106	93.31
339.334	98.31
339.562	89.31
339.79	94.31
340.018	74.31
340.246	87.31
340.474	92.31
340.702	91.31
340.93	83.31
341.158	88.31
341.386	85.31
341.614	79.31
341.842	85.31
342.07	76.31
342.298	72.31
342.526	97.31
342.754	91.31
342.981	101.31
343.209	83.31
343.437	93.31
343.665	89.31
343.893	79.31
344.12	85.31
344.348	94.31
344.576	95.31
344.804	102.31
345.031	77.31
345.259	84.31
345.487	97.31
345.714	86.31
345.942	98.31
346.17	91.31
346.397	93.31
346.625	85.31
346.853	98.31
347.08	85.31
347.308	96.31
347.535	101.31
347.763	96.31
347.99	97.31
348.218	109.31
348.445	90.31
348.673	106.31
348.9	105.31
349.128	96.31
349.355	87.31
349.583	112.31
349.81	82.31
350.037	90.31
350.265	98.31
350.492	84.31
350.72	96.31
350.947	94.31
351.174	105.31
351.402	104.31
351.629	100.31
351.856	100.31
352.083	107.31
352.311	126.31
352.538	109.31
352.765	120.31
352.992	116.31
353.22	107.31
353.447	101.31
353.674	114.31
353.901	95.31
354.128	90.31
354.355	94.31
354.583	102.31
354.81	80.31
355.037	97.31
355.264	88.31
355.491	99.31
355.718	93.31
355.945	96.31
356.172	101.31
356.399	108.31
356.626	92.31
356.853	98.31
357.08	91.31
357.307	97.31
357.534	90.31
357.761	75.31
357.988	101.31
358.215	104.31
358.441	86.31
358.668	102.31
358.895	77.31
359.122	80.31
359.349	78.31
359.576	102.31
359.802	94.31
360.029	112.31
360.256	110.31
360.483	89.31
360.709	95.31
360.936	89.31
361.163	87.31
361.39	87.31
361.616	92.31
361.843	88.31
362.07	101.31
362.296	108.31
362.523	95.31
362.749	87.31
362.976	91.31
363.203	87.31
363.429	89.31
363.656	90.31
363.882	95.31
364.109	92.31
364.335	95.31
364.562	91.31
364.788	95.31
365.015	85.31
365.241	88.31
365.468	118.31
365.694	98.31
365.92	98.31
366.147	89.31
366.373	94.31
366.599	82.31
366.826	88.31
367.052	88.31
367.278	90.31
367.505	85.31
367.731	104.31
367.957	84.31
368.184	104.31
368.41	95.31
368.636	104.31
368.862	111.31
369.089	99.31
369.315	98.31
369.541	89.31
369.767	87.31
369.993	88.31
370.219	90.31
370.445	89.31
370.672	98.31
370.898	85.31
371.124	88.31
371.35	89.31
371.576	90.31
371.802	68.31
372.028	83.31
372.254	94.31
372.48	100.31
372.706	96.31
372.932	90.31
373.158	97.31
373.384	95.31
373.61	88.31
373.835	82.31
374.061	87.31
374.287	97.31
374.513	101.31
374.739	93.31
374.965	96.31
375.191	93.31
375.416	99.31
375.642	80.31
375.868	97.31
376.094	76.31
376.319	85.31
376.545	82.31
376.771	88.31
376.997	93.31
377.222	97.31
377.448	91.31
377.674	96.31
377.899	87.31
378.125	99.31
378.35	96.31
378.576	89.31
378.802	89.31
379.027	90.31
379.253	94.31
379.478	96.31
379.704	107.31
379.929	100.31
380.155	89.31
380.38	97.31
380.606	93.31
380.831	104.31
381.057	104.31
381.282	110.31
381.507	98.31
381.733	90.31
381.958	103.31
382.184	97.31
382.409	94.31
382.634	92.31
382.86	98.31
383.085	103.31
383.31	99.31
383.535	93.31
383.761	105.31
383.986	99.31
384.211	78.31
384.436	103.31
384.662	97.31
384.887	101.31
385.112	94.31
385.337	107.31
385.562	115.31
385.787	113.31
386.013	107.31
386.238	116.31
386.463	123.31
386.688	118.31
386.913	96.31
387.138	109.31
387.363	105.31
387.588	93.31
387.813	89.31
388.038	105.31
388.263	113.31
388.488	113.31
388.713	99.31
388.938	85.31
389.163	95.31
389.387	97.31
389.612	100.31
389.837	93.31
390.062	95.31
390.287	95.31
390.512	101.31
390.736	86.31
390.961	99.31
391.186	96.31
391.411	97.31
391.636	91.31
391.86	88.31
392.085	92.31
392.31	73.31
392.534	101.31
392.759	92.31
392.984	90.31
393.208	99.31
393.433	103.31
393.658	88.31
393.882	80.31
394.107	79.31
394.331	73.31
394.556	89.31
394.78	70.31
395.005	86.31
395.229	91.31
395.454	93.31
395.678	92.31
395.903	85.31
396.127	78.31
396.352	87.31
396.576	96.31
396.801	88.31
397.025	99.31
397.249	83.31
397.474	76.31
397.698	84.31
397.922	90.31
398.147	98.31
398.371	86.31
398.595	88.31
398.82	83.31
399.044	91.31
399.268	81.31
399.492	79.31
399.717	93.31
399.941	91.31
400.165	77.31
400.389	100.31
400.613	85.31
400.837	93.31
401.062	82.31
401.286	99.31
401.51	86.31
401.734	88.31
401.958	89.31
402.182	131.31
402.406	176.31
402.63	130.31
402.854	100.31
403.078	97.31
403.302	93.31
403.526	94.31
403.75	86.31
403.974	93.31
404.198	90.31
404.422	94.31
404.645	87.31
404.869	91.31
405.093	97.31
405.317	98.31
405.541	105.31
405.765	100.31
405.988	112.31
406.212	177.31
406.436	220.31
406.66	164.31
406.883	107.31
407.107	89.31
407.331	96.31
407.555	89.31
407.778	91.31
408.002	107.31
408.226	105.31
408.449	96.31
408.673	101.31
408.896	93.31
409.12	93.31
409.344	82.31
409.567	88.31
409.791	91.31
410.014	78.31
410.238	94.31
410.461	101.31
410.685	84.31
410.908	98.31
411.132	104.31
411.355	93.31
411.578	91.31
411.802	82.31
412.025	102.31
412.249	80.31
412.472	92.31
412.695	102.31
412.919	94.31
413.142	93.31
413.365	70.31
413.589	85.31
413.812	99.31
414.035	91.31
414.258	91.31
414.482	98.31
414.705	81.31
414.928	83.31
415.151	86.31
415.374	82.31
415.597	100.31
415.821	99.31
416.044	83.31
416.267	98.31
416.49	85.31
416.713	91.31
416.936	87.31
417.159	89.31
417.382	76.31
417.605	101.31
417.828	88.31
418.051	103.31
418.274	81.31
418.497	81.31
418.72	86.31
418.943	77.31
419.166	84.31
419.389	95.31
419.611	98.31
419.834	93.31
420.057	103.31
420.28	93.31
420.503	81.31
420.726	84.31
420.948	90.31
421.171	97.31
421.394	100.31
421.617	92.31
421.839	91.31
422.062	91.31
422.285	91.31
422.507	98.31
422.73	101.31
422.953	103.31
423.175	97.31
423.398	97.31
423.621	96.31
423.843	87.31
424.066	87.31
424.288	72.31
424.511	78.31
424.733	91.31
424.956	112.31
425.178	102.31
425.401	105.31
425.623	101.31
425.846	87.31
426.068	99.31
426.291	90.31
426.513	92.31
426.735	95.31
426.958	101.31
427.18	104.31
427.402	146.31
427.625	168.31
427.847	141.31
428.069	119.31
428.292	82.31
428.514	88.31
428.736	83.31
428.958	94.31
429.181	90.31
429.403	98.31
429.625	93.31
429.847	91.31
430.069	86.31
430.292	94.31
430.514	98.31
430.736	89.31
430.958	96.31
431.18	89.31
431.402	100.31
431.624	92.31
431.846	91.31
432.068	106.31
432.29	79.31
432.512	96.31
432.734	106.31
432.956	95.31
433.178	99.31
433.4	88.31
433.622	76.31
433.844	93.31
434.066	89.31
434.287	78.31
434.509	108.31
434.731	95.31
434.953	92.31
435.175	87.31
435.397	90.31
435.618	97.31
435.84	110.31
436.062	116.31
436.284	116.31
436.505	102.31
436.727	111.31
436.949	103.31
437.17	93.31
437.392	102.31
437.614	94.31
437.835	100.31
438.057	105.31
438.278	96.31
438.5	101.31
438.721	142.31
438.943	105.31
439.165	78.31
439.386	77.31
439.608	90.31
439.829	87.31
440.05	117.31
440.272	130.31
440.493	105.31
440.715	82.31
440.936	90.31
441.158	81.31
441.379	88.31
441.6	83.31
441.822	87.31
442.043	86.31
442.264	108.31
442.486	100.31
442.707	89.31
442.928	108.31
443.149	123.31
443.371	128.31
443.592	101.31
443.813	99.31
444.034	100.31
444.255	89.31
444.476	86.31
444.698	88.31
444.919	90.31
445.14	136.31
445.361	126.31
445.582	116.31
445.803	151.31
446.024	136.31
446.245	144.31
446.466	107.31
446.687	94.31
446.908	76.31
447.129	87.31
447.35	106.31
447.571	94.31
447.792	93.31
448.013	106.31
448.234	99.31
448.455	95.31
448.675	114.31
448.896	119.31
449.117	107.31
449.338	104.31
449.559	137.31
449.779	133.31
450	92.31
450.221	83.31
450.442	88.31
450.662	88.31
450.883	100.31
451.104	119.31
451.324	97.31
451.545	86.31
451.766	91.31
451.986	89.31
452.207	94.31
452.428	109.31
452.648	88.31
452.869	107.31
453.089	114.31
453.31	109.31
453.53	101.31
453.751	99.31
453.971	94.31
454.192	114.31
454.412	89.31
454.633	86.31
454.853	85.31
455.073	86.31
455.294	98.31
455.514	82.31
455.734	84.31
455.955	91.31
456.175	86.31
456.395	75.31
456.616	68.31
456.836	80.31
457.056	88.31
457.276	82.31
457.497	87.31
457.717	80.31
457.937	86.31
458.157	92.31
458.377	82.31
458.598	101.31
458.818	140.31
459.038	150.31
459.258	123.31
459.478	108.31
459.698	85.31
459.918	93.31
460.138	77.31
460.358	87.31
460.578	98.31
460.798	73.31
461.018	85.31
461.238	71.31
461.458	89.31
461.678	80.31
461.898	86.31
462.118	100.31
462.338	90.31
462.558	96.31
462.777	76.31
462.997	84.31
463.217	94.31
463.437	106.31
463.657	88.31
463.876	77.31
464.096	86.31
464.316	95.31
464.536	98.31
464.755	101.31
464.975	101.31
465.195	165.31
465.414	169.31
465.634	103.31
465.854	85.31
466.073	92.31
466.293	73.31
466.512	87.31
466.732	90.31
466.951	87.31
467.171	97.31
467.391	81.31
467.61	95.31
467.829	101.31
468.049	125.31
468.268	120.31
468.488	92.31
468.707	90.31
468.927	88.31
469.146	94.31
469.365	91.31
469.585	90.31
469.804	95.31
470.023	98.31
470.243	93.31
470.462	98.31
470.681	132.31
470.901	101.31
471.12	91.31
471.339	88.31
471.558	82.31
471.777	78.31
471.997	100.31
472.216	142.31
472.435	222.31
472.654	128.31
472.873	100.31
473.092	93.31
473.311	89.31
473.53	85.31
473.749	85.31
473.968	90.31
474.187	97.31
474.406	89.31
474.625	88.31
474.844	69.31
475.063	85.31
475.282	85.31
475.501	76.31
475.72	88.31
475.939	76.31
476.158	90.31
476.377	78.31
476.596	82.31
476.814	93.31
477.033	95.31
477.252	84.31
477.471	82.31
477.69	91.31
477.908	89.31
478.127	87.31
478.346	99.31
478.564	77.31
478.783	113.31
479.002	104.31
479.22	97.31
479.439	105.31
479.658	114.31
479.876	93.31
480.095	89.31
480.313	107.31
480.532	91.31
480.751	96.31
480.969	142.31
481.188	318.31
481.406	230.31
481.624	104.31
481.843	91.31
482.061	92.31
482.28	96.31
482.498	91.31
482.717	93.31
482.935	103.31
483.153	78.31
483.372	87.31
483.59	86.31
483.808	94.31
484.027	94.31
484.245	104.31
484.463	97.31
484.681	111.31
484.9	94.31
485.118	104.31
485.336	76.31
485.554	98.31
485.772	105.31
485.99	117.31
486.209	106.31
486.427	118.31
486.645	122.31
486.863	105.31
487.081	108.31
487.299	111.31
487.517	101.31
487.735	94.31
487.953	81.31
488.171	83.31
488.389	83.31
488.607	103.31
488.825	110.31
489.043	99.31
489.261	113.31
489.479	99.31
489.696	92.31
489.914	91.31
490.132	86.31
490.35	100.31
490.568	87.31
490.786	97.31
491.003	86.31
491.221	92.31
491.439	84.31
491.657	93.31
491.874	95.31
492.092	86.31
492.31	82.31
492.527	90.31
492.745	87.31
492.963	98.31
493.18	98.31
493.398	86.31
493.615	97.31
493.833	90.31
494.05	93.31
494.268	93.31
494.485	82.31
494.703	88.31
494.92	85.31
495.138	82.31
495.355	105.31
495.573	99.31
495.79	92.31
496.008	86.31
496.225	95.31
496.442	88.31
496.66	76.31
496.877	103.31
497.094	103.31
497.312	86.31
497.529	80.31
497.746	88.31
497.963	82.31
498.181	101.31
498.398	106.31
498.615	104.31
498.832	83.31
499.049	85.31
499.267	82.31
499.484	96.31
499.701	89.31
499.918	77.31
500.135	96.31
500.352	89.31
500.569	96.31
500.786	99.31
501.003	94.31
501.22	82.31
501.437	103.31
501.654	103.31
501.871	84.31
502.088	85.31
502.305	87.31
502.522	106.31
502.739	91.31
502.956	103.31
503.172	89.31
503.389	93.31
503.606	100.31
503.823	94.31
504.04	114.31
504.256	105.31
504.473	99.31
504.69	96.31
504.907	116.31
505.123	96.31
505.34	75.31
505.557	82.31
505.773	89.31
505.99	78.31
506.207	91.31
506.423	88.31
506.64	98.31
506.856	90.31
507.073	97.31
507.289	91.31
507.506	99.31
507.722	120.31
507.939	118.31
508.155	100.31
508.372	96.31
508.588	97.31
508.805	92.31
509.021	88.31
509.238	109.31
509.454	89.31
509.67	89.31
509.887	103.31
510.103	135.31
510.319	228.31
510.536	770.31
510.752	2554.31
510.968	722.31
511.184	154.31
511.401	103.31
511.617	83.31
511.833	102.31
512.049	103.31
512.265	86.31
512.481	100.31
512.698	93.31
512.914	98.31
513.13	103.31
513.346	91.31
513.562	103.31
513.778	99.31
513.994	112.31
514.21	102.31
514.426	107.31
514.642	119.31
514.858	120.31
515.074	169.31
515.29	450.31
515.506	1505.31
515.721	583.31
515.937	154.31
516.153	102.31
516.369	90.31
516.585	100.31
516.801	97.31
517.016	104.31
517.232	87.31
517.448	97.31
517.664	91.31
517.879	93.31
518.095	87.31
518.311	88.31
518.527	96.31
518.742	102.31
518.958	99.31
519.173	100.31
519.389	108.31
519.605	100.31
519.82	91.31
520.036	108.31
520.251	115.31
520.467	89.31
520.682	93.31
520.898	109.31
521.113	105.31
521.329	137.31
521.544	209.31
521.76	546.31
521.975	2461.31
522.19	1554.31
522.406	335.31
522.621	124.31
522.836	100.31
523.052	95.31
523.267	108.31
523.482	99.31
523.698	108.31
523.913	114.31
524.128	104.31
524.343	82.31
524.559	93.31
524.774	85.31
524.989	95.31
525.204	112.31
525.419	98.31
525.634	85.31
525.849	83.31
526.064	92.31
526.28	96.31
526.495	99.31
526.71	76.31
526.925	101.31
527.14	96.31
527.355	97.31
527.57	94.31
527.785	91.31
527.999	85.31
528.214	85.31
528.429	104.31
528.644	99.31
528.859	92.31
529.074	83.31
529.289	121.31
529.503	166.31
529.718	98.31
529.933	88.31
530.148	87.31
530.363	101.31
530.577	93.31
530.792	97.31
531.007	93.31
531.221	85.31
531.436	95.31
531.651	98.31
531.865	91.31
532.08	99.31
532.295	100.31
532.509	82.31
532.724	86.31
532.938	98.31
533.153	92.31
533.367	94.31
533.582	100.31
533.796	91.31
534.011	84.31
534.225	89.31
534.44	80.31
534.654	86.31
534.868	87.31
535.083	87.31
535.297	108.31
535.511	103.31
535.726	95.31
535.94	105.31
536.154	98.31
536.369	94.31
536.583	108.31
536.797	97.31
537.011	89.31
537.225	77.31
537.44	93.31
537.654	93.31
537.868	81.31
538.082	85.31
538.296	100.31
538.51	94.31
538.724	84.31
538.938	89.31
539.153	102.31
539.367	113.31
539.581	111.31
539.795	94.31
540.009	88.31
540.222	95.31
540.436	93.31
540.65	80.31
540.864	101.31
541.078	102.31
541.292	91.31
541.506	88.31
541.72	80.31
541.934	94.31
542.147	93.31
542.361	90.31
542.575	93.31
542.789	83.31
543.002	91.31
543.216	89.31
543.43	94.31
543.644	99.31
543.857	85.31
544.071	93.31
544.285	90.31
544.498	80.31
544.712	96.31
544.925	82.31
545.139	85.31
545.352	74.31
545.566	89.31
545.779	89.31
545.993	82.31
546.206	90.31
546.42	88.31
546.633	78.31
546.847	91.31
547.06	93.31
547.274	97.31
547.487	78.31
547.7	74.31
547.914	89.31
548.127	72.31
548.34	83.31
548.554	83.31
548.767	66.31
548.98	88.31
549.193	88.31
549.407	97.31
549.62	92.31
549.833	77.31
550.046	87.31
550.259	92.31
550.473	90.31
550.686	88.31
550.899	96.31
551.112	97.31
551.325	87.31
551.538	83.31
551.751	87.31
551.964	92.31
552.177	95.31
552.39	84.31
552.603	96.31
552.816	94.31
553.029	70.31
553.242	82.31
553.455	89.31
553.667	114.31
553.88	101.31
554.093	89.31
554.306	93.31
554.519	93.31
554.732	101.31
554.944	87.31
555.157	75.31
555.37	88.31
555.583	90.31
555.795	101.31
556.008	92.31
556.221	86.31
556.433	103.31
556.646	96.31
556.859	83.31
557.071	88.31
557.284	97.31
557.496	80.31
557.709	76.31
557.921	90.31
558.134	91.31
558.346	97.31
558.559	76.31
558.771	71.31
558.984	93.31
559.196	96.31
559.409	99.31
559.621	84.31
559.833	92.31
560.046	88.31
560.258	87.31
560.47	88.31
560.683	89.31
560.895	90.31
561.107	90.31
561.32	87.31
561.532	105.31
561.744	82.31
561.956	93.31
562.168	78.31
562.381	84.31
562.593	99.31
562.805	93.31
563.017	96.31
563.229	94.31
563.441	67.31
563.653	89.31
563.865	102.31
564.077	80.31
564.289	92.31
564.501	104.31
564.713	84.31
564.925	104.31
565.137	101.31
565.349	99.31
565.561	82.31
565.773	87.31
565.985	78.31
566.197	80.31
566.408	82.31
566.62	85.31
566.832	91.31
567.044	84.31
567.255	85.31
567.467	81.31
567.679	84.31
567.891	91.31
568.102	96.31
568.314	79.31
568.526	88.31
568.737	100.31
568.949	73.31
569.161	92.31
569.372	104.31
569.584	94.31
569.795	89.31
570.007	126.31
570.218	258.31
570.43	147.31
570.641	95.31
570.853	78.31
571.064	79.31
571.276	78.31
571.487	85.31
571.698	72.31
571.91	90.31
572.121	94.31
572.333	101.31
572.544	88.31
572.755	86.31
572.966	77.31
573.178	102.31
573.389	83.31
573.6	81.31
573.811	78.31
574.023	90.31
574.234	90.31
574.445	85.31
574.656	90.31
574.867	89.31
575.078	84.31
575.289	92.31
575.501	71.31
575.712	91.31
575.923	91.31
576.134	92.31
576.345	90.31
576.556	102.31
576.767	94.31
576.978	104.31
577.188	97.31
577.399	86.31
577.61	89.31
577.821	104.31
578.032	113.31
578.243	251.31
578.454	769.31
578.665	221.31
578.875	116.31
579.086	86.31
579.297	88.31
579.508	76.31
579.718	87.31
579.929	95.31
580.14	79.31
580.35	76.31
580.561	105.31
580.772	85.31
580.982	82.31
581.193	99.31
581.403	82.31
581.614	89.31
581.825	96.31
582.035	97.31
582.246	87.31
582.456	73.31
582.667	83.31
582.877	83.31
583.087	95.31
583.298	98.31
583.508	80.31
583.719	89.31
583.929	90.31
584.139	88.31
584.35	75.31
584.56	87.31
584.77	78.31
584.981	103.31
585.191	93.31
585.401	87.31
585.611	89.31
585.821	89.31
586.032	92.31
586.242	98.31
586.452	84.31
586.662	94.31
586.872	82.31
587.082	87.31
587.292	86.31
587.502	84.31
587.713	77.31
587.923	88.31
588.133	87.31
588.343	90.31
588.553	88.31
588.762	96.31
588.972	102.31
589.182	139.31
589.392	104.31
589.602	94.31
589.812	137.31
590.022	87.31
590.232	82.31
590.441	97.31
590.651	89.31
590.861	84.31
591.071	99.31
591.281	80.31
591.49	78.31
591.7	88.31
591.91	102.31
592.119	100.31
592.329	99.31
592.539	99.31
592.748	97.31
592.958	82.31
593.167	78.31
593.377	83.31
593.587	84.31
593.796	80.31
594.006	87.31
594.215	84.31
594.424	91.31
594.634	78.31
594.843	92.31
595.053	81.31
595.262	97.31
595.472	89.31
595.681	87.31
595.89	101.31
596.1	103.31
596.309	100.31
596.518	75.31
596.727	90.31
596.937	82.31
597.146	91.31
597.355	90.31
597.564	95.31
597.774	89.31
597.983	77.31
598.192	75.31
598.401	59.31
598.61	90.31
598.819	87.31
599.028	93.31
599.237	108.31
599.446	91.31
599.655	80.31
599.864	86.31
600.073	88.31
600.282	102.31
600.491	92.31
600.7	85.31
600.909	90.31
601.118	83.31
601.327	87.31
601.536	85.31
601.745	82.31
601.953	96.31
602.162	82.31
602.371	82.31
602.58	80.31
602.789	87.31
602.997	87.31
603.206	98.31
603.415	73.31
603.623	89.31
603.832	76.31
604.041	89.31
604.249	79.31
604.458	80.31
604.666	77.31
604.875	97.31
605.084	75.31
605.292	84.31
605.501	78.31
605.709	80.31
605.918	84.31
606.126	87.31
606.334	81.31
606.543	97.31
606.751	84.31
606.96	87.31
607.168	80.31
607.376	91.31
607.585	100.31
607.793	77.31
608.001	99.31
608.21	83.31
608.418	93.31
608.626	76.31
608.834	82.31
609.043	84.31
609.251	92.31
609.459	89.31
609.667	83.31
609.875	92.31
610.083	78.31
610.291	87.31
610.499	89.31
610.707	89.31
610.916	67.31
611.124	86.31
611.332	83.31
611.54	92.31
611.748	87.31
611.955	94.31
612.163	98.31
612.371	89.31
612.579	75.31
612.787	80.31
612.995	78.31
613.203	90.31
613.411	87.31
613.618	71.31
613.826	88.31
614.034	78.31
614.242	77.31
614.449	88.31
614.657	85.31
614.865	77.31
615.072	84.31
615.28	93.31
615.488	88.31
615.695	91.31
615.903	96.31
616.111	86.31
616.318	102.31
616.526	85.31
616.733	84.31
616.941	92.31
617.148	91.31
617.356	100.31
617.563	91.31
617.771	78.31
617.978	72.31
618.185	87.31
618.393	81.31
618.6	79.31
618.807	94.31
619.015	96.31
619.222	88.31
619.429	70.31
619.637	80.31
619.844	87.31
620.051	102.31
620.258	82.31
620.466	86.31
620.673	80.31
620.88	86.31
621.087	88.31
621.294	81.31
621.501	72.31
621.708	80.31
621.915	84.31
622.122	85.31
622.329	81.31
622.536	81.31
622.743	79.31
622.95	77.31
623.157	78.31
623.364	90.31
623.571	81.31
623.778	73.31
623.985	84.31
624.192	82.31
624.399	83.31
624.606	83.31
624.812	72.31
625.019	90.31
625.226	84.31
625.433	89.31
625.639	72.31
625.846	72.31
626.053	87.31
626.259	79.31
626.466	101.31
626.673	73.31
626.879	80.31
627.086	85.31
627.293	86.31
627.499	73.31
627.706	69.31
627.912	84.31
628.119	92.31
628.325	77.31
628.532	85.31
628.738	84.31
628.945	84.31
629.151	73.31
629.357	81.31
629.564	94.31
629.77	84.31
629.976	89.31
630.183	83.31
630.389	70.31
630.595	76.31
630.802	71.31
631.008	85.31
631.214	82.31
631.42	96.31
631.627	83.31
631.833	82.31
632.039	87.31
632.245	80.31
632.451	81.31
632.657	88.31
632.863	95.31
633.069	82.31
633.275	90.31
633.481	80.31
633.688	76.31
633.893	85.31
634.099	89.31
634.305	71.31
634.511	86.31
634.717	77.31
634.923	79.31
635.129	75.31
635.335	92.31
635.541	71.31
635.747	75.31
635.952	80.31
636.158	81.31
636.364	88.31
636.57	93.31
636.775	80.31
636.981	78.31
637.187	82.31
637.392	80.31
637.598	76.31
637.804	84.31
638.009	95.31
638.215	87.31
638.421	79.31
638.626	83.31
638.832	69.31
639.037	82.31
639.243	81.31
639.448	80.31
639.654	82.31
639.859	79.31
640.065	93.31
640.27	98.31
640.475	89.31
640.681	81.31
640.886	80.31
641.091	86.31
641.297	87.31
641.502	86.31
641.707	87.31
641.913	77.31
642.118	84.31
642.323	87.31
642.528	89.31
642.733	97.31
642.939	86.31
643.144	84.31
643.349	76.31
643.554	95.31
643.759	96.31
643.964	94.31
644.169	101.31
644.374	78.31
644.579	86.31
644.784	81.31
644.989	103.31
645.194	81.31
645.399	90.31
645.604	96.31
645.809	80.31
646.014	77.31
646.219	80.31
646.423	80.31
646.628	79.31
646.833	85.31
647.038	85.31
647.243	90.31
647.447	85.31
647.652	88.31
647.857	98.31
648.062	82.31
648.266	90.31
648.471	90.31
648.676	98.31
648.88	92.31
649.085	106.31
649.289	85.31
649.494	109.31
649.698	130.31
649.903	123.31
650.107	93.31
650.312	77.31
650.516	77.31
650.721	80.31
650.925	87.31
651.13	68.31
651.334	82.31
651.539	94.31
651.743	85.31
651.947	84.31
652.152	88.31
652.356	83.31
652.56	82.31
652.764	87.31
652.969	87.31
653.173	94.31
653.377	81.31
653.581	79.31
653.785	84.31
653.99	90.31
654.194	93.31
654.398	91.31
654.602	84.31
654.806	75.31
655.01	89.31
655.214	95.31
655.418	87.31
655.622	81.31
655.826	85.31
656.03	99.31
656.234	90.31
656.438	90.31
656.642	102.31
656.846	82.31
657.049	77.31
657.253	88.31
657.457	85.31
657.661	81.31
657.865	88.31
658.068	87.31
658.272	83.31
658.476	77.31
658.68	80.31
658.883	81.31
659.087	71.31
659.291	100.31
659.494	77.31
659.698	68.31
659.901	88.31
660.105	89.31
660.309	74.31
660.512	78.31
660.716	84.31
660.919	75.31
661.123	93.31
661.326	84.31
661.53	88.31
661.733	86.31
661.936	79.31
662.14	72.31
662.343	91.31
662.546	94.31
662.75	83.31
662.953	93.31
663.156	84.31
663.36	92.31
663.563	93.31
663.766	86.31
663.969	89.31
664.173	95.31
664.376	101.31
664.579	88.31
664.782	78.31
664.985	87.31
665.188	80.31
665.391	76.31
665.594	76.31
665.797	79.31
666	75.31
666.203	83.31
666.406	88.31
666.609	86.31
666.812	76.31
667.015	81.31
667.218	77.31
667.421	85.31
667.624	78.31
667.827	81.31
668.03	78.31
668.232	92.31
668.435	91.31
668.638	87.31
668.841	85.31
669.043	69.31
669.246	78.31
669.449	89.31
669.651	92.31
669.854	84.31
670.057	85.31
670.259	91.31
670.462	66.31
670.665	80.31
670.867	89.31
671.07	91.31
671.272	83.31
671.475	88.31
671.677	78.31
671.88	88.31
672.082	81.31
672.284	76.31
672.487	67.31
672.689	79.31
672.892	82.31
