Data from Circ_2016_H10_HRD10591_00072.txt Node
Date: Wed Jan 03 09:58:55 EST 2024
User: Yrep
Spectrometer: HR+D1059
Trigger mode: 1
Integration Time (sec): 1.000000E-1
Scans to average: 1
Electric dark correction enabled: true
Nonlinearity correction enabled: false
Boxcar width: 0
XAxis mode: Wavelengths
Number of Pixels in Spectrum: 2048
>>>>>Begin Spectral Data<<<<<
223.165	-20.62
223.4	-20.62
223.635	-20.62
223.869	-29.62
224.104	-23.62
224.338	-17.62
224.573	-7.62
224.808	-5.62
225.042	-0.62
225.277	-5.62
225.511	-2.62
225.746	3.38
225.98	4.38
226.215	14.38
226.449	-3.62
226.683	26.38
226.918	37.38
227.152	31.38
227.387	31.38
227.621	28.38
227.856	48.38
228.09	57.38
228.324	45.38
228.559	56.38
228.793	165.38
229.027	447.38
229.262	497.38
229.496	608.38
229.73	806.38
229.964	807.38
230.199	532.38
230.433	473.38
230.667	467.38
230.901	474.38
231.136	439.38
231.37	458.38
231.604	442.38
231.838	467.38
232.072	451.38
232.306	460.38
232.541	468.38
232.775	476.38
233.009	468.38
233.243	481.38
233.477	471.38
233.711	505.38
233.945	523.38
234.179	505.38
234.413	495.38
234.647	503.38
234.881	525.38
235.115	521.38
235.349	544.38
235.583	553.38
235.817	589.38
236.051	643.38
236.285	621.38
236.519	640.38
236.753	708.38
236.987	942.38
237.221	1335.38
237.455	1445.38
237.689	909.38
237.922	720.38
238.156	709.38
238.39	671.38
238.624	631.38
238.858	650.38
239.091	643.38
239.325	651.38
239.559	688.38
239.793	725.38
240.027	761.38
240.26	905.38
240.494	952.38
240.728	967.38
240.961	915.38
241.195	818.38
241.429	797.38
241.662	761.38
241.896	768.38
242.13	768.38
242.363	765.38
242.597	812.38
242.83	828.38
243.064	834.38
243.298	859.38
243.531	821.38
243.765	856.38
243.998	843.38
244.232	868.38
244.465	892.38
244.699	915.38
244.932	910.38
245.166	895.38
245.399	898.38
245.633	934.38
245.866	932.38
246.099	950.38
246.333	957.38
246.566	939.38
246.8	953.38
247.033	1029.38
247.266	1072.38
247.5	1120.38
247.733	1157.38
247.966	1137.38
248.2	1172.38
248.433	1162.38
248.666	1231.38
248.899	1349.38
249.133	1443.38
249.366	1425.38
249.599	1353.38
249.832	1247.38
250.066	1275.38
250.299	1385.38
250.532	1527.38
250.765	1664.38
250.998	1787.38
251.231	1678.38
251.465	1508.38
251.698	1425.38
251.931	1415.38
252.164	1386.38
252.397	1429.38
252.63	1467.38
252.863	1540.38
253.096	1678.38
253.329	1722.38
253.562	1619.38
253.795	1584.38
254.028	1555.38
254.261	1622.38
254.494	1831.38
254.727	2180.38
254.96	2277.38
255.193	1960.38
255.426	1813.38
255.659	1783.38
255.892	1884.38
256.124	2010.38
256.357	1970.38
256.59	1774.38
256.823	1628.38
257.056	1604.38
257.289	1602.38
257.521	1615.38
257.754	1570.38
257.987	1560.38
258.22	1540.38
258.452	1548.38
258.685	1574.38
258.918	1578.38
259.151	1638.38
259.383	1676.38
259.616	1732.38
259.849	1760.38
260.081	1939.38
260.314	2136.38
260.547	2010.38
260.779	1825.38
261.012	1770.38
261.244	1753.38
261.477	1716.38
261.71	1705.38
261.942	1784.38
262.175	1795.38
262.407	1717.38
262.64	1686.38
262.872	1659.38
263.105	1668.38
263.337	1651.38
263.57	1659.38
263.802	1680.38
264.035	1667.38
264.267	1692.38
264.499	1688.38
264.732	1691.38
264.964	1675.38
265.197	1714.38
265.429	1753.38
265.661	1736.38
265.894	1745.38
266.126	1785.38
266.358	1782.38
266.591	1799.38
266.823	1886.38
267.055	1918.38
267.287	1858.38
267.52	1831.38
267.752	1885.38
267.984	1873.38
268.216	1903.38
268.448	1929.38
268.681	2021.38
268.913	2141.38
269.145	2320.38
269.377	2342.38
269.609	2288.38
269.841	2327.38
270.073	2389.38
270.306	2667.38
270.538	2808.38
270.77	2676.38
271.002	2517.38
271.234	2493.38
271.466	2635.38
271.698	2796.38
271.93	2728.38
272.162	2756.38
272.394	2616.38
272.626	2546.38
272.858	2396.38
273.09	2359.38
273.322	2309.38
273.553	2208.38
273.785	2266.38
274.017	2240.38
274.249	2239.38
274.481	2257.38
274.713	2270.38
274.945	2337.38
275.176	2297.38
275.408	2291.38
275.64	2292.38
275.872	2254.38
276.104	2299.38
276.335	2385.38
276.567	2439.38
276.799	2616.38
277.031	2871.38
277.262	2956.38
277.494	2808.38
277.726	2674.38
277.957	2524.38
278.189	2467.38
278.421	2402.38
278.652	2434.38
278.884	2432.38
279.115	2375.38
279.347	2433.38
279.579	2394.38
279.81	2443.38
280.042	2428.38
280.273	2471.38
280.505	2427.38
280.736	2409.38
280.968	2456.38
281.199	2464.38
281.431	2492.38
281.662	2485.38
281.894	2486.38
282.125	2585.38
282.356	2714.38
282.588	2891.38
282.819	2695.38
283.051	2586.38
283.282	2543.38
283.513	2622.38
283.745	2651.38
283.976	2666.38
284.207	2706.38
284.439	2660.38
284.67	2652.38
284.901	2654.38
285.132	2644.38
285.364	2631.38
285.595	2673.38
285.826	2659.38
286.057	2760.38
286.288	2731.38
286.52	2759.38
286.751	2773.38
286.982	2730.38
287.213	2746.38
287.444	2782.38
287.675	2840.38
287.906	2915.38
288.138	2979.38
288.369	2903.38
288.6	2940.38
288.831	2903.38
289.062	2877.38
289.293	2865.38
289.524	2835.38
289.755	2808.38
289.986	2809.38
290.217	2824.38
290.448	2820.38
290.679	2865.38
290.91	2837.38
291.141	2781.38
291.371	2828.38
291.602	2875.38
291.833	2806.38
292.064	2877.38
292.295	2854.38
292.526	2827.38
292.757	2847.38
292.987	2843.38
293.218	2863.38
293.449	2905.38
293.68	2915.38
293.91	2864.38
294.141	2875.38
294.372	2880.38
294.603	2900.38
294.833	2881.38
295.064	2925.38
295.295	2879.38
295.525	2962.38
295.756	3005.38
295.987	3065.38
296.217	3239.38
296.448	3199.38
296.679	3018.38
296.909	2947.38
297.14	3008.38
297.37	3078.38
297.601	3097.38
297.831	3013.38
298.062	3073.38
298.292	3094.38
298.523	3174.38
298.753	3146.38
298.984	3056.38
299.214	3138.38
299.445	3141.38
299.675	3164.38
299.905	3194.38
300.136	3167.38
300.366	3172.38
300.597	3221.38
300.827	3317.38
301.057	3414.38
301.288	3401.38
301.518	3380.38
301.748	3336.38
301.979	3407.38
302.209	3454.38
302.439	3399.38
302.669	3398.38
302.9	3345.38
303.13	3281.38
303.36	3392.38
303.59	3427.38
303.82	3463.38
304.051	3392.38
304.281	3312.38
304.511	3330.38
304.741	3335.38
304.971	3358.38
305.201	3334.38
305.431	3303.38
305.661	3268.38
305.891	3256.38
306.121	3331.38
306.352	3359.38
306.582	3349.38
306.812	3273.38
307.042	3308.38
307.272	3307.38
307.502	3292.38
307.731	3341.38
307.961	3349.38
308.191	3345.38
308.421	3351.38
308.651	3391.38
308.881	3366.38
309.111	3391.38
309.341	3417.38
309.571	3456.38
309.8	3556.38
310.03	3650.38
310.26	3635.38
310.49	3645.38
310.72	3742.38
310.949	3856.38
311.179	3786.38
311.409	3608.38
311.639	3745.38
311.868	3727.38
312.098	3765.38
312.328	3805.38
312.557	3940.38
312.787	3959.38
313.017	3898.38
313.246	3883.38
313.476	3831.38
313.706	3851.38
313.935	3882.38
314.165	4020.38
314.394	4035.38
314.624	3943.38
314.853	3866.38
315.083	3810.38
315.312	3812.38
315.542	3820.38
315.771	3718.38
316.001	3648.38
316.23	3700.38
316.46	3757.38
316.689	3830.38
316.919	3865.38
317.148	3837.38
317.377	3810.38
317.607	3828.38
317.836	3767.38
318.065	3733.38
318.295	3763.38
318.524	3730.38
318.753	3716.38
318.983	3749.38
319.212	3718.38
319.441	3816.38
319.67	3829.38
319.9	3795.38
320.129	3769.38
320.358	3800.38
320.587	3834.38
320.816	3857.38
321.046	3927.38
321.275	3906.38
321.504	3855.38
321.733	3950.38
321.962	3985.38
322.191	4088.38
322.42	4194.38
322.649	4298.38
322.878	4350.38
323.108	4395.38
323.337	4674.38
323.566	4868.38
323.795	5179.38
324.024	5812.38
324.253	7683.38
324.482	11541.38
324.71	15559.38
324.939	15597.38
325.168	13423.38
325.397	6843.38
325.626	5443.38
325.855	5060.38
326.084	4932.38
326.313	5001.38
326.542	5109.38
326.77	5773.38
326.999	7398.38
327.228	10858.38
327.457	14731.38
327.686	13929.38
327.914	7679.38
328.143	6245.38
328.372	5935.38
328.6	5517.38
328.829	5417.38
329.058	5625.38
329.287	5529.38
329.515	5220.38
329.744	5161.38
329.972	5377.38
330.201	5674.38
330.43	6032.38
330.658	5986.38
330.887	6060.38
331.115	5587.38
331.344	5150.38
331.572	5082.38
331.801	5125.38
332.03	5155.38
332.258	5021.38
332.486	5076.38
332.715	5237.38
332.943	5306.38
333.172	5503.38
333.4	5671.38
333.629	5883.38
333.857	6072.38
334.085	6153.38
334.314	6444.38
334.542	6722.38
334.771	6649.38
334.999	5797.38
335.227	5478.38
335.455	5344.38
335.684	5220.38
335.912	5209.38
336.14	5057.38
336.369	5140.38
336.597	5123.38
336.825	5027.38
337.053	5003.38
337.281	4834.38
337.51	4837.38
337.738	4827.38
337.966	4774.38
338.194	4826.38
338.422	4683.38
338.65	4635.38
338.878	4612.38
339.106	4598.38
339.334	4616.38
339.562	4521.38
339.79	4473.38
340.018	4412.38
340.246	4409.38
340.474	4474.38
340.702	4433.38
340.93	4443.38
341.158	4516.38
341.386	4512.38
341.614	4489.38
341.842	4407.38
342.07	4318.38
342.298	4420.38
342.526	4319.38
342.754	4329.38
342.981	4392.38
343.209	4503.38
343.437	4746.38
343.665	5006.38
343.893	5206.38
344.12	5136.38
344.348	4995.38
344.576	4888.38
344.804	4735.38
345.031	4701.38
345.259	4724.38
345.487	4520.38
345.714	4435.38
345.942	4331.38
346.17	4313.38
346.397	4266.38
346.625	4209.38
346.853	4289.38
347.08	4338.38
347.308	4361.38
347.535	4370.38
347.763	4463.38
347.99	4340.38
348.218	4408.38
348.445	4387.38
348.673	4326.38
348.9	4244.38
349.128	4225.38
349.355	4120.38
349.583	4138.38
349.81	4126.38
350.037	4074.38
350.265	4129.38
350.492	4114.38
350.72	4108.38
350.947	4160.38
351.174	4233.38
351.402	4263.38
351.629	4277.38
351.856	4283.38
352.083	4319.38
352.311	4244.38
352.538	4356.38
352.765	4371.38
352.992	4248.38
353.22	4209.38
353.447	4132.38
353.674	4129.38
353.901	4011.38
354.128	4045.38
354.355	4039.38
354.583	4049.38
354.81	3961.38
355.037	3985.38
355.264	3975.38
355.491	3951.38
355.718	3994.38
355.945	4054.38
356.172	4075.38
356.399	3989.38
356.626	4006.38
356.853	3987.38
357.08	4015.38
357.307	4049.38
357.534	3981.38
357.761	4045.38
357.988	4051.38
358.215	4025.38
358.441	4097.38
358.668	4040.38
358.895	4156.38
359.122	4153.38
359.349	4229.38
359.576	4345.38
359.802	4587.38
360.029	4697.38
360.256	4680.38
360.483	4480.38
360.709	4300.38
360.936	4295.38
361.163	4298.38
361.39	4256.38
361.616	4291.38
361.843	4238.38
362.07	4239.38
362.296	4282.38
362.523	4223.38
362.749	4310.38
362.976	4203.38
363.203	4169.38
363.429	4081.38
363.656	4119.38
363.882	4183.38
364.109	4097.38
364.335	4111.38
364.562	4118.38
364.788	4126.38
365.015	4126.38
365.241	4136.38
365.468	4113.38
365.694	4208.38
365.92	4167.38
366.147	4107.38
366.373	4121.38
366.599	4097.38
366.826	4055.38
367.052	4105.38
367.278	4146.38
367.505	4171.38
367.731	4182.38
367.957	4131.38
368.184	4197.38
368.41	4259.38
368.636	4317.38
368.862	4346.38
369.089	4255.38
369.315	4223.38
369.541	4178.38
369.767	4268.38
369.993	4289.38
370.219	4335.38
370.445	4288.38
370.672	4290.38
370.898	4330.38
371.124	4311.38
371.35	4378.38
371.576	4348.38
371.802	4373.38
372.028	4320.38
372.254	4383.38
372.48	4419.38
372.706	4523.38
372.932	4547.38
373.158	4416.38
373.384	4409.38
373.61	4459.38
373.835	4490.38
374.061	4509.38
374.287	4570.38
374.513	4587.38
374.739	4749.38
374.965	4763.38
375.191	4855.38
375.416	4784.38
375.642	4573.38
375.868	4584.38
376.094	4513.38
376.319	4417.38
376.545	4408.38
376.771	4430.38
376.997	4351.38
377.222	4412.38
377.448	4349.38
377.674	4361.38
377.899	4347.38
378.125	4392.38
378.35	4346.38
378.576	4260.38
378.802	4235.38
379.027	4340.38
379.253	4375.38
379.478	4301.38
379.704	4313.38
379.929	4385.38
380.155	4373.38
380.38	4347.38
380.606	4394.38
380.831	4320.38
381.057	4371.38
381.282	4355.38
381.507	4398.38
381.733	4467.38
381.958	4490.38
382.184	4517.38
382.409	4579.38
382.634	4587.38
382.86	4598.38
383.085	4679.38
383.31	4713.38
383.535	4819.38
383.761	4868.38
383.986	4904.38
384.211	5068.38
384.436	5027.38
384.662	5201.38
384.887	5155.38
385.112	5224.38
385.337	5289.38
385.562	5247.38
385.787	5303.38
386.013	5372.38
386.238	5480.38
386.463	5353.38
386.688	5416.38
386.913	5211.38
387.138	5238.38
387.363	5282.38
387.588	5125.38
387.813	5197.38
388.038	5222.38
388.263	5232.38
388.488	5289.38
388.713	5222.38
388.938	5237.38
389.163	5231.38
389.387	5192.38
389.612	5084.38
389.837	5124.38
390.062	5203.38
390.287	5194.38
390.512	5119.38
390.736	5217.38
390.961	5365.38
391.186	5349.38
391.411	5571.38
391.636	5594.38
391.86	5750.38
392.085	5813.38
392.31	5693.38
392.534	5669.38
392.759	5509.38
392.984	5380.38
393.208	5382.38
393.433	5465.38
393.658	5409.38
393.882	5396.38
394.107	5433.38
394.331	5464.38
394.556	5453.38
394.78	5571.38
395.005	5608.38
395.229	5551.38
395.454	5782.38
395.678	5793.38
395.903	5871.38
396.127	5931.38
396.352	5724.38
396.576	5611.38
396.801	5529.38
397.025	5613.38
397.249	5747.38
397.474	5860.38
397.698	5955.38
397.922	6059.38
398.147	6129.38
398.371	6227.38
398.595	6331.38
398.82	6667.38
399.044	7215.38
399.268	7860.38
399.492	9021.38
399.717	9590.38
399.941	9400.38
400.165	8744.38
400.389	8092.38
400.613	7323.38
400.837	6911.38
401.062	6667.38
401.286	6610.38
401.51	6565.38
401.734	6589.38
401.958	6668.38
402.182	6723.38
402.406	6871.38
402.63	6905.38
402.854	7074.38
403.078	7114.38
403.302	7138.38
403.526	7344.38
403.75	7419.38
403.974	7473.38
404.198	7440.38
404.422	7620.38
404.645	7570.38
404.869	7538.38
405.093	7844.38
405.317	8182.38
405.541	8151.38
405.765	7645.38
405.988	7299.38
406.212	7495.38
406.436	7647.38
406.66	7808.38
406.883	7776.38
407.107	8325.38
407.331	8938.38
407.555	9372.38
407.778	9150.38
408.002	8303.38
408.226	7932.38
408.449	7855.38
408.673	7713.38
408.896	7927.38
409.12	8000.38
409.344	7607.38
409.567	7210.38
409.791	7214.38
410.014	7111.38
410.238	7044.38
410.461	7190.38
410.685	7074.38
410.908	7286.38
411.132	7409.38
411.355	7471.38
411.578	7054.38
411.802	6831.38
412.025	6922.38
412.249	7141.38
412.472	7348.38
412.695	7644.38
412.919	7206.38
413.142	6777.38
413.365	6719.38
413.589	6605.38
413.812	6525.38
414.035	6478.38
414.258	6427.38
414.482	6458.38
414.705	6543.38
414.928	6551.38
415.151	6439.38
415.374	6507.38
415.597	6428.38
415.821	6312.38
416.044	6389.38
416.267	6322.38
416.49	6282.38
416.713	6255.38
416.936	6335.38
417.159	6292.38
417.382	6435.38
417.605	6482.38
417.828	6640.38
418.051	6711.38
418.274	6678.38
418.497	6449.38
418.72	6584.38
418.943	6526.38
419.166	6957.38
419.389	7351.38
419.611	7242.38
419.834	7091.38
420.057	7066.38
420.28	6978.38
420.503	6795.38
420.726	6757.38
420.948	6853.38
421.171	7210.38
421.394	7156.38
421.617	6678.38
421.839	6633.38
422.062	6790.38
422.285	6879.38
422.507	7522.38
422.73	8052.38
422.953	7441.38
423.175	7050.38
423.398	7066.38
423.621	7080.38
423.843	7403.38
424.066	7248.38
424.288	7241.38
424.511	7393.38
424.733	7836.38
424.956	8248.38
425.178	7857.38
425.401	7989.38
425.623	7749.38
425.846	6857.38
426.068	6748.38
426.291	6655.38
426.513	6685.38
426.735	6771.38
426.958	7255.38
427.18	7959.38
427.402	9113.38
427.625	9293.38
427.847	7963.38
428.069	7282.38
428.292	6681.38
428.514	6214.38
428.736	6089.38
428.958	6051.38
429.181	5809.38
429.403	5853.38
429.625	6084.38
429.847	6346.38
430.069	6914.38
430.292	6466.38
430.514	5954.38
430.736	5879.38
430.958	5785.38
431.18	5677.38
431.402	5757.38
431.624	5670.38
431.846	5802.38
432.068	5802.38
432.29	5914.38
432.512	5721.38
432.734	5879.38
432.956	5771.38
433.178	5961.38
433.4	5820.38
433.622	5772.38
433.844	5840.38
434.066	5828.38
434.287	5962.38
434.509	6215.38
434.731	6463.38
434.953	6588.38
435.175	6765.38
435.397	6768.38
435.618	6719.38
435.84	7087.38
436.062	7811.38
436.284	7782.38
436.505	6688.38
436.727	6255.38
436.949	6063.38
437.17	5924.38
437.392	5903.38
437.614	6068.38
437.835	6513.38
438.057	7417.38
438.278	8123.38
438.5	7957.38
438.721	8801.38
438.943	7681.38
439.165	6558.38
439.386	6387.38
439.608	6288.38
439.829	6398.38
440.05	6841.38
440.272	7128.38
440.493	6571.38
440.715	6238.38
440.936	6169.38
441.158	6137.38
441.379	6348.38
441.6	6641.38
441.822	6875.38
442.043	7418.38
442.264	8065.38
442.486	7817.38
442.707	6953.38
442.928	6791.38
443.149	7030.38
443.371	7183.38
443.592	7684.38
443.813	8697.38
444.034	8653.38
444.255	7579.38
444.476	7371.38
444.698	7643.38
444.919	7722.38
445.14	7422.38
445.361	7273.38
445.582	7465.38
445.803	8076.38
446.024	8684.38
446.245	8354.38
446.466	7516.38
446.687	6487.38
446.908	6162.38
447.129	5933.38
447.35	5819.38
447.571	5740.38
447.792	5539.38
448.013	5767.38
448.234	5935.38
448.455	6595.38
448.675	7786.38
448.896	8242.38
449.117	6886.38
449.338	7010.38
449.559	8261.38
449.779	8570.38
450	6499.38
450.221	5880.38
450.442	5607.38
450.662	5622.38
450.883	5641.38
451.104	5665.38
451.324	5601.38
451.545	5377.38
451.766	5227.38
451.986	5120.38
452.207	5178.38
452.428	5031.38
452.648	5154.38
452.869	5177.38
453.089	5272.38
453.31	5283.38
453.53	5151.38
453.751	5118.38
453.971	5124.38
454.192	5257.38
454.412	5048.38
454.633	4959.38
454.853	4917.38
455.073	5007.38
455.294	5379.38
455.514	5941.38
455.734	5439.38
455.955	4922.38
456.175	4816.38
456.395	4761.38
456.616	4659.38
456.836	4685.38
457.056	4716.38
457.276	4661.38
457.497	4786.38
457.717	4773.38
457.937	4820.38
458.157	4911.38
458.377	5004.38
458.598	5333.38
458.818	6075.38
459.038	6784.38
459.258	6746.38
459.478	6041.38
459.698	5855.38
459.918	5921.38
460.138	6100.38
460.358	6339.38
460.578	6400.38
460.798	6431.38
461.018	6451.38
461.238	6372.38
461.458	6378.38
461.678	6234.38
461.898	6355.38
462.118	6392.38
462.338	6749.38
462.558	6936.38
462.777	7193.38
462.997	7733.38
463.217	8101.38
463.437	7955.38
463.657	7434.38
463.876	7168.38
464.096	7273.38
464.316	7169.38
464.536	7215.38
464.755	6959.38
464.975	6971.38
465.195	7098.38
465.414	7166.38
465.634	6400.38
465.854	5994.38
466.073	5754.38
466.293	5580.38
466.512	5362.38
466.732	5308.38
466.951	5297.38
467.171	5241.38
467.391	5385.38
467.61	5501.38
467.829	5431.38
468.049	5347.38
468.268	5377.38
468.488	5241.38
468.707	5125.38
468.927	5120.38
469.146	5102.38
469.365	5182.38
469.585	5096.38
469.804	5393.38
470.023	5515.38
470.243	5501.38
470.462	5531.38
470.681	5695.38
470.901	5600.38
471.12	5495.38
471.339	5401.38
471.558	5418.38
471.777	5303.38
471.997	5274.38
472.216	5399.38
472.435	5875.38
472.654	5417.38
472.873	5185.38
473.092	5159.38
473.311	5103.38
473.53	5152.38
473.749	5279.38
473.968	5780.38
474.187	6735.38
474.406	6414.38
474.625	5437.38
474.844	5173.38
475.063	5114.38
475.282	5107.38
475.501	5217.38
475.72	5204.38
475.939	5188.38
476.158	5244.38
476.377	5346.38
476.596	5291.38
476.814	5396.38
477.033	5512.38
477.252	5607.38
477.471	5662.38
477.69	5770.38
477.908	5943.38
478.127	5965.38
478.346	6048.38
478.564	6190.38
478.783	6236.38
479.002	6403.38
479.22	6414.38
479.439	6435.38
479.658	6616.38
479.876	6697.38
480.095	6933.38
480.313	7313.38
480.532	7213.38
480.751	7155.38
480.969	7263.38
481.188	8056.38
481.406	7889.38
481.624	6923.38
481.843	6549.38
482.061	6399.38
482.28	6269.38
482.498	6102.38
482.717	6108.38
482.935	5995.38
483.153	6041.38
483.372	5955.38
483.59	6051.38
483.808	5993.38
484.027	5939.38
484.245	6134.38
484.463	6147.38
484.681	6246.38
484.9	6308.38
485.118	6283.38
485.336	6300.38
485.554	6397.38
485.772	6478.38
485.99	6420.38
486.209	6476.38
486.427	6537.38
486.645	6644.38
486.863	6712.38
487.081	6680.38
487.299	6597.38
487.517	6495.38
487.735	6404.38
487.953	6575.38
488.171	6540.38
488.389	6514.38
488.607	6499.38
488.825	6494.38
489.043	6493.38
489.261	6560.38
489.479	6652.38
489.696	6710.38
489.914	6712.38
490.132	6765.38
490.35	6804.38
490.568	6915.38
490.786	7004.38
491.003	7176.38
491.221	7265.38
491.439	7439.38
491.657	7482.38
491.874	7555.38
492.092	7513.38
492.31	7647.38
492.527	7745.38
492.745	7668.38
492.963	7727.38
493.18	7875.38
493.398	7820.38
493.615	7939.38
493.833	7949.38
494.05	7965.38
494.268	7901.38
494.485	7847.38
494.703	7743.38
494.92	7809.38
495.138	7771.38
495.355	7807.38
495.573	7777.38
495.79	7749.38
496.008	7718.38
496.225	7787.38
496.442	7748.38
496.66	7780.38
496.877	7889.38
497.094	7985.38
497.312	8115.38
497.529	8257.38
497.746	8439.38
497.963	8727.38
498.181	9095.38
498.398	9233.38
498.615	9714.38
498.832	10229.38
499.049	10730.38
499.267	11213.38
499.484	12001.38
499.701	12804.38
499.918	13483.38
500.135	14346.38
500.352	14961.38
500.569	15059.38
500.786	14949.38
501.003	14497.38
501.22	13864.38
501.437	13122.38
501.654	12351.38
501.871	11750.38
502.088	11037.38
502.305	10321.38
502.522	9882.38
502.739	9459.38
502.956	8916.38
503.172	8707.38
503.389	8399.38
503.606	8421.38
503.823	8397.38
504.04	8178.38
504.256	8266.38
504.473	8339.38
504.69	8473.38
504.907	8207.38
505.123	7862.38
505.34	7566.38
505.557	7318.38
505.773	7368.38
505.99	7306.38
506.207	7243.38
506.423	7070.38
506.64	6976.38
506.856	6898.38
507.073	6803.38
507.289	6827.38
507.506	6878.38
507.722	6858.38
507.939	6876.38
508.155	6647.38
508.372	6548.38
508.588	6526.38
508.805	6496.38
509.021	6541.38
509.238	6637.38
509.454	6635.38
509.67	6587.38
509.887	6424.38
510.103	6410.38
510.319	6535.38
510.536	7779.38
510.752	11372.38
510.968	7755.38
511.184	6282.38
511.401	6207.38
511.617	6153.38
511.833	6242.38
512.049	6220.38
512.265	6186.38
512.481	6110.38
512.698	5992.38
512.914	6041.38
513.13	6028.38
513.346	6022.38
513.562	6065.38
513.778	6065.38
513.994	6120.38
514.21	6190.38
514.426	6353.38
514.642	6669.38
514.858	6865.38
515.074	7228.38
515.29	8467.38
515.506	11200.38
515.721	8381.38
515.937	7004.38
516.153	6834.38
516.369	6828.38
516.585	6858.38
516.801	6930.38
517.016	7056.38
517.232	7389.38
517.448	7501.38
517.664	7701.38
517.879	7670.38
518.095	7628.38
518.311	7479.38
518.527	7242.38
518.742	7007.38
518.958	6818.38
519.173	6631.38
519.389	6445.38
519.605	6416.38
519.82	6308.38
520.036	6422.38
520.251	6527.38
520.467	6605.38
520.682	6500.38
520.898	6424.38
521.113	6606.38
521.329	6962.38
521.544	7634.38
521.76	9367.38
521.975	13724.38
522.19	10998.38
522.406	7161.38
522.621	6258.38
522.836	5848.38
523.052	5639.38
523.267	5465.38
523.482	5412.38
523.698	5418.38
523.913	5376.38
524.128	5295.38
524.343	5183.38
524.559	5146.38
524.774	5143.38
524.989	5120.38
525.204	5123.38
525.419	5075.38
525.634	5052.38
525.849	5004.38
526.064	4924.38
526.28	4903.38
526.495	4965.38
526.71	4887.38
526.925	4882.38
527.14	4809.38
527.355	4813.38
527.57	4823.38
527.785	4799.38
527.999	4788.38
528.214	4876.38
528.429	4832.38
528.644	4847.38
528.859	4822.38
529.074	4839.38
529.289	5066.38
529.503	5580.38
529.718	5305.38
529.933	5033.38
530.148	4871.38
530.363	4873.38
530.577	4764.38
530.792	4798.38
531.007	4729.38
531.221	4820.38
531.436	4778.38
531.651	4776.38
531.865	4813.38
532.08	4721.38
532.295	4758.38
532.509	4719.38
532.724	4744.38
532.938	4768.38
533.153	4707.38
533.367	4696.38
533.582	4754.38
533.796	4759.38
534.011	4647.38
534.225	4714.38
534.44	4595.38
534.654	4602.38
534.868	4585.38
535.083	4587.38
535.297	4590.38
535.511	4666.38
535.726	4597.38
535.94	4571.38
536.154	4573.38
536.369	4471.38
536.583	4459.38
536.797	4427.38
537.011	4409.38
537.225	4412.38
537.44	4380.38
537.654	4360.38
537.868	4359.38
538.082	4444.38
538.296	4426.38
538.51	4374.38
538.724	4410.38
538.938	4313.38
539.153	4232.38
539.367	4385.38
539.581	4441.38
539.795	4339.38
540.009	4272.38
540.222	4297.38
540.436	4295.38
540.65	4275.38
540.864	4354.38
541.078	4357.38
541.292	4343.38
541.506	4275.38
541.72	4178.38
541.934	4225.38
542.147	4225.38
542.361	4121.38
542.575	4128.38
542.789	4117.38
543.002	4170.38
543.216	4241.38
543.43	4213.38
543.644	4244.38
543.857	4221.38
544.071	4188.38
544.285	4231.38
544.498	4213.38
544.712	4225.38
544.925	4216.38
545.139	4232.38
545.352	4188.38
545.566	4215.38
545.779	4180.38
545.993	4263.38
546.206	4150.38
546.42	4199.38
546.633	4169.38
546.847	4173.38
547.06	4127.38
547.274	4143.38
547.487	4110.38
547.7	4133.38
547.914	4156.38
548.127	4176.38
548.34	4184.38
548.554	4160.38
548.767	4178.38
548.98	4089.38
549.193	4207.38
549.407	4200.38
549.62	4298.38
549.833	4280.38
550.046	4216.38
550.259	4196.38
550.473	4115.38
550.686	4140.38
550.899	4044.38
551.112	4098.38
551.325	4014.38
551.538	4046.38
551.751	4019.38
551.964	4055.38
552.177	4147.38
552.39	4250.38
552.603	4360.38
552.816	4348.38
553.029	4415.38
553.242	4493.38
553.455	4539.38
553.667	4629.38
553.88	4488.38
554.093	4427.38
554.306	4394.38
554.519	4287.38
554.732	4153.38
554.944	4023.38
555.157	3973.38
555.37	3907.38
555.583	3851.38
555.795	3799.38
556.008	3721.38
556.221	3730.38
556.433	3701.38
556.646	3594.38
556.859	3554.38
557.071	3524.38
557.284	3505.38
557.496	3493.38
557.709	3496.38
557.921	3479.38
558.134	3416.38
558.346	3411.38
558.559	3421.38
558.771	3388.38
558.984	3373.38
559.196	3387.38
559.409	3338.38
559.621	3383.38
559.833	3342.38
560.046	3323.38
560.258	3329.38
560.47	3382.38
560.683	3326.38
560.895	3305.38
561.107	3283.38
561.32	3306.38
561.532	3351.38
561.744	3299.38
561.956	3302.38
562.168	3363.38
562.381	3378.38
562.593	3393.38
562.805	3356.38
563.017	3317.38
563.229	3405.38
563.441	3366.38
563.653	3385.38
563.865	3371.38
564.077	3409.38
564.289	3486.38
564.501	3505.38
564.713	3568.38
564.925	3636.38
565.137	3783.38
565.349	3810.38
565.561	3938.38
565.773	4087.38
565.985	4246.38
566.197	4381.38
566.408	4772.38
566.62	5076.38
566.832	5309.38
567.044	5364.38
567.255	5403.38
567.467	5591.38
567.679	5877.38
567.891	6193.38
568.102	6233.38
568.314	5795.38
568.526	5268.38
568.737	4946.38
568.949	4509.38
569.161	4201.38
569.372	3932.38
569.584	3771.38
569.795	3614.38
570.007	3571.38
570.218	3819.38
570.43	3557.38
570.641	3463.38
570.853	3420.38
571.064	3412.38
571.276	3367.38
571.487	3243.38
571.698	3167.38
571.91	3043.38
572.121	2962.38
572.333	2948.38
572.544	2885.38
572.755	2840.38
572.966	2865.38
573.178	2804.38
573.389	2785.38
573.6	2767.38
573.811	2695.38
574.023	2726.38
574.234	2671.38
574.445	2685.38
574.656	2676.38
574.867	2681.38
575.078	2649.38
575.289	2637.38
575.501	2566.38
575.712	2559.38
575.923	2571.38
576.134	2561.38
576.345	2546.38
576.556	2519.38
576.767	2502.38
576.978	2493.38
577.188	2528.38
577.399	2433.38
577.61	2449.38
577.821	2403.38
578.032	2432.38
578.243	2719.38
578.454	3789.38
578.665	2706.38
578.875	2374.38
579.086	2363.38
579.297	2342.38
579.508	2289.38
579.718	2253.38
579.929	2308.38
580.14	2256.38
580.35	2260.38
580.561	2241.38
580.772	2198.38
580.982	2215.38
581.193	2215.38
581.403	2229.38
581.614	2198.38
581.825	2175.38
582.035	2170.38
582.246	2132.38
582.456	2183.38
582.667	2144.38
582.877	2143.38
583.087	2173.38
583.298	2122.38
583.508	2116.38
583.719	2121.38
583.929	2107.38
584.139	2068.38
584.35	2087.38
584.56	2105.38
584.77	2088.38
584.981	2071.38
585.191	2103.38
585.401	2085.38
585.611	2071.38
585.821	2058.38
586.032	2079.38
586.242	2054.38
586.452	2083.38
586.662	2028.38
586.872	2026.38
587.082	2064.38
587.292	2063.38
587.502	2059.38
587.713	2013.38
587.923	2035.38
588.133	2042.38
588.343	2008.38
588.553	2027.38
588.762	2025.38
588.972	2019.38
589.182	2098.38
589.392	2102.38
589.602	2047.38
589.812	2064.38
590.022	2052.38
590.232	2065.38
590.441	2072.38
590.651	2058.38
590.861	2079.38
591.071	2097.38
591.281	2090.38
591.49	2125.38
591.7	2122.38
591.91	2165.38
592.119	2233.38
592.329	2242.38
592.539	2402.38
592.748	2409.38
592.958	2494.38
593.167	2550.38
593.377	2538.38
593.587	2604.38
593.796	2555.38
594.006	2530.38
594.215	2586.38
594.424	2617.38
594.634	2524.38
594.843	2435.38
595.053	2353.38
595.262	2212.38
595.472	2187.38
595.681	2167.38
595.89	2097.38
596.1	2014.38
596.309	1959.38
596.518	1949.38
596.727	1939.38
596.937	1876.38
597.146	1868.38
597.355	1808.38
597.564	1800.38
597.774	1748.38
597.983	1791.38
598.192	1727.38
598.401	1745.38
598.61	1734.38
598.819	1728.38
599.028	1690.38
599.237	1694.38
599.446	1657.38
599.655	1699.38
599.864	1689.38
600.073	1700.38
600.282	1674.38
600.491	1658.38
600.7	1649.38
600.909	1604.38
601.118	1638.38
601.327	1621.38
601.536	1633.38
601.745	1612.38
601.953	1578.38
602.162	1618.38
602.371	1585.38
602.58	1577.38
602.789	1571.38
602.997	1593.38
603.206	1548.38
603.415	1532.38
603.623	1555.38
603.832	1551.38
604.041	1555.38
604.249	1532.38
604.458	1533.38
604.666	1512.38
604.875	1514.38
605.084	1485.38
605.292	1477.38
605.501	1525.38
605.709	1458.38
605.918	1488.38
606.126	1490.38
606.334	1482.38
606.543	1474.38
606.751	1464.38
606.96	1474.38
607.168	1445.38
607.376	1460.38
607.585	1480.38
607.793	1444.38
608.001	1441.38
608.21	1395.38
608.418	1425.38
608.626	1432.38
608.834	1416.38
609.043	1421.38
609.251	1435.38
609.459	1404.38
609.667	1428.38
609.875	1406.38
610.083	1383.38
610.291	1380.38
610.499	1400.38
610.707	1375.38
610.916	1438.38
611.124	1418.38
611.332	1388.38
611.54	1414.38
611.748	1393.38
611.955	1391.38
612.163	1444.38
612.371	1431.38
612.579	1371.38
612.787	1339.38
612.995	1360.38
613.203	1367.38
613.411	1395.38
613.618	1379.38
613.826	1379.38
614.034	1346.38
614.242	1388.38
614.449	1395.38
614.657	1360.38
614.865	1384.38
615.072	1364.38
615.28	1350.38
615.488	1364.38
615.695	1402.38
615.903	1401.38
616.111	1384.38
616.318	1436.38
616.526	1429.38
616.733	1411.38
616.941	1407.38
617.148	1397.38
617.356	1375.38
617.563	1371.38
617.771	1384.38
617.978	1367.38
618.185	1357.38
618.393	1343.38
618.6	1378.38
618.807	1352.38
619.015	1326.38
619.222	1301.38
619.429	1329.38
619.637	1320.38
619.844	1317.38
620.051	1307.38
620.258	1271.38
620.466	1248.38
620.673	1247.38
620.88	1254.38
621.087	1239.38
621.294	1239.38
621.501	1218.38
621.708	1256.38
621.915	1244.38
622.122	1247.38
622.329	1250.38
622.536	1231.38
622.743	1202.38
622.95	1201.38
623.157	1200.38
623.364	1184.38
623.571	1179.38
623.778	1185.38
623.985	1177.38
624.192	1159.38
624.399	1132.38
624.606	1133.38
624.812	1172.38
625.019	1154.38
625.226	1133.38
625.433	1146.38
625.639	1142.38
625.846	1120.38
626.053	1114.38
626.259	1131.38
626.466	1149.38
626.673	1102.38
626.879	1117.38
627.086	1103.38
627.293	1111.38
627.499	1109.38
627.706	1048.38
627.912	1092.38
628.119	1092.38
628.325	1082.38
628.532	1060.38
628.738	1085.38
628.945	1044.38
629.151	1050.38
629.357	1034.38
629.564	1032.38
629.77	1028.38
629.976	1044.38
630.183	988.38
630.389	1005.38
630.595	1009.38
630.802	995.38
631.008	977.38
631.214	980.38
631.42	994.38
631.627	972.38
631.833	962.38
632.039	941.38
632.245	954.38
632.451	971.38
632.657	968.38
632.863	930.38
633.069	915.38
633.275	939.38
633.481	932.38
633.688	915.38
633.893	949.38
634.099	895.38
634.305	896.38
634.511	905.38
634.717	922.38
634.923	913.38
635.129	895.38
635.335	897.38
635.541	896.38
635.747	869.38
635.952	889.38
636.158	876.38
636.364	901.38
636.57	908.38
636.775	902.38
636.981	864.38
637.187	857.38
637.392	883.38
637.598	869.38
637.804	869.38
638.009	872.38
638.215	856.38
638.421	826.38
638.626	827.38
638.832	843.38
639.037	812.38
639.243	811.38
639.448	808.38
639.654	815.38
639.859	811.38
640.065	804.38
640.27	807.38
640.475	805.38
640.681	774.38
640.886	813.38
641.091	789.38
641.297	777.38
641.502	772.38
641.707	792.38
641.913	769.38
642.118	762.38
642.323	753.38
642.528	759.38
642.733	738.38
642.939	758.38
643.144	762.38
643.349	708.38
643.554	723.38
643.759	753.38
643.964	747.38
644.169	775.38
644.374	752.38
644.579	754.38
644.784	760.38
644.989	728.38
645.194	730.38
645.399	712.38
645.604	740.38
645.809	754.38
646.014	748.38
646.219	763.38
646.423	736.38
646.628	728.38
646.833	771.38
647.038	753.38
647.243	770.38
647.447	773.38
647.652	775.38
647.857	762.38
648.062	789.38
648.266	834.38
648.471	804.38
648.676	834.38
648.88	838.38
649.085	795.38
649.289	803.38
649.494	862.38
649.698	1013.38
649.903	888.38
650.107	745.38
650.312	709.38
650.516	684.38
650.721	671.38
650.925	658.38
651.13	645.38
651.334	623.38
651.539	623.38
651.743	574.38
651.947	589.38
652.152	577.38
652.356	548.38
652.56	537.38
652.764	561.38
652.969	548.38
653.173	525.38
653.377	506.38
653.581	480.38
653.785	525.38
653.99	519.38
654.194	502.38
654.398	463.38
654.602	471.38
654.806	502.38
655.01	549.38
655.214	513.38
655.418	498.38
655.622	460.38
655.826	479.38
656.03	488.38
656.234	492.38
656.438	524.38
656.642	517.38
656.846	468.38
657.049	427.38
657.253	401.38
657.457	376.38
657.661	342.38
657.865	332.38
658.068	325.38
658.272	293.38
658.476	273.38
658.68	252.38
658.883	235.38
659.087	224.38
659.291	223.38
659.494	199.38
659.698	195.38
659.901	218.38
660.105	199.38
660.309	191.38
660.512	189.38
660.716	178.38
660.919	164.38
661.123	153.38
661.326	148.38
661.53	150.38
661.733	121.38
661.936	140.38
662.14	123.38
662.343	127.38
662.546	97.38
662.75	121.38
662.953	103.38
663.156	98.38
663.36	100.38
663.563	89.38
663.766	107.38
663.969	101.38
664.173	98.38
664.376	98.38
664.579	99.38
664.782	97.38
664.985	98.38
665.188	93.38
665.391	85.38
665.594	88.38
665.797	80.38
666	78.38
666.203	91.38
666.406	93.38
666.609	80.38
666.812	87.38
667.015	87.38
667.218	82.38
667.421	80.38
667.624	71.38
667.827	80.38
668.03	76.38
668.232	74.38
668.435	100.38
668.638	78.38
668.841	83.38
669.043	85.38
669.246	87.38
669.449	81.38
669.651	91.38
669.854	88.38
670.057	78.38
670.259	82.38
670.462	90.38
670.665	86.38
670.867	73.38
671.07	86.38
671.272	83.38
671.475	87.38
671.677	81.38
671.88	93.38
672.082	85.38
672.284	83.38
672.487	76.38
672.689	79.38
672.892	77.38
