Data from Uncirc_1986_H10_HRD10591_00028.txt Node
Date: Wed Jan 03 12:14:32 EST 2024
User: Yrep
Spectrometer: HR+D1059
Trigger mode: 1
Integration Time (sec): 1.000000E-1
Scans to average: 1
Electric dark correction enabled: true
Nonlinearity correction enabled: false
Boxcar width: 0
XAxis mode: Wavelengths
Number of Pixels in Spectrum: 2048
>>>>>Begin Spectral Data<<<<<
223.165	-24
223.4	-24
223.635	-24
223.869	-8
224.104	-18
224.338	-14
224.573	-17
224.808	-14
225.042	-4
225.277	-10
225.511	4
225.746	16
225.98	-1
226.215	6
226.449	13
226.683	17
226.918	22
227.152	32
227.387	42
227.621	43
227.856	44
228.09	53
228.324	45
228.559	51
228.793	53
229.027	58
229.262	60
229.496	65
229.73	79
229.964	92
230.199	83
230.433	85
230.667	80
230.901	82
231.136	75
231.37	91
231.604	87
231.838	82
232.072	81
232.306	85
232.541	79
232.775	85
233.009	85
233.243	77
233.477	95
233.711	85
233.945	84
234.179	85
234.413	86
234.647	76
234.881	73
235.115	76
235.349	87
235.583	75
235.817	73
236.051	87
236.285	76
236.519	72
236.753	68
236.987	75
237.221	95
237.455	92
237.689	81
237.922	73
238.156	71
238.39	82
238.624	66
238.858	75
239.091	77
239.325	63
239.559	89
239.793	79
240.027	90
240.26	78
240.494	77
240.728	74
240.961	62
241.195	64
241.429	79
241.662	75
241.896	86
242.13	67
242.363	71
242.597	68
242.83	72
243.064	64
243.298	86
243.531	92
243.765	70
243.998	63
244.232	96
244.465	96
244.699	79
244.932	73
245.166	92
245.399	60
245.633	70
245.866	74
246.099	85
246.333	85
246.566	82
246.8	82
247.033	82
247.266	76
247.5	83
247.733	87
247.966	80
248.2	77
248.433	63
248.666	80
248.899	73
249.133	89
249.366	107
249.599	93
249.832	76
250.066	92
250.299	83
250.532	85
250.765	81
250.998	85
251.231	76
251.465	75
251.698	87
251.931	81
252.164	77
252.397	83
252.63	87
252.863	74
253.096	67
253.329	71
253.562	68
253.795	79
254.028	87
254.261	86
254.494	88
254.727	93
254.96	87
255.193	74
255.426	82
255.659	81
255.892	87
256.124	94
256.357	97
256.59	85
256.823	69
257.056	83
257.289	89
257.521	93
257.754	75
257.987	77
258.22	98
258.452	97
258.685	82
258.918	85
259.151	90
259.383	82
259.616	94
259.849	79
260.081	67
260.314	83
260.547	87
260.779	85
261.012	88
261.244	81
261.477	99
261.71	101
261.942	112
262.175	116
262.407	83
262.64	83
262.872	87
263.105	82
263.337	92
263.57	67
263.802	76
264.035	82
264.267	91
264.499	89
264.732	85
264.964	74
265.197	74
265.429	79
265.661	85
265.894	71
266.126	97
266.358	81
266.591	87
266.823	80
267.055	96
267.287	89
267.52	80
267.752	88
267.984	85
268.216	72
268.448	83
268.681	86
268.913	89
269.145	90
269.377	81
269.609	79
269.841	91
270.073	83
270.306	104
270.538	96
270.77	73
271.002	76
271.234	75
271.466	90
271.698	86
271.93	84
272.162	74
272.394	90
272.626	95
272.858	92
273.09	87
273.322	83
273.553	83
273.785	87
274.017	88
274.249	89
274.481	85
274.713	86
274.945	87
275.176	88
275.408	79
275.64	91
275.872	79
276.104	91
276.335	85
276.567	102
276.799	99
277.031	91
277.262	108
277.494	82
277.726	83
277.957	90
278.189	106
278.421	81
278.652	83
278.884	89
279.115	99
279.347	96
279.579	82
279.81	83
280.042	75
280.273	93
280.505	95
280.736	89
280.968	108
281.199	95
281.431	88
281.662	91
281.894	95
282.125	92
282.356	117
282.588	132
282.819	98
283.051	100
283.282	86
283.513	99
283.745	92
283.976	79
284.207	96
284.439	81
284.67	89
284.901	82
285.132	87
285.364	82
285.595	72
285.826	74
286.057	92
286.288	71
286.52	91
286.751	76
286.982	80
287.213	82
287.444	80
287.675	82
287.906	95
288.138	89
288.369	85
288.6	89
288.831	106
289.062	102
289.293	106
289.524	93
289.755	89
289.986	89
290.217	86
290.448	88
290.679	95
290.91	88
291.141	85
291.371	82
291.602	101
291.833	87
292.064	82
292.295	94
292.526	101
292.757	99
292.987	92
293.218	85
293.449	79
293.68	93
293.91	90
294.141	82
294.372	96
294.603	87
294.833	92
295.064	93
295.295	96
295.525	107
295.756	93
295.987	97
296.217	127
296.448	109
296.679	94
296.909	72
297.14	94
297.37	90
297.601	84
297.831	96
298.062	96
298.292	100
298.523	87
298.753	90
298.984	87
299.214	101
299.445	110
299.675	81
299.905	106
300.136	95
300.366	89
300.597	81
300.827	98
301.057	89
301.288	111
301.518	97
301.748	99
301.979	99
302.209	87
302.439	97
302.669	87
302.9	84
303.13	92
303.36	115
303.59	112
303.82	94
304.051	86
304.281	82
304.511	85
304.741	119
304.971	96
305.201	96
305.431	93
305.661	95
305.891	79
306.121	88
306.352	89
306.582	112
306.812	92
307.042	105
307.272	93
307.502	89
307.731	91
307.961	96
308.191	93
308.421	85
308.651	82
308.881	94
309.111	87
309.341	94
309.571	91
309.8	82
310.03	87
310.26	102
310.49	102
310.72	91
310.949	102
311.179	95
311.409	96
311.639	83
311.868	102
312.098	89
312.328	100
312.557	92
312.787	96
313.017	104
313.246	92
313.476	91
313.706	98
313.935	101
314.165	91
314.394	107
314.624	98
314.853	88
315.083	98
315.312	95
315.542	102
315.771	98
316.001	97
316.23	87
316.46	99
316.689	95
316.919	85
317.148	79
317.377	104
317.607	88
317.836	91
318.065	92
318.295	91
318.524	86
318.753	88
318.983	93
319.212	97
319.441	97
319.67	111
319.9	97
320.129	88
320.358	92
320.587	102
320.816	105
321.046	100
321.275	90
321.504	93
321.733	101
321.962	111
322.191	120
322.42	100
322.649	96
322.878	117
323.108	102
323.337	116
323.566	125
323.795	153
324.024	184
324.253	362
324.482	749
324.71	1523
324.939	2076
325.168	752
325.397	239
325.626	139
325.855	124
326.084	113
326.313	139
326.542	144
326.77	213
326.999	409
327.228	855
327.457	1544
327.686	1243
327.914	334
328.143	171
328.372	139
328.6	123
328.829	122
329.058	135
329.287	120
329.515	95
329.744	84
329.972	84
330.201	112
330.43	101
330.658	125
330.887	123
331.115	137
331.344	91
331.572	91
331.801	107
332.03	106
332.258	93
332.486	92
332.715	92
332.943	101
333.172	99
333.4	103
333.629	101
333.857	115
334.085	102
334.314	96
334.542	106
334.771	94
334.999	97
335.227	88
335.455	100
335.684	93
335.912	100
336.14	100
336.369	73
336.597	89
336.825	116
337.053	101
337.281	80
337.51	82
337.738	83
337.966	85
338.194	99
338.422	99
338.65	102
338.878	89
339.106	98
339.334	87
339.562	86
339.79	89
340.018	97
340.246	103
340.474	93
340.702	95
340.93	102
341.158	96
341.386	96
341.614	92
341.842	100
342.07	87
342.298	99
342.526	99
342.754	92
342.981	93
343.209	83
343.437	98
343.665	75
343.893	96
344.12	103
344.348	102
344.576	83
344.804	99
345.031	99
345.259	104
345.487	94
345.714	101
345.942	107
346.17	85
346.397	90
346.625	93
346.853	97
347.08	87
347.308	85
347.535	99
347.763	91
347.99	94
348.218	99
348.445	112
348.673	100
348.9	100
349.128	97
349.355	92
349.583	94
349.81	81
350.037	106
350.265	95
350.492	109
350.72	105
350.947	97
351.174	97
351.402	105
351.629	94
351.856	96
352.083	107
352.311	100
352.538	94
352.765	115
352.992	108
353.22	101
353.447	118
353.674	95
353.901	90
354.128	99
354.355	100
354.583	99
354.81	98
355.037	93
355.264	96
355.491	96
355.718	95
355.945	88
356.172	89
356.399	103
356.626	106
356.853	113
357.08	103
357.307	74
357.534	80
357.761	103
357.988	92
358.215	101
358.441	92
358.668	92
358.895	95
359.122	90
359.349	96
359.576	92
359.802	109
360.029	100
360.256	115
360.483	106
360.709	87
360.936	93
361.163	96
361.39	94
361.616	91
361.843	86
362.07	96
362.296	110
362.523	83
362.749	91
362.976	85
363.203	88
363.429	82
363.656	93
363.882	87
364.109	96
364.335	87
364.562	82
364.788	89
365.015	96
365.241	90
365.468	91
365.694	102
365.92	89
366.147	100
366.373	88
366.599	95
366.826	95
367.052	80
367.278	77
367.505	87
367.731	95
367.957	96
368.184	94
368.41	99
368.636	117
368.862	121
369.089	111
369.315	92
369.541	105
369.767	91
369.993	88
370.219	99
370.445	101
370.672	88
370.898	69
371.124	75
371.35	86
371.576	97
371.802	88
372.028	99
372.254	80
372.48	73
372.706	86
372.932	84
373.158	92
373.384	98
373.61	104
373.835	82
374.061	90
374.287	92
374.513	98
374.739	85
374.965	71
375.191	103
375.416	84
375.642	95
375.868	104
376.094	82
376.319	91
376.545	98
376.771	92
376.997	91
377.222	91
377.448	92
377.674	74
377.899	97
378.125	104
378.35	94
378.576	103
378.802	84
379.027	88
379.253	102
379.478	80
379.704	87
379.929	99
380.155	108
380.38	93
380.606	100
380.831	76
381.057	89
381.282	89
381.507	96
381.733	85
381.958	92
382.184	94
382.409	112
382.634	91
382.86	94
383.085	104
383.31	106
383.535	110
383.761	98
383.986	92
384.211	95
384.436	95
384.662	96
384.887	100
385.112	97
385.337	100
385.562	93
385.787	102
386.013	107
386.238	115
386.463	93
386.688	97
386.913	112
387.138	105
387.363	97
387.588	114
387.813	109
388.038	102
388.263	104
388.488	99
388.713	93
388.938	95
389.163	85
389.387	83
389.612	91
389.837	94
390.062	92
390.287	82
390.512	100
390.736	97
390.961	104
391.186	97
391.411	92
391.636	96
391.86	85
392.085	100
392.31	88
392.534	97
392.759	81
392.984	74
393.208	85
393.433	86
393.658	89
393.882	94
394.107	89
394.331	88
394.556	83
394.78	84
395.005	97
395.229	98
395.454	93
395.678	80
395.903	100
396.127	81
396.352	97
396.576	97
396.801	93
397.025	93
397.249	91
397.474	80
397.698	95
397.922	105
398.147	98
398.371	88
398.595	92
398.82	84
399.044	109
399.268	79
399.492	87
399.717	73
399.941	89
400.165	89
400.389	103
400.613	92
400.837	85
401.062	89
401.286	96
401.51	83
401.734	100
401.958	123
402.182	139
402.406	150
402.63	114
402.854	105
403.078	88
403.302	94
403.526	88
403.75	77
403.974	89
404.198	93
404.422	100
404.645	92
404.869	91
405.093	88
405.317	104
405.541	86
405.765	92
405.988	108
406.212	161
406.436	225
406.66	140
406.883	108
407.107	101
407.331	105
407.555	95
407.778	96
408.002	100
408.226	85
408.449	87
408.673	85
408.896	80
409.12	97
409.344	87
409.567	88
409.791	92
410.014	83
410.238	95
410.461	90
410.685	101
410.908	103
411.132	93
411.355	102
411.578	90
411.802	95
412.025	92
412.249	102
412.472	90
412.695	106
412.919	85
413.142	83
413.365	102
413.589	85
413.812	89
414.035	100
414.258	84
414.482	93
414.705	97
414.928	95
415.151	88
415.374	106
415.597	91
415.821	86
416.044	79
416.267	75
416.49	72
416.713	87
416.936	95
417.159	75
417.382	79
417.605	77
417.828	99
418.051	85
418.274	86
418.497	79
418.72	88
418.943	99
419.166	97
419.389	105
419.611	85
419.834	92
420.057	85
420.28	96
420.503	98
420.726	92
420.948	85
421.171	74
421.394	106
421.617	90
421.839	82
422.062	88
422.285	78
422.507	97
422.73	112
422.953	106
423.175	97
423.398	93
423.621	98
423.843	90
424.066	79
424.288	87
424.511	98
424.733	102
424.956	104
425.178	91
425.401	97
425.623	98
425.846	96
426.068	98
426.291	106
426.513	96
426.735	87
426.958	97
427.18	109
427.402	130
427.625	164
427.847	115
428.069	90
428.292	94
428.514	72
428.736	85
428.958	89
429.181	99
429.403	85
429.625	88
429.847	88
430.069	97
430.292	93
430.514	100
430.736	88
430.958	85
431.18	85
431.402	75
431.624	90
431.846	79
432.068	75
432.29	76
432.512	72
432.734	90
432.956	85
433.178	99
433.4	106
433.622	89
433.844	96
434.066	98
434.287	85
434.509	103
434.731	96
434.953	81
435.175	99
435.397	105
435.618	95
435.84	104
436.062	105
436.284	95
436.505	89
436.727	113
436.949	95
437.17	88
437.392	86
437.614	96
437.835	98
438.057	117
438.278	99
438.5	107
438.721	113
438.943	94
439.165	95
439.386	91
439.608	84
439.829	104
440.05	115
440.272	131
440.493	95
440.715	80
440.936	89
441.158	86
441.379	87
441.6	103
441.822	85
442.043	94
442.264	112
442.486	75
442.707	91
442.928	108
443.149	137
443.371	118
443.592	100
443.813	100
444.034	113
444.255	88
444.476	83
444.698	74
444.919	90
445.14	126
445.361	127
445.582	132
445.803	120
446.024	139
446.245	133
446.466	122
446.687	96
446.908	91
447.129	89
447.35	89
447.571	83
447.792	89
448.013	88
448.234	105
448.455	97
448.675	109
448.896	98
449.117	105
449.338	99
449.559	122
449.779	132
450	97
450.221	95
450.442	93
450.662	93
450.883	98
451.104	95
451.324	87
451.545	90
451.766	88
451.986	85
452.207	99
452.428	86
452.648	96
452.869	101
453.089	105
453.31	95
453.53	66
453.751	88
453.971	90
454.192	113
454.412	97
454.633	87
454.853	77
455.073	95
455.294	83
455.514	95
455.734	85
455.955	98
456.175	90
456.395	82
456.616	95
456.836	84
457.056	92
457.276	91
457.497	81
457.717	84
457.937	92
458.157	108
458.377	101
458.598	95
458.818	145
459.038	140
459.258	106
459.478	77
459.698	71
459.918	92
460.138	95
460.358	75
460.578	84
460.798	67
461.018	79
461.238	76
461.458	80
461.678	83
461.898	87
462.118	82
462.338	82
462.558	83
462.777	77
462.997	75
463.217	91
463.437	87
463.657	91
463.876	93
464.096	95
464.316	88
464.536	88
464.755	90
464.975	108
465.195	147
465.414	148
465.634	99
465.854	86
466.073	81
466.293	76
466.512	92
466.732	89
466.951	78
467.171	82
467.391	100
467.61	101
467.829	85
468.049	88
468.268	81
468.488	83
468.707	87
468.927	81
469.146	101
469.365	85
469.585	79
469.804	100
470.023	96
470.243	98
470.462	99
470.681	104
470.901	85
471.12	79
471.339	99
471.558	81
471.777	92
471.997	88
472.216	90
472.435	100
472.654	80
472.873	86
473.092	85
473.311	66
473.53	82
473.749	82
473.968	98
474.187	93
474.406	87
474.625	97
474.844	83
475.063	85
475.282	76
475.501	90
475.72	101
475.939	99
476.158	101
476.377	92
476.596	87
476.814	91
477.033	96
477.252	97
477.471	78
477.69	75
477.908	79
478.127	84
478.346	91
478.564	92
478.783	89
479.002	95
479.22	91
479.439	92
479.658	106
479.876	94
480.095	85
480.313	83
480.532	91
480.751	90
480.969	97
481.188	85
481.406	92
481.624	81
481.843	98
482.061	88
482.28	74
482.498	85
482.717	89
482.935	82
483.153	84
483.372	91
483.59	84
483.808	85
484.027	87
484.245	107
484.463	104
484.681	85
484.9	72
485.118	104
485.336	92
485.554	82
485.772	101
485.99	104
486.209	103
486.427	119
486.645	106
486.863	115
487.081	93
487.299	94
487.517	109
487.735	106
487.953	89
488.171	88
488.389	89
488.607	97
488.825	83
489.043	84
489.261	96
489.479	67
489.696	98
489.914	77
490.132	81
490.35	101
490.568	92
490.786	96
491.003	84
491.221	89
491.439	100
491.657	99
491.874	107
492.092	97
492.31	92
492.527	98
492.745	106
492.963	99
493.18	84
493.398	83
493.615	103
493.833	99
494.05	97
494.268	99
494.485	82
494.703	85
494.92	88
495.138	89
495.355	98
495.573	93
495.79	103
496.008	79
496.225	111
496.442	88
496.66	103
496.877	101
497.094	103
497.312	92
497.529	98
497.746	101
497.963	85
498.181	96
498.398	94
498.615	96
498.832	91
499.049	88
499.267	95
499.484	84
499.701	88
499.918	85
500.135	92
500.352	83
500.569	106
500.786	97
501.003	88
501.22	83
501.437	88
501.654	90
501.871	93
502.088	84
502.305	90
502.522	108
502.739	83
502.956	98
503.172	87
503.389	95
503.606	107
503.823	100
504.04	92
504.256	116
504.473	89
504.69	93
504.907	103
505.123	80
505.34	80
505.557	89
505.773	94
505.99	87
506.207	96
506.423	93
506.64	79
506.856	85
507.073	91
507.289	86
507.506	82
507.722	97
507.939	109
508.155	102
508.372	96
508.588	96
508.805	97
509.021	104
509.238	113
509.454	97
509.67	97
509.887	103
510.103	134
510.319	209
510.536	727
510.752	2271
510.968	621
511.184	145
511.401	105
511.617	93
511.833	83
512.049	90
512.265	88
512.481	98
512.698	77
512.914	71
513.13	90
513.346	88
513.562	101
513.778	86
513.994	92
514.21	104
514.426	109
514.642	119
514.858	121
515.074	160
515.29	442
515.506	1378
515.721	500
515.937	146
516.153	117
516.369	103
516.585	89
516.801	101
517.016	101
517.232	103
517.448	79
517.664	89
517.879	99
518.095	93
518.311	89
518.527	84
518.742	84
518.958	102
519.173	80
519.389	94
519.605	92
519.82	85
520.036	109
520.251	123
520.467	118
520.682	103
520.898	99
521.113	120
521.329	135
521.544	194
521.76	531
521.975	2281
522.19	1371
522.406	297
522.621	127
522.836	94
523.052	91
523.267	99
523.482	95
523.698	97
523.913	107
524.128	104
524.343	92
524.559	101
524.774	85
524.989	113
525.204	104
525.419	104
525.634	98
525.849	97
526.064	91
526.28	100
526.495	92
526.71	87
526.925	104
527.14	81
527.355	98
527.57	92
527.785	87
527.999	95
528.214	84
528.429	94
528.644	95
528.859	92
529.074	97
529.289	111
529.503	168
529.718	108
529.933	108
530.148	87
530.363	100
530.577	81
530.792	90
531.007	88
531.221	84
531.436	91
531.651	93
531.865	80
532.08	86
532.295	92
532.509	100
532.724	100
532.938	87
533.153	95
533.367	99
533.582	102
533.796	95
534.011	75
534.225	96
534.44	93
534.654	98
534.868	84
535.083	88
535.297	77
535.511	92
535.726	118
535.94	96
536.154	92
536.369	91
536.583	75
536.797	75
537.011	105
537.225	92
537.44	91
537.654	97
537.868	89
538.082	98
538.296	88
538.51	84
538.724	97
538.938	88
539.153	108
539.367	109
539.581	101
539.795	90
540.009	86
540.222	98
540.436	105
540.65	81
540.864	100
541.078	93
541.292	88
541.506	93
541.72	83
541.934	93
542.147	96
542.361	98
542.575	81
542.789	84
543.002	98
543.216	100
543.43	96
543.644	87
543.857	68
544.071	87
544.285	108
544.498	102
544.712	88
544.925	96
545.139	82
545.352	95
545.566	88
545.779	83
545.993	91
546.206	83
546.42	94
546.633	99
546.847	95
547.06	81
547.274	93
547.487	96
547.7	81
547.914	96
548.127	84
548.34	95
548.554	85
548.767	85
548.98	89
549.193	91
549.407	101
549.62	98
549.833	102
550.046	84
550.259	83
550.473	98
550.686	88
550.899	77
551.112	99
551.325	95
551.538	85
551.751	90
551.964	85
552.177	95
552.39	86
552.603	95
552.816	82
553.029	81
553.242	95
553.455	89
553.667	96
553.88	100
554.093	84
554.306	105
554.519	89
554.732	88
554.944	99
555.157	85
555.37	101
555.583	89
555.795	92
556.008	104
556.221	97
556.433	92
556.646	117
556.859	83
557.071	96
557.284	90
557.496	89
557.709	93
557.921	101
558.134	76
558.346	73
558.559	85
558.771	83
558.984	89
559.196	91
559.409	93
559.621	96
559.833	87
560.046	86
560.258	88
560.47	87
560.683	97
560.895	100
561.107	87
561.32	90
561.532	89
561.744	102
561.956	80
562.168	84
562.381	99
562.593	92
562.805	104
563.017	76
563.229	88
563.441	98
563.653	90
563.865	85
564.077	92
564.289	97
564.501	84
564.713	87
564.925	91
565.137	103
565.349	103
565.561	92
565.773	81
565.985	98
566.197	82
566.408	83
566.62	89
566.832	92
567.044	92
567.255	82
567.467	91
567.679	84
567.891	82
568.102	83
568.314	93
568.526	92
568.737	99
568.949	88
569.161	93
569.372	84
569.584	88
569.795	88
570.007	111
570.218	227
570.43	138
570.641	82
570.853	107
571.064	98
571.276	84
571.487	82
571.698	84
571.91	92
572.121	83
572.333	94
572.544	92
572.755	85
572.966	83
573.178	91
573.389	91
573.6	94
573.811	93
574.023	89
574.234	81
574.445	92
574.656	86
574.867	87
575.078	88
575.289	97
575.501	91
575.712	75
575.923	88
576.134	85
576.345	77
576.556	81
576.767	104
576.978	95
577.188	85
577.399	85
577.61	89
577.821	97
578.032	116
578.243	279
578.454	753
578.665	205
578.875	101
579.086	91
579.297	93
579.508	89
579.718	97
579.929	90
580.14	83
580.35	78
580.561	79
580.772	89
580.982	90
581.193	90
581.403	98
581.614	80
581.825	92
582.035	89
582.246	89
582.456	90
582.667	84
582.877	87
583.087	84
583.298	97
583.508	87
583.719	95
583.929	90
584.139	96
584.35	85
584.56	81
584.77	94
584.981	94
585.191	86
585.401	86
585.611	93
585.821	85
586.032	99
586.242	92
586.452	90
586.662	84
586.872	80
587.082	87
587.292	92
587.502	101
587.713	96
587.923	87
588.133	72
588.343	93
588.553	102
588.762	74
588.972	91
589.182	93
589.392	91
589.602	108
589.812	85
590.022	75
590.232	95
590.441	92
590.651	79
590.861	83
591.071	103
591.281	75
591.49	83
591.7	79
591.91	93
592.119	90
592.329	92
592.539	81
592.748	100
592.958	85
593.167	99
593.377	98
593.587	91
593.796	103
594.006	87
594.215	94
594.424	98
594.634	90
594.843	90
595.053	80
595.262	91
595.472	97
595.681	67
595.89	79
596.1	95
596.309	96
596.518	90
596.727	97
596.937	103
597.146	92
597.355	83
597.564	82
597.774	75
597.983	85
598.192	92
598.401	98
598.61	88
598.819	91
599.028	92
599.237	93
599.446	102
599.655	88
599.864	95
600.073	85
600.282	97
600.491	89
600.7	94
600.909	87
601.118	98
601.327	81
601.536	100
601.745	87
601.953	93
602.162	98
602.371	79
602.58	91
602.789	84
602.997	90
603.206	84
603.415	84
603.623	83
603.832	74
604.041	91
604.249	92
604.458	90
604.666	86
604.875	73
605.084	87
605.292	88
605.501	82
605.709	88
605.918	86
606.126	90
606.334	97
606.543	99
606.751	86
606.96	78
607.168	91
607.376	87
607.585	86
607.793	96
608.001	88
608.21	95
608.418	76
608.626	93
608.834	94
609.043	89
609.251	85
609.459	79
609.667	92
609.875	72
610.083	71
610.291	84
610.499	98
610.707	95
610.916	102
611.124	90
611.332	96
611.54	93
611.748	88
611.955	84
612.163	82
612.371	92
612.579	74
612.787	85
612.995	97
613.203	96
613.411	68
613.618	98
613.826	81
614.034	85
614.242	94
614.449	80
614.657	94
614.865	99
615.072	90
615.28	97
615.488	97
615.695	93
615.903	98
616.111	106
616.318	96
616.526	89
616.733	96
616.941	90
617.148	76
617.356	98
617.563	75
617.771	87
617.978	91
618.185	86
618.393	92
618.6	99
618.807	89
619.015	91
619.222	71
619.429	101
619.637	76
619.844	76
620.051	99
620.258	97
620.466	86
620.673	85
620.88	89
621.087	96
621.294	91
621.501	88
621.708	87
621.915	92
622.122	88
622.329	90
622.536	93
622.743	93
622.95	95
623.157	88
623.364	76
623.571	87
623.778	71
623.985	79
624.192	105
624.399	93
624.606	81
624.812	83
625.019	95
625.226	82
625.433	90
625.639	89
625.846	70
626.053	74
626.259	91
626.466	97
626.673	80
626.879	88
627.086	105
627.293	79
627.499	86
627.706	87
627.912	89
628.119	83
628.325	89
628.532	71
628.738	87
628.945	83
629.151	81
629.357	81
629.564	86
629.77	91
629.976	92
630.183	73
630.389	87
630.595	76
630.802	102
631.008	76
631.214	75
631.42	87
631.627	95
631.833	84
632.039	82
632.245	66
632.451	85
632.657	81
632.863	80
633.069	89
633.275	97
633.481	75
633.688	97
633.893	77
634.099	68
634.305	84
634.511	85
634.717	89
634.923	75
635.129	83
635.335	77
635.541	77
635.747	85
635.952	92
636.158	91
636.364	75
636.57	92
636.775	87
636.981	73
637.187	84
637.392	86
637.598	80
637.804	80
638.009	93
638.215	93
638.421	79
638.626	85
638.832	80
639.037	76
639.243	75
639.448	88
639.654	85
639.859	67
640.065	82
640.27	83
640.475	89
640.681	90
640.886	88
641.091	72
641.297	89
641.502	91
641.707	87
641.913	85
642.118	90
642.323	81
642.528	77
642.733	99
642.939	82
643.144	83
643.349	81
643.554	88
643.759	85
643.964	93
644.169	89
644.374	76
644.579	89
644.784	76
644.989	101
645.194	81
645.399	90
645.604	86
645.809	85
646.014	105
646.219	88
646.423	91
646.628	92
646.833	85
647.038	83
647.243	83
647.447	94
647.652	86
647.857	101
648.062	86
648.266	88
648.471	91
648.676	106
648.88	95
649.085	105
649.289	110
649.494	92
649.698	132
649.903	104
650.107	101
650.312	92
650.516	90
650.721	85
650.925	92
651.13	83
651.334	91
651.539	82
651.743	80
651.947	86
652.152	91
652.356	88
652.56	81
652.764	91
652.969	96
653.173	84
653.377	81
653.581	87
653.785	84
653.99	87
654.194	87
654.398	80
654.602	82
654.806	82
655.01	108
655.214	102
655.418	88
655.622	93
655.826	88
656.03	88
656.234	99
656.438	101
656.642	105
656.846	103
657.049	89
657.253	83
657.457	73
657.661	79
657.865	72
658.068	81
658.272	86
658.476	89
658.68	89
658.883	101
659.087	84
659.291	82
659.494	76
659.698	73
659.901	89
660.105	89
660.309	83
660.512	90
660.716	84
660.919	70
661.123	78
661.326	83
661.53	81
661.733	85
661.936	83
662.14	94
662.343	68
662.546	81
662.75	85
662.953	83
663.156	93
663.36	89
663.563	102
663.766	93
663.969	83
664.173	97
664.376	89
664.579	77
664.782	69
664.985	84
665.188	91
665.391	88
665.594	104
665.797	74
666	80
666.203	74
666.406	73
666.609	84
666.812	80
667.015	83
667.218	85
667.421	88
667.624	80
667.827	84
668.03	90
668.232	79
668.435	88
668.638	77
668.841	96
669.043	79
669.246	88
669.449	90
669.651	76
669.854	87
670.057	87
670.259	82
670.462	87
670.665	75
670.867	90
671.07	103
671.272	86
671.475	83
671.677	83
671.88	77
672.082	69
672.284	79
672.487	106
672.689	85
672.892	76
