Data from Uncirc_2002_H10_HRD10591_00012.txt Node
Date: Wed Jan 03 10:39:43 EST 2024
User: Yrep
Spectrometer: HR+D1059
Trigger mode: 1
Integration Time (sec): 1.000000E-1
Scans to average: 1
Electric dark correction enabled: true
Nonlinearity correction enabled: false
Boxcar width: 0
XAxis mode: Wavelengths
Number of Pixels in Spectrum: 2048
>>>>>Begin Spectral Data<<<<<
223.165	-22.06
223.4	-22.06
223.635	-22.06
223.869	-19.06
224.104	-0.06
224.338	-17.06
224.573	-25.06
224.808	-8.06
225.042	-4.06
225.277	-21.06
225.511	5.94
225.746	9.94
225.98	14.94
226.215	4.94
226.449	24.94
226.683	4.94
226.918	14.94
227.152	35.94
227.387	38.94
227.621	46.94
227.856	34.94
228.09	51.94
228.324	40.94
228.559	42.94
228.793	57.94
229.027	71.94
229.262	66.94
229.496	62.94
229.73	81.94
229.964	59.94
230.199	77.94
230.433	71.94
230.667	81.94
230.901	76.94
231.136	69.94
231.37	72.94
231.604	75.94
231.838	84.94
232.072	81.94
232.306	92.94
232.541	80.94
232.775	83.94
233.009	87.94
233.243	78.94
233.477	68.94
233.711	68.94
233.945	63.94
234.179	81.94
234.413	82.94
234.647	83.94
234.881	75.94
235.115	83.94
235.349	90.94
235.583	92.94
235.817	78.94
236.051	92.94
236.285	76.94
236.519	79.94
236.753	78.94
236.987	78.94
237.221	77.94
237.455	84.94
237.689	84.94
237.922	80.94
238.156	65.94
238.39	75.94
238.624	79.94
238.858	73.94
239.091	76.94
239.325	68.94
239.559	63.94
239.793	75.94
240.027	75.94
240.26	79.94
240.494	75.94
240.728	79.94
240.961	94.94
241.195	87.94
241.429	92.94
241.662	64.94
241.896	75.94
242.13	55.94
242.363	70.94
242.597	59.94
242.83	74.94
243.064	69.94
243.298	81.94
243.531	65.94
243.765	73.94
243.998	80.94
244.232	70.94
244.465	80.94
244.699	89.94
244.932	77.94
245.166	67.94
245.399	91.94
245.633	86.94
245.866	50.94
246.099	87.94
246.333	79.94
246.566	80.94
246.8	85.94
247.033	94.94
247.266	79.94
247.5	83.94
247.733	75.94
247.966	58.94
248.2	67.94
248.433	82.94
248.666	66.94
248.899	89.94
249.133	94.94
249.366	85.94
249.599	91.94
249.832	81.94
250.066	76.94
250.299	66.94
250.532	65.94
250.765	72.94
250.998	74.94
251.231	78.94
251.465	78.94
251.698	76.94
251.931	90.94
252.164	83.94
252.397	76.94
252.63	84.94
252.863	75.94
253.096	88.94
253.329	87.94
253.562	79.94
253.795	95.94
254.028	87.94
254.261	84.94
254.494	74.94
254.727	73.94
254.96	89.94
255.193	80.94
255.426	67.94
255.659	77.94
255.892	81.94
256.124	90.94
256.357	74.94
256.59	65.94
256.823	74.94
257.056	88.94
257.289	91.94
257.521	80.94
257.754	92.94
257.987	80.94
258.22	90.94
258.452	99.94
258.685	84.94
258.918	71.94
259.151	71.94
259.383	78.94
259.616	88.94
259.849	83.94
260.081	73.94
260.314	85.94
260.547	75.94
260.779	86.94
261.012	91.94
261.244	85.94
261.477	81.94
261.71	80.94
261.942	92.94
262.175	78.94
262.407	88.94
262.64	85.94
262.872	82.94
263.105	96.94
263.337	87.94
263.57	82.94
263.802	89.94
264.035	87.94
264.267	91.94
264.499	93.94
264.732	106.94
264.964	100.94
265.197	84.94
265.429	79.94
265.661	85.94
265.894	85.94
266.126	75.94
266.358	85.94
266.591	90.94
266.823	81.94
267.055	68.94
267.287	79.94
267.52	73.94
267.752	90.94
267.984	81.94
268.216	97.94
268.448	77.94
268.681	62.94
268.913	86.94
269.145	90.94
269.377	77.94
269.609	80.94
269.841	84.94
270.073	84.94
270.306	81.94
270.538	85.94
270.77	79.94
271.002	93.94
271.234	78.94
271.466	99.94
271.698	82.94
271.93	74.94
272.162	72.94
272.394	98.94
272.626	90.94
272.858	93.94
273.09	84.94
273.322	90.94
273.553	81.94
273.785	99.94
274.017	86.94
274.249	90.94
274.481	81.94
274.713	83.94
274.945	102.94
275.176	91.94
275.408	99.94
275.64	92.94
275.872	85.94
276.104	82.94
276.335	88.94
276.567	91.94
276.799	97.94
277.031	91.94
277.262	89.94
277.494	93.94
277.726	83.94
277.957	72.94
278.189	84.94
278.421	78.94
278.652	66.94
278.884	92.94
279.115	81.94
279.347	82.94
279.579	82.94
279.81	82.94
280.042	85.94
280.273	95.94
280.505	92.94
280.736	92.94
280.968	96.94
281.199	98.94
281.431	71.94
281.662	91.94
281.894	91.94
282.125	89.94
282.356	113.94
282.588	118.94
282.819	89.94
283.051	87.94
283.282	84.94
283.513	110.94
283.745	82.94
283.976	83.94
284.207	97.94
284.439	91.94
284.67	91.94
284.901	88.94
285.132	95.94
285.364	80.94
285.595	99.94
285.826	71.94
286.057	90.94
286.288	80.94
286.52	109.94
286.751	79.94
286.982	87.94
287.213	78.94
287.444	89.94
287.675	86.94
287.906	73.94
288.138	88.94
288.369	89.94
288.6	83.94
288.831	93.94
289.062	83.94
289.293	73.94
289.524	85.94
289.755	80.94
289.986	92.94
290.217	85.94
290.448	85.94
290.679	78.94
290.91	95.94
291.141	80.94
291.371	88.94
291.602	81.94
291.833	84.94
292.064	87.94
292.295	89.94
292.526	87.94
292.757	89.94
292.987	85.94
293.218	77.94
293.449	75.94
293.68	80.94
293.91	89.94
294.141	96.94
294.372	99.94
294.603	76.94
294.833	82.94
295.064	85.94
295.295	83.94
295.525	94.94
295.756	92.94
295.987	107.94
296.217	94.94
296.448	107.94
296.679	100.94
296.909	78.94
297.14	92.94
297.37	92.94
297.601	93.94
297.831	98.94
298.062	96.94
298.292	85.94
298.523	79.94
298.753	78.94
298.984	92.94
299.214	91.94
299.445	87.94
299.675	86.94
299.905	96.94
300.136	88.94
300.366	92.94
300.597	98.94
300.827	92.94
301.057	75.94
301.288	93.94
301.518	86.94
301.748	87.94
301.979	97.94
302.209	91.94
302.439	91.94
302.669	97.94
302.9	88.94
303.13	93.94
303.36	86.94
303.59	88.94
303.82	87.94
304.051	100.94
304.281	90.94
304.511	75.94
304.741	86.94
304.971	95.94
305.201	90.94
305.431	106.94
305.661	85.94
305.891	89.94
306.121	96.94
306.352	101.94
306.582	99.94
306.812	95.94
307.042	81.94
307.272	92.94
307.502	94.94
307.731	82.94
307.961	89.94
308.191	94.94
308.421	78.94
308.651	90.94
308.881	93.94
309.111	80.94
309.341	94.94
309.571	100.94
309.8	91.94
310.03	89.94
310.26	82.94
310.49	89.94
310.72	92.94
310.949	102.94
311.179	90.94
311.409	97.94
311.639	100.94
311.868	93.94
312.098	88.94
312.328	88.94
312.557	91.94
312.787	92.94
313.017	98.94
313.246	103.94
313.476	98.94
313.706	72.94
313.935	88.94
314.165	99.94
314.394	89.94
314.624	92.94
314.853	97.94
315.083	90.94
315.312	71.94
315.542	96.94
315.771	96.94
316.001	87.94
316.23	58.94
316.46	96.94
316.689	80.94
316.919	94.94
317.148	98.94
317.377	95.94
317.607	90.94
317.836	91.94
318.065	92.94
318.295	95.94
318.524	80.94
318.753	92.94
318.983	100.94
319.212	94.94
319.441	112.94
319.67	100.94
319.9	100.94
320.129	80.94
320.358	78.94
320.587	87.94
320.816	105.94
321.046	100.94
321.275	91.94
321.504	111.94
321.733	97.94
321.962	92.94
322.191	105.94
322.42	98.94
322.649	106.94
322.878	91.94
323.108	111.94
323.337	111.94
323.566	114.94
323.795	116.94
324.024	176.94
324.253	314.94
324.482	663.94
324.71	1330.94
324.939	1706.94
325.168	629.94
325.397	210.94
325.626	147.94
325.855	129.94
326.084	118.94
326.313	116.94
326.542	137.94
326.77	204.94
326.999	386.94
327.228	788.94
327.457	1412.94
327.686	1092.94
327.914	288.94
328.143	155.94
328.372	112.94
328.6	108.94
328.829	104.94
329.058	107.94
329.287	115.94
329.515	103.94
329.744	89.94
329.972	96.94
330.201	88.94
330.43	107.94
330.658	112.94
330.887	106.94
331.115	92.94
331.344	97.94
331.572	99.94
331.801	96.94
332.03	89.94
332.258	102.94
332.486	84.94
332.715	90.94
332.943	97.94
333.172	89.94
333.4	100.94
333.629	94.94
333.857	103.94
334.085	93.94
334.314	99.94
334.542	75.94
334.771	83.94
334.999	95.94
335.227	86.94
335.455	89.94
335.684	104.94
335.912	92.94
336.14	87.94
336.369	94.94
336.597	98.94
336.825	82.94
337.053	93.94
337.281	91.94
337.51	93.94
337.738	108.94
337.966	99.94
338.194	86.94
338.422	94.94
338.65	93.94
338.878	99.94
339.106	92.94
339.334	89.94
339.562	83.94
339.79	84.94
340.018	90.94
340.246	84.94
340.474	98.94
340.702	85.94
340.93	87.94
341.158	79.94
341.386	85.94
341.614	98.94
341.842	107.94
342.07	107.94
342.298	90.94
342.526	81.94
342.754	90.94
342.981	82.94
343.209	92.94
343.437	94.94
343.665	78.94
343.893	84.94
344.12	89.94
344.348	92.94
344.576	88.94
344.804	96.94
345.031	98.94
345.259	87.94
345.487	101.94
345.714	97.94
345.942	91.94
346.17	83.94
346.397	82.94
346.625	87.94
346.853	73.94
347.08	86.94
347.308	99.94
347.535	94.94
347.763	90.94
347.99	79.94
348.218	100.94
348.445	103.94
348.673	87.94
348.9	83.94
349.128	107.94
349.355	86.94
349.583	95.94
349.81	93.94
350.037	88.94
350.265	86.94
350.492	86.94
350.72	98.94
350.947	103.94
351.174	94.94
351.402	90.94
351.629	101.94
351.856	116.94
352.083	102.94
352.311	107.94
352.538	99.94
352.765	99.94
352.992	115.94
353.22	130.94
353.447	100.94
353.674	98.94
353.901	102.94
354.128	97.94
354.355	100.94
354.583	112.94
354.81	108.94
355.037	96.94
355.264	102.94
355.491	96.94
355.718	89.94
355.945	92.94
356.172	102.94
356.399	97.94
356.626	94.94
356.853	104.94
357.08	96.94
357.307	101.94
357.534	92.94
357.761	90.94
357.988	86.94
358.215	89.94
358.441	88.94
358.668	97.94
358.895	90.94
359.122	87.94
359.349	77.94
359.576	93.94
359.802	90.94
360.029	108.94
360.256	104.94
360.483	92.94
360.709	83.94
360.936	91.94
361.163	97.94
361.39	82.94
361.616	83.94
361.843	91.94
362.07	81.94
362.296	88.94
362.523	91.94
362.749	94.94
362.976	86.94
363.203	79.94
363.429	82.94
363.656	82.94
363.882	75.94
364.109	84.94
364.335	91.94
364.562	111.94
364.788	90.94
365.015	80.94
365.241	88.94
365.468	100.94
365.694	114.94
365.92	87.94
366.147	92.94
366.373	86.94
366.599	92.94
366.826	89.94
367.052	85.94
367.278	83.94
367.505	72.94
367.731	86.94
367.957	92.94
368.184	83.94
368.41	90.94
368.636	104.94
368.862	111.94
369.089	100.94
369.315	89.94
369.541	95.94
369.767	94.94
369.993	90.94
370.219	78.94
370.445	96.94
370.672	84.94
370.898	89.94
371.124	92.94
371.35	92.94
371.576	86.94
371.802	100.94
372.028	81.94
372.254	91.94
372.48	83.94
372.706	79.94
372.932	94.94
373.158	91.94
373.384	89.94
373.61	89.94
373.835	83.94
374.061	84.94
374.287	71.94
374.513	89.94
374.739	88.94
374.965	95.94
375.191	96.94
375.416	87.94
375.642	83.94
375.868	96.94
376.094	94.94
376.319	75.94
376.545	96.94
376.771	93.94
376.997	82.94
377.222	95.94
377.448	91.94
377.674	89.94
377.899	81.94
378.125	77.94
378.35	87.94
378.576	87.94
378.802	85.94
379.027	90.94
379.253	96.94
379.478	92.94
379.704	89.94
379.929	94.94
380.155	94.94
380.38	92.94
380.606	92.94
380.831	110.94
381.057	86.94
381.282	92.94
381.507	91.94
381.733	98.94
381.958	103.94
382.184	92.94
382.409	100.94
382.634	107.94
382.86	86.94
383.085	112.94
383.31	99.94
383.535	115.94
383.761	91.94
383.986	94.94
384.211	100.94
384.436	110.94
384.662	107.94
384.887	106.94
385.112	107.94
385.337	101.94
385.562	111.94
385.787	97.94
386.013	106.94
386.238	115.94
386.463	118.94
386.688	99.94
386.913	85.94
387.138	113.94
387.363	105.94
387.588	100.94
387.813	105.94
388.038	105.94
388.263	113.94
388.488	114.94
388.713	95.94
388.938	98.94
389.163	91.94
389.387	92.94
389.612	90.94
389.837	100.94
390.062	94.94
390.287	89.94
390.512	95.94
390.736	104.94
390.961	79.94
391.186	80.94
391.411	95.94
391.636	90.94
391.86	94.94
392.085	82.94
392.31	86.94
392.534	95.94
392.759	104.94
392.984	93.94
393.208	109.94
393.433	133.94
393.658	123.94
393.882	79.94
394.107	96.94
394.331	79.94
394.556	75.94
394.78	86.94
395.005	88.94
395.229	89.94
395.454	104.94
395.678	90.94
395.903	95.94
396.127	70.94
396.352	97.94
396.576	86.94
396.801	107.94
397.025	105.94
397.249	93.94
397.474	98.94
397.698	82.94
397.922	88.94
398.147	77.94
398.371	79.94
398.595	86.94
398.82	85.94
399.044	102.94
399.268	87.94
399.492	75.94
399.717	91.94
399.941	84.94
400.165	86.94
400.389	89.94
400.613	88.94
400.837	85.94
401.062	92.94
401.286	89.94
401.51	97.94
401.734	91.94
401.958	99.94
402.182	117.94
402.406	126.94
402.63	102.94
402.854	85.94
403.078	79.94
403.302	99.94
403.526	113.94
403.75	84.94
403.974	82.94
404.198	103.94
404.422	83.94
404.645	86.94
404.869	100.94
405.093	87.94
405.317	95.94
405.541	93.94
405.765	103.94
405.988	111.94
406.212	138.94
406.436	194.94
406.66	134.94
406.883	104.94
407.107	99.94
407.331	107.94
407.555	86.94
407.778	91.94
408.002	92.94
408.226	82.94
408.449	93.94
408.673	86.94
408.896	96.94
409.12	82.94
409.344	80.94
409.567	95.94
409.791	91.94
410.014	95.94
410.238	102.94
410.461	89.94
410.685	94.94
410.908	79.94
411.132	116.94
411.355	95.94
411.578	81.94
411.802	95.94
412.025	91.94
412.249	88.94
412.472	86.94
412.695	91.94
412.919	88.94
413.142	89.94
413.365	95.94
413.589	86.94
413.812	98.94
414.035	94.94
414.258	83.94
414.482	88.94
414.705	95.94
414.928	78.94
415.151	105.94
415.374	102.94
415.597	75.94
415.821	77.94
416.044	78.94
416.267	92.94
416.49	99.94
416.713	102.94
416.936	94.94
417.159	92.94
417.382	89.94
417.605	96.94
417.828	84.94
418.051	88.94
418.274	102.94
418.497	86.94
418.72	89.94
418.943	89.94
419.166	92.94
419.389	93.94
419.611	86.94
419.834	85.94
420.057	83.94
420.28	84.94
420.503	71.94
420.726	85.94
420.948	88.94
421.171	98.94
421.394	89.94
421.617	97.94
421.839	89.94
422.062	94.94
422.285	102.94
422.507	83.94
422.73	119.94
422.953	99.94
423.175	86.94
423.398	90.94
423.621	88.94
423.843	88.94
424.066	81.94
424.288	90.94
424.511	82.94
424.733	103.94
424.956	97.94
425.178	104.94
425.401	99.94
425.623	79.94
425.846	98.94
426.068	92.94
426.291	89.94
426.513	101.94
426.735	90.94
426.958	98.94
427.18	98.94
427.402	140.94
427.625	143.94
427.847	97.94
428.069	106.94
428.292	96.94
428.514	87.94
428.736	91.94
428.958	81.94
429.181	85.94
429.403	87.94
429.625	95.94
429.847	87.94
430.069	83.94
430.292	89.94
430.514	78.94
430.736	89.94
430.958	85.94
431.18	96.94
431.402	84.94
431.624	86.94
431.846	78.94
432.068	91.94
432.29	92.94
432.512	90.94
432.734	98.94
432.956	95.94
433.178	83.94
433.4	92.94
433.622	80.94
433.844	82.94
434.066	89.94
434.287	87.94
434.509	87.94
434.731	83.94
434.953	89.94
435.175	84.94
435.397	86.94
435.618	98.94
435.84	113.94
436.062	106.94
436.284	102.94
436.505	90.94
436.727	73.94
436.949	103.94
437.17	98.94
437.392	86.94
437.614	93.94
437.835	107.94
438.057	107.94
438.278	99.94
438.5	94.94
438.721	103.94
438.943	99.94
439.165	87.94
439.386	87.94
439.608	84.94
439.829	87.94
440.05	110.94
440.272	122.94
440.493	107.94
440.715	94.94
440.936	80.94
441.158	75.94
441.379	75.94
441.6	86.94
441.822	90.94
442.043	94.94
442.264	103.94
442.486	101.94
442.707	80.94
442.928	89.94
443.149	130.94
443.371	108.94
443.592	101.94
443.813	103.94
444.034	101.94
444.255	84.94
444.476	91.94
444.698	82.94
444.919	96.94
445.14	136.94
445.361	121.94
445.582	91.94
445.803	116.94
446.024	128.94
446.245	130.94
446.466	102.94
446.687	91.94
446.908	85.94
447.129	82.94
447.35	92.94
447.571	85.94
447.792	102.94
448.013	95.94
448.234	92.94
448.455	99.94
448.675	88.94
448.896	116.94
449.117	124.94
449.338	106.94
449.559	108.94
449.779	106.94
450	87.94
450.221	91.94
450.442	97.94
450.662	84.94
450.883	97.94
451.104	102.94
451.324	83.94
451.545	81.94
451.766	93.94
451.986	87.94
452.207	100.94
452.428	86.94
452.648	88.94
452.869	89.94
453.089	103.94
453.31	106.94
453.53	94.94
453.751	95.94
453.971	98.94
454.192	101.94
454.412	89.94
454.633	88.94
454.853	83.94
455.073	81.94
455.294	92.94
455.514	96.94
455.734	104.94
455.955	86.94
456.175	69.94
456.395	91.94
456.616	84.94
456.836	78.94
457.056	88.94
457.276	70.94
457.497	91.94
457.717	92.94
457.937	80.94
458.157	90.94
458.377	90.94
458.598	98.94
458.818	136.94
459.038	121.94
459.258	103.94
459.478	104.94
459.698	98.94
459.918	98.94
460.138	92.94
460.358	83.94
460.578	82.94
460.798	88.94
461.018	96.94
461.238	87.94
461.458	91.94
461.678	92.94
461.898	77.94
462.118	82.94
462.338	87.94
462.558	88.94
462.777	95.94
462.997	94.94
463.217	80.94
463.437	87.94
463.657	87.94
463.876	79.94
464.096	69.94
464.316	81.94
464.536	84.94
464.755	87.94
464.975	91.94
465.195	144.94
465.414	131.94
465.634	96.94
465.854	87.94
466.073	91.94
466.293	95.94
466.512	92.94
466.732	99.94
466.951	101.94
467.171	96.94
467.391	103.94
467.61	96.94
467.829	94.94
468.049	90.94
468.268	79.94
468.488	83.94
468.707	86.94
468.927	95.94
469.146	93.94
469.365	91.94
469.585	85.94
469.804	86.94
470.023	97.94
470.243	89.94
470.462	78.94
470.681	101.94
470.901	87.94
471.12	97.94
471.339	90.94
471.558	84.94
471.777	82.94
471.997	86.94
472.216	95.94
472.435	92.94
472.654	83.94
472.873	98.94
473.092	100.94
473.311	95.94
473.53	91.94
473.749	78.94
473.968	85.94
474.187	90.94
474.406	110.94
474.625	105.94
474.844	79.94
475.063	86.94
475.282	85.94
475.501	78.94
475.72	79.94
475.939	81.94
476.158	95.94
476.377	107.94
476.596	86.94
476.814	85.94
477.033	87.94
477.252	79.94
477.471	78.94
477.69	69.94
477.908	92.94
478.127	91.94
478.346	97.94
478.564	86.94
478.783	96.94
479.002	84.94
479.22	82.94
479.439	106.94
479.658	96.94
479.876	86.94
480.095	86.94
480.313	91.94
480.532	79.94
480.751	98.94
480.969	87.94
481.188	98.94
481.406	87.94
481.624	83.94
481.843	81.94
482.061	90.94
482.28	87.94
482.498	81.94
482.717	103.94
482.935	92.94
483.153	79.94
483.372	86.94
483.59	84.94
483.808	91.94
484.027	104.94
484.245	84.94
484.463	83.94
484.681	98.94
484.9	89.94
485.118	102.94
485.336	89.94
485.554	95.94
485.772	111.94
485.99	106.94
486.209	96.94
486.427	101.94
486.645	104.94
486.863	116.94
487.081	92.94
487.299	86.94
487.517	102.94
487.735	110.94
487.953	96.94
488.171	97.94
488.389	90.94
488.607	101.94
488.825	80.94
489.043	84.94
489.261	105.94
489.479	78.94
489.696	86.94
489.914	95.94
490.132	92.94
490.35	86.94
490.568	93.94
490.786	91.94
491.003	88.94
491.221	97.94
491.439	98.94
491.657	73.94
491.874	83.94
492.092	86.94
492.31	89.94
492.527	88.94
492.745	89.94
492.963	88.94
493.18	92.94
493.398	94.94
493.615	96.94
493.833	82.94
494.05	98.94
494.268	95.94
494.485	83.94
494.703	97.94
494.92	82.94
495.138	84.94
495.355	81.94
495.573	86.94
495.79	104.94
496.008	86.94
496.225	98.94
496.442	93.94
496.66	104.94
496.877	99.94
497.094	93.94
497.312	89.94
497.529	100.94
497.746	82.94
497.963	78.94
498.181	84.94
498.398	95.94
498.615	98.94
498.832	92.94
499.049	95.94
499.267	90.94
499.484	94.94
499.701	91.94
499.918	98.94
500.135	96.94
500.352	78.94
500.569	89.94
500.786	92.94
501.003	95.94
501.22	101.94
501.437	102.94
501.654	86.94
501.871	83.94
502.088	92.94
502.305	99.94
502.522	88.94
502.739	76.94
502.956	89.94
503.172	88.94
503.389	108.94
503.606	91.94
503.823	97.94
504.04	95.94
504.256	90.94
504.473	79.94
504.69	85.94
504.907	95.94
505.123	96.94
505.34	89.94
505.557	93.94
505.773	104.94
505.99	86.94
506.207	88.94
506.423	78.94
506.64	99.94
506.856	82.94
507.073	92.94
507.289	99.94
507.506	88.94
507.722	101.94
507.939	99.94
508.155	103.94
508.372	86.94
508.588	99.94
508.805	102.94
509.021	106.94
509.238	96.94
509.454	92.94
509.67	98.94
509.887	92.94
510.103	118.94
510.319	174.94
510.536	606.94
510.752	1807.94
510.968	526.94
511.184	147.94
511.401	120.94
511.617	100.94
511.833	97.94
512.049	93.94
512.265	97.94
512.481	103.94
512.698	87.94
512.914	94.94
513.13	99.94
513.346	105.94
513.562	87.94
513.778	91.94
513.994	109.94
514.21	102.94
514.426	89.94
514.642	129.94
514.858	110.94
515.074	130.94
515.29	364.94
515.506	1081.94
515.721	405.94
515.937	144.94
516.153	99.94
516.369	96.94
516.585	95.94
516.801	98.94
517.016	101.94
517.232	91.94
517.448	111.94
517.664	85.94
517.879	93.94
518.095	96.94
518.311	100.94
518.527	102.94
518.742	83.94
518.958	96.94
519.173	91.94
519.389	89.94
519.605	100.94
519.82	100.94
520.036	109.94
520.251	100.94
520.467	87.94
520.682	103.94
520.898	100.94
521.113	106.94
521.329	130.94
521.544	176.94
521.76	417.94
521.975	1755.94
522.19	1052.94
522.406	252.94
522.621	117.94
522.836	73.94
523.052	93.94
523.267	81.94
523.482	90.94
523.698	106.94
523.913	121.94
524.128	102.94
524.343	98.94
524.559	101.94
524.774	88.94
524.989	103.94
525.204	101.94
525.419	88.94
525.634	100.94
525.849	79.94
526.064	89.94
526.28	96.94
526.495	78.94
526.71	77.94
526.925	86.94
527.14	87.94
527.355	96.94
527.57	91.94
527.785	106.94
527.999	83.94
528.214	83.94
528.429	82.94
528.644	80.94
528.859	84.94
529.074	96.94
529.289	121.94
529.503	154.94
529.718	102.94
529.933	100.94
530.148	94.94
530.363	98.94
530.577	72.94
530.792	83.94
531.007	76.94
531.221	87.94
531.436	78.94
531.651	94.94
531.865	80.94
532.08	86.94
532.295	87.94
532.509	96.94
532.724	91.94
532.938	92.94
533.153	101.94
533.367	92.94
533.582	89.94
533.796	100.94
534.011	90.94
534.225	96.94
534.44	91.94
534.654	75.94
534.868	95.94
535.083	88.94
535.297	97.94
535.511	102.94
535.726	96.94
535.94	91.94
536.154	90.94
536.369	81.94
536.583	97.94
536.797	99.94
537.011	100.94
537.225	94.94
537.44	88.94
537.654	94.94
537.868	99.94
538.082	79.94
538.296	96.94
538.51	79.94
538.724	88.94
538.938	87.94
539.153	95.94
539.367	103.94
539.581	93.94
539.795	90.94
540.009	87.94
540.222	85.94
540.436	100.94
540.65	102.94
540.864	91.94
541.078	91.94
541.292	87.94
541.506	95.94
541.72	82.94
541.934	83.94
542.147	89.94
542.361	82.94
542.575	90.94
542.789	84.94
543.002	99.94
543.216	93.94
543.43	96.94
543.644	100.94
543.857	91.94
544.071	98.94
544.285	96.94
544.498	97.94
544.712	100.94
544.925	89.94
545.139	106.94
545.352	87.94
545.566	92.94
545.779	81.94
545.993	87.94
546.206	98.94
546.42	79.94
546.633	94.94
546.847	98.94
547.06	96.94
547.274	84.94
547.487	97.94
547.7	98.94
547.914	84.94
548.127	96.94
548.34	74.94
548.554	74.94
548.767	97.94
548.98	73.94
549.193	80.94
549.407	88.94
549.62	91.94
549.833	100.94
550.046	83.94
550.259	92.94
550.473	88.94
550.686	95.94
550.899	82.94
551.112	89.94
551.325	90.94
551.538	79.94
551.751	73.94
551.964	91.94
552.177	88.94
552.39	85.94
552.603	78.94
552.816	103.94
553.029	96.94
553.242	86.94
553.455	96.94
553.667	98.94
553.88	97.94
554.093	85.94
554.306	87.94
554.519	81.94
554.732	85.94
554.944	83.94
555.157	97.94
555.37	89.94
555.583	82.94
555.795	92.94
556.008	108.94
556.221	94.94
556.433	107.94
556.646	91.94
556.859	100.94
557.071	92.94
557.284	101.94
557.496	107.94
557.709	96.94
557.921	87.94
558.134	84.94
558.346	88.94
558.559	83.94
558.771	94.94
558.984	96.94
559.196	101.94
559.409	77.94
559.621	83.94
559.833	86.94
560.046	82.94
560.258	102.94
560.47	96.94
560.683	81.94
560.895	70.94
561.107	84.94
561.32	82.94
561.532	98.94
561.744	99.94
561.956	98.94
562.168	82.94
562.381	91.94
562.593	94.94
562.805	89.94
563.017	91.94
563.229	81.94
563.441	94.94
563.653	91.94
563.865	89.94
564.077	85.94
564.289	94.94
564.501	90.94
564.713	83.94
564.925	88.94
565.137	110.94
565.349	104.94
565.561	82.94
565.773	80.94
565.985	86.94
566.197	96.94
566.408	96.94
566.62	80.94
566.832	89.94
567.044	82.94
567.255	79.94
567.467	91.94
567.679	73.94
567.891	82.94
568.102	98.94
568.314	90.94
568.526	80.94
568.737	86.94
568.949	87.94
569.161	89.94
569.372	89.94
569.584	87.94
569.795	102.94
570.007	112.94
570.218	209.94
570.43	120.94
570.641	85.94
570.853	74.94
571.064	89.94
571.276	86.94
571.487	91.94
571.698	89.94
571.91	89.94
572.121	92.94
572.333	95.94
572.544	88.94
572.755	92.94
572.966	100.94
573.178	91.94
573.389	89.94
573.6	78.94
573.811	91.94
574.023	86.94
574.234	89.94
574.445	76.94
574.656	96.94
574.867	82.94
575.078	88.94
575.289	89.94
575.501	97.94
575.712	79.94
575.923	92.94
576.134	89.94
576.345	92.94
576.556	91.94
576.767	92.94
576.978	98.94
577.188	91.94
577.399	103.94
577.61	92.94
577.821	104.94
578.032	105.94
578.243	231.94
578.454	635.94
578.665	183.94
578.875	105.94
579.086	86.94
579.297	91.94
579.508	99.94
579.718	86.94
579.929	76.94
580.14	80.94
580.35	86.94
580.561	93.94
580.772	79.94
580.982	89.94
581.193	76.94
581.403	82.94
581.614	85.94
581.825	83.94
582.035	93.94
582.246	100.94
582.456	85.94
582.667	91.94
582.877	78.94
583.087	79.94
583.298	89.94
583.508	83.94
583.719	98.94
583.929	85.94
584.139	91.94
584.35	96.94
584.56	86.94
584.77	83.94
584.981	88.94
585.191	102.94
585.401	87.94
585.611	80.94
585.821	97.94
586.032	108.94
586.242	80.94
586.452	82.94
586.662	89.94
586.872	91.94
587.082	95.94
587.292	84.94
587.502	89.94
587.713	85.94
587.923	88.94
588.133	99.94
588.343	90.94
588.553	95.94
588.762	87.94
588.972	96.94
589.182	88.94
589.392	88.94
589.602	73.94
589.812	89.94
590.022	87.94
590.232	88.94
590.441	79.94
590.651	95.94
590.861	96.94
591.071	89.94
591.281	89.94
591.49	79.94
591.7	82.94
591.91	89.94
592.119	85.94
592.329	99.94
592.539	90.94
592.748	82.94
592.958	89.94
593.167	84.94
593.377	92.94
593.587	96.94
593.796	93.94
594.006	102.94
594.215	84.94
594.424	87.94
594.634	88.94
594.843	82.94
595.053	97.94
595.262	86.94
595.472	97.94
595.681	77.94
595.89	96.94
596.1	89.94
596.309	79.94
596.518	86.94
596.727	89.94
596.937	74.94
597.146	96.94
597.355	78.94
597.564	86.94
597.774	95.94
597.983	94.94
598.192	92.94
598.401	92.94
598.61	87.94
598.819	90.94
599.028	100.94
599.237	87.94
599.446	80.94
599.655	77.94
599.864	81.94
600.073	95.94
600.282	101.94
600.491	90.94
600.7	90.94
600.909	92.94
601.118	88.94
601.327	95.94
601.536	87.94
601.745	81.94
601.953	90.94
602.162	90.94
602.371	96.94
602.58	92.94
602.789	86.94
602.997	85.94
603.206	91.94
603.415	99.94
603.623	84.94
603.832	89.94
604.041	77.94
604.249	91.94
604.458	78.94
604.666	95.94
604.875	94.94
605.084	76.94
605.292	98.94
605.501	89.94
605.709	85.94
605.918	96.94
606.126	89.94
606.334	82.94
606.543	90.94
606.751	82.94
606.96	95.94
607.168	82.94
607.376	91.94
607.585	70.94
607.793	92.94
608.001	95.94
608.21	96.94
608.418	76.94
608.626	90.94
608.834	83.94
609.043	93.94
609.251	87.94
609.459	80.94
609.667	105.94
609.875	93.94
610.083	91.94
610.291	80.94
610.499	90.94
610.707	83.94
610.916	80.94
611.124	84.94
611.332	85.94
611.54	78.94
611.748	92.94
611.955	89.94
612.163	77.94
612.371	97.94
612.579	81.94
612.787	70.94
612.995	85.94
613.203	98.94
613.411	87.94
613.618	83.94
613.826	92.94
614.034	92.94
614.242	94.94
614.449	96.94
614.657	78.94
614.865	78.94
615.072	87.94
615.28	85.94
615.488	83.94
615.695	89.94
615.903	98.94
616.111	102.94
616.318	100.94
616.526	110.94
616.733	92.94
616.941	98.94
617.148	90.94
617.356	90.94
617.563	84.94
617.771	87.94
617.978	77.94
618.185	89.94
618.393	92.94
618.6	86.94
618.807	90.94
619.015	75.94
619.222	74.94
619.429	95.94
619.637	84.94
619.844	70.94
620.051	79.94
620.258	77.94
620.466	80.94
620.673	98.94
620.88	91.94
621.087	92.94
621.294	79.94
621.501	80.94
621.708	83.94
621.915	103.94
622.122	83.94
622.329	83.94
622.536	107.94
622.743	73.94
622.95	91.94
623.157	85.94
623.364	85.94
623.571	83.94
623.778	82.94
623.985	82.94
624.192	95.94
624.399	86.94
624.606	87.94
624.812	84.94
625.019	88.94
625.226	102.94
625.433	87.94
625.639	87.94
625.846	89.94
626.053	90.94
626.259	77.94
626.466	74.94
626.673	93.94
626.879	87.94
627.086	90.94
627.293	89.94
627.499	94.94
627.706	86.94
627.912	89.94
628.119	89.94
628.325	86.94
628.532	84.94
628.738	94.94
628.945	98.94
629.151	89.94
629.357	88.94
629.564	92.94
629.77	85.94
629.976	88.94
630.183	91.94
630.389	88.94
630.595	98.94
630.802	87.94
631.008	69.94
631.214	83.94
631.42	86.94
631.627	78.94
631.833	79.94
632.039	86.94
632.245	82.94
632.451	78.94
632.657	90.94
632.863	99.94
633.069	66.94
633.275	93.94
633.481	88.94
633.688	73.94
633.893	91.94
634.099	75.94
634.305	83.94
634.511	80.94
634.717	83.94
634.923	66.94
635.129	68.94
635.335	84.94
635.541	88.94
635.747	80.94
635.952	86.94
636.158	91.94
636.364	90.94
636.57	72.94
636.775	77.94
636.981	97.94
637.187	95.94
637.392	78.94
637.598	76.94
637.804	94.94
638.009	75.94
638.215	85.94
638.421	83.94
638.626	84.94
638.832	93.94
639.037	91.94
639.243	66.94
639.448	66.94
639.654	95.94
639.859	78.94
640.065	90.94
640.27	95.94
640.475	83.94
640.681	72.94
640.886	94.94
641.091	96.94
641.297	81.94
641.502	87.94
641.707	87.94
641.913	86.94
642.118	75.94
642.323	84.94
642.528	85.94
642.733	79.94
642.939	82.94
643.144	82.94
643.349	76.94
643.554	90.94
643.759	78.94
643.964	105.94
644.169	91.94
644.374	88.94
644.579	90.94
644.784	83.94
644.989	73.94
645.194	89.94
645.399	81.94
645.604	98.94
645.809	97.94
646.014	88.94
646.219	77.94
646.423	86.94
646.628	86.94
646.833	83.94
647.038	99.94
647.243	87.94
647.447	97.94
647.652	96.94
647.857	98.94
648.062	99.94
648.266	104.94
648.471	85.94
648.676	75.94
648.88	99.94
649.085	82.94
649.289	110.94
649.494	107.94
649.698	129.94
649.903	96.94
650.107	90.94
650.312	82.94
650.516	85.94
650.721	93.94
650.925	72.94
651.13	86.94
651.334	86.94
651.539	73.94
651.743	78.94
651.947	91.94
652.152	79.94
652.356	80.94
652.56	71.94
652.764	80.94
652.969	75.94
653.173	81.94
653.377	79.94
653.581	84.94
653.785	83.94
653.99	90.94
654.194	82.94
654.398	83.94
654.602	90.94
654.806	76.94
655.01	86.94
655.214	98.94
655.418	78.94
655.622	87.94
655.826	97.94
656.03	81.94
656.234	96.94
656.438	97.94
656.642	92.94
656.846	80.94
657.049	88.94
657.253	95.94
657.457	87.94
657.661	77.94
657.865	89.94
658.068	90.94
658.272	93.94
658.476	68.94
658.68	80.94
658.883	81.94
659.087	70.94
659.291	81.94
659.494	76.94
659.698	86.94
659.901	84.94
660.105	72.94
660.309	88.94
660.512	82.94
660.716	72.94
660.919	83.94
661.123	91.94
661.326	78.94
661.53	65.94
661.733	89.94
661.936	103.94
662.14	91.94
662.343	77.94
662.546	67.94
662.75	91.94
662.953	76.94
663.156	80.94
663.36	82.94
663.563	92.94
663.766	73.94
663.969	83.94
664.173	72.94
664.376	97.94
664.579	75.94
664.782	78.94
664.985	74.94
665.188	97.94
665.391	82.94
665.594	88.94
665.797	86.94
666	84.94
666.203	75.94
666.406	71.94
666.609	73.94
666.812	85.94
667.015	89.94
667.218	91.94
667.421	94.94
667.624	76.94
667.827	87.94
668.03	86.94
668.232	89.94
668.435	91.94
668.638	95.94
668.841	82.94
669.043	80.94
669.246	75.94
669.449	80.94
669.651	69.94
669.854	79.94
670.057	78.94
670.259	76.94
670.462	67.94
670.665	82.94
670.867	79.94
671.07	84.94
671.272	79.94
671.475	88.94
671.677	87.94
671.88	68.94
672.082	87.94
672.284	72.94
672.487	81.94
672.689	89.94
672.892	88.94
