Data from KBr_1_HRD10591_00041.txt Node
Date: Mon Jan 19 13:11:20 EST 2026
User: Yrep
Spectrometer: HR+D1059
Trigger mode: 0
Integration Time (sec): 1.000000E-1
Scans to average: 1
Electric dark correction enabled: true
Nonlinearity correction enabled: false
Boxcar width: 0
XAxis mode: Wavelengths
Number of Pixels in Spectrum: 2048
>>>>>Begin Spectral Data<<<<<
223.165	-14.75
223.4	-14.75
223.635	-14.75
223.869	-13.75
224.104	-10.75
224.338	-31.75
224.573	-14.75
224.808	-7.75
225.042	-13.75
225.277	-4.75
225.511	-0.75
225.746	12.25
225.98	2.25
226.215	7.25
226.449	11.25
226.683	29.25
226.918	16.25
227.152	34.25
227.387	29.25
227.621	38.25
227.856	61.25
228.09	53.25
228.324	52.25
228.559	56.25
228.793	66.25
229.027	74.25
229.262	62.25
229.496	70.25
229.73	71.25
229.964	74.25
230.199	65.25
230.433	79.25
230.667	80.25
230.901	81.25
231.136	79.25
231.37	93.25
231.604	72.25
231.838	79.25
232.072	71.25
232.306	84.25
232.541	63.25
232.775	69.25
233.009	75.25
233.243	99.25
233.477	87.25
233.711	81.25
233.945	82.25
234.179	96.25
234.413	89.25
234.647	77.25
234.881	68.25
235.115	76.25
235.349	81.25
235.583	73.25
235.817	71.25
236.051	70.25
236.285	53.25
236.519	86.25
236.753	69.25
236.987	74.25
237.221	87.25
237.455	76.25
237.689	70.25
237.922	69.25
238.156	87.25
238.39	81.25
238.624	82.25
238.858	72.25
239.091	74.25
239.325	67.25
239.559	74.25
239.793	81.25
240.027	88.25
240.26	63.25
240.494	77.25
240.728	81.25
240.961	82.25
241.195	67.25
241.429	74.25
241.662	66.25
241.896	73.25
242.13	68.25
242.363	76.25
242.597	79.25
242.83	76.25
243.064	82.25
243.298	77.25
243.531	84.25
243.765	70.25
243.998	66.25
244.232	89.25
244.465	70.25
244.699	68.25
244.932	67.25
245.166	96.25
245.399	88.25
245.633	84.25
245.866	75.25
246.099	73.25
246.333	67.25
246.566	65.25
246.8	74.25
247.033	64.25
247.266	79.25
247.5	64.25
247.733	75.25
247.966	68.25
248.2	64.25
248.433	88.25
248.666	66.25
248.899	75.25
249.133	80.25
249.366	85.25
249.599	90.25
249.832	76.25
250.066	82.25
250.299	66.25
250.532	80.25
250.765	74.25
250.998	80.25
251.231	84.25
251.465	78.25
251.698	73.25
251.931	86.25
252.164	73.25
252.397	84.25
252.63	80.25
252.863	82.25
253.096	85.25
253.329	84.25
253.562	87.25
253.795	86.25
254.028	76.25
254.261	78.25
254.494	75.25
254.727	76.25
254.96	85.25
255.193	87.25
255.426	95.25
255.659	78.25
255.892	94.25
256.124	76.25
256.357	65.25
256.59	74.25
256.823	76.25
257.056	88.25
257.289	71.25
257.521	87.25
257.754	77.25
257.987	85.25
258.22	87.25
258.452	81.25
258.685	70.25
258.918	73.25
259.151	80.25
259.383	86.25
259.616	90.25
259.849	76.25
260.081	79.25
260.314	63.25
260.547	80.25
260.779	90.25
261.012	82.25
261.244	87.25
261.477	76.25
261.71	89.25
261.942	75.25
262.175	77.25
262.407	82.25
262.64	86.25
262.872	79.25
263.105	78.25
263.337	89.25
263.57	81.25
263.802	83.25
264.035	81.25
264.267	77.25
264.499	84.25
264.732	74.25
264.964	78.25
265.197	82.25
265.429	84.25
265.661	80.25
265.894	78.25
266.126	77.25
266.358	81.25
266.591	81.25
266.823	67.25
267.055	70.25
267.287	74.25
267.52	88.25
267.752	82.25
267.984	81.25
268.216	84.25
268.448	79.25
268.681	87.25
268.913	86.25
269.145	75.25
269.377	71.25
269.609	75.25
269.841	84.25
270.073	76.25
270.306	89.25
270.538	94.25
270.77	77.25
271.002	90.25
271.234	73.25
271.466	77.25
271.698	84.25
271.93	89.25
272.162	87.25
272.394	86.25
272.626	75.25
272.858	82.25
273.09	88.25
273.322	76.25
273.553	88.25
273.785	83.25
274.017	90.25
274.249	70.25
274.481	79.25
274.713	69.25
274.945	90.25
275.176	82.25
275.408	90.25
275.64	88.25
275.872	91.25
276.104	80.25
276.335	72.25
276.567	79.25
276.799	71.25
277.031	77.25
277.262	86.25
277.494	81.25
277.726	77.25
277.957	79.25
278.189	75.25
278.421	77.25
278.652	79.25
278.884	83.25
279.115	84.25
279.347	75.25
279.579	82.25
279.81	76.25
280.042	78.25
280.273	90.25
280.505	86.25
280.736	82.25
280.968	88.25
281.199	81.25
281.431	86.25
281.662	90.25
281.894	88.25
282.125	95.25
282.356	87.25
282.588	80.25
282.819	96.25
283.051	65.25
283.282	92.25
283.513	92.25
283.745	90.25
283.976	90.25
284.207	77.25
284.439	86.25
284.67	96.25
284.901	81.25
285.132	73.25
285.364	74.25
285.595	87.25
285.826	89.25
286.057	84.25
286.288	72.25
286.52	85.25
286.751	75.25
286.982	88.25
287.213	91.25
287.444	93.25
287.675	81.25
287.906	90.25
288.138	92.25
288.369	72.25
288.6	88.25
288.831	79.25
289.062	90.25
289.293	90.25
289.524	95.25
289.755	73.25
289.986	85.25
290.217	80.25
290.448	91.25
290.679	96.25
290.91	89.25
291.141	90.25
291.371	81.25
291.602	92.25
291.833	87.25
292.064	71.25
292.295	71.25
292.526	73.25
292.757	97.25
292.987	94.25
293.218	82.25
293.449	77.25
293.68	70.25
293.91	89.25
294.141	81.25
294.372	74.25
294.603	80.25
294.833	73.25
295.064	76.25
295.295	72.25
295.525	85.25
295.756	87.25
295.987	87.25
296.217	91.25
296.448	95.25
296.679	90.25
296.909	72.25
297.14	90.25
297.37	88.25
297.601	95.25
297.831	93.25
298.062	89.25
298.292	81.25
298.523	87.25
298.753	85.25
298.984	88.25
299.214	79.25
299.445	76.25
299.675	92.25
299.905	92.25
300.136	84.25
300.366	90.25
300.597	84.25
300.827	70.25
301.057	77.25
301.288	84.25
301.518	87.25
301.748	94.25
301.979	101.25
302.209	69.25
302.439	78.25
302.669	70.25
302.9	92.25
303.13	84.25
303.36	92.25
303.59	91.25
303.82	85.25
304.051	67.25
304.281	75.25
304.511	79.25
304.741	89.25
304.971	79.25
305.201	84.25
305.431	82.25
305.661	91.25
305.891	95.25
306.121	101.25
306.352	87.25
306.582	86.25
306.812	95.25
307.042	100.25
307.272	75.25
307.502	80.25
307.731	96.25
307.961	82.25
308.191	73.25
308.421	87.25
308.651	96.25
308.881	84.25
309.111	77.25
309.341	89.25
309.571	84.25
309.8	78.25
310.03	84.25
310.26	81.25
310.49	78.25
310.72	86.25
310.949	78.25
311.179	77.25
311.409	89.25
311.639	90.25
311.868	85.25
312.098	80.25
312.328	88.25
312.557	92.25
312.787	77.25
313.017	79.25
313.246	80.25
313.476	88.25
313.706	78.25
313.935	84.25
314.165	86.25
314.394	94.25
314.624	91.25
314.853	86.25
315.083	88.25
315.312	81.25
315.542	84.25
315.771	92.25
316.001	90.25
316.23	80.25
316.46	107.25
316.689	88.25
316.919	98.25
317.148	79.25
317.377	81.25
317.607	88.25
317.836	79.25
318.065	97.25
318.295	92.25
318.524	78.25
318.753	85.25
318.983	81.25
319.212	83.25
319.441	88.25
319.67	79.25
319.9	100.25
320.129	80.25
320.358	87.25
320.587	89.25
320.816	86.25
321.046	81.25
321.275	97.25
321.504	84.25
321.733	84.25
321.962	77.25
322.191	85.25
322.42	91.25
322.649	88.25
322.878	80.25
323.108	85.25
323.337	84.25
323.566	87.25
323.795	85.25
324.024	96.25
324.253	80.25
324.482	86.25
324.71	76.25
324.939	86.25
325.168	83.25
325.397	80.25
325.626	85.25
325.855	92.25
326.084	91.25
326.313	89.25
326.542	74.25
326.77	78.25
326.999	95.25
327.228	82.25
327.457	86.25
327.686	88.25
327.914	96.25
328.143	81.25
328.372	74.25
328.6	76.25
328.829	86.25
329.058	76.25
329.287	91.25
329.515	81.25
329.744	89.25
329.972	68.25
330.201	80.25
330.43	80.25
330.658	90.25
330.887	93.25
331.115	88.25
331.344	89.25
331.572	86.25
331.801	90.25
332.03	89.25
332.258	78.25
332.486	75.25
332.715	84.25
332.943	79.25
333.172	74.25
333.4	89.25
333.629	77.25
333.857	90.25
334.085	81.25
334.314	97.25
334.542	85.25
334.771	89.25
334.999	79.25
335.227	88.25
335.455	78.25
335.684	83.25
335.912	94.25
336.14	74.25
336.369	93.25
336.597	94.25
336.825	88.25
337.053	86.25
337.281	83.25
337.51	88.25
337.738	94.25
337.966	87.25
338.194	82.25
338.422	96.25
338.65	82.25
338.878	84.25
339.106	89.25
339.334	95.25
339.562	80.25
339.79	76.25
340.018	80.25
340.246	74.25
340.474	85.25
340.702	88.25
340.93	78.25
341.158	74.25
341.386	79.25
341.614	76.25
341.842	94.25
342.07	78.25
342.298	94.25
342.526	91.25
342.754	78.25
342.981	100.25
343.209	89.25
343.437	91.25
343.665	86.25
343.893	86.25
344.12	88.25
344.348	85.25
344.576	89.25
344.804	84.25
345.031	83.25
345.259	89.25
345.487	68.25
345.714	74.25
345.942	93.25
346.17	76.25
346.397	76.25
346.625	79.25
346.853	75.25
347.08	86.25
347.308	98.25
347.535	91.25
347.763	85.25
347.99	80.25
348.218	90.25
348.445	79.25
348.673	80.25
348.9	68.25
349.128	91.25
349.355	86.25
349.583	66.25
349.81	89.25
350.037	88.25
350.265	81.25
350.492	86.25
350.72	95.25
350.947	73.25
351.174	92.25
351.402	78.25
351.629	91.25
351.856	80.25
352.083	72.25
352.311	96.25
352.538	80.25
352.765	86.25
352.992	80.25
353.22	89.25
353.447	85.25
353.674	97.25
353.901	88.25
354.128	86.25
354.355	85.25
354.583	71.25
354.81	85.25
355.037	78.25
355.264	81.25
355.491	87.25
355.718	72.25
355.945	82.25
356.172	87.25
356.399	84.25
356.626	81.25
356.853	73.25
357.08	82.25
357.307	92.25
357.534	81.25
357.761	73.25
357.988	77.25
358.215	74.25
358.441	92.25
358.668	98.25
358.895	103.25
359.122	90.25
359.349	66.25
359.576	83.25
359.802	86.25
360.029	85.25
360.256	90.25
360.483	61.25
360.709	80.25
360.936	100.25
361.163	86.25
361.39	94.25
361.616	85.25
361.843	82.25
362.07	84.25
362.296	76.25
362.523	84.25
362.749	90.25
362.976	70.25
363.203	84.25
363.429	87.25
363.656	90.25
363.882	93.25
364.109	88.25
364.335	67.25
364.562	71.25
364.788	84.25
365.015	84.25
365.241	88.25
365.468	82.25
365.694	85.25
365.92	79.25
366.147	79.25
366.373	69.25
366.599	74.25
366.826	84.25
367.052	88.25
367.278	95.25
367.505	79.25
367.731	85.25
367.957	82.25
368.184	72.25
368.41	85.25
368.636	89.25
368.862	80.25
369.089	86.25
369.315	71.25
369.541	73.25
369.767	74.25
369.993	68.25
370.219	73.25
370.445	86.25
370.672	83.25
370.898	100.25
371.124	83.25
371.35	83.25
371.576	101.25
371.802	87.25
372.028	95.25
372.254	72.25
372.48	78.25
372.706	90.25
372.932	78.25
373.158	85.25
373.384	84.25
373.61	94.25
373.835	88.25
374.061	74.25
374.287	84.25
374.513	77.25
374.739	87.25
374.965	69.25
375.191	77.25
375.416	91.25
375.642	91.25
375.868	85.25
376.094	90.25
376.319	76.25
376.545	78.25
376.771	72.25
376.997	77.25
377.222	80.25
377.448	81.25
377.674	96.25
377.899	65.25
378.125	86.25
378.35	93.25
378.576	81.25
378.802	89.25
379.027	81.25
379.253	86.25
379.478	65.25
379.704	65.25
379.929	92.25
380.155	79.25
380.38	80.25
380.606	91.25
380.831	71.25
381.057	80.25
381.282	85.25
381.507	80.25
381.733	82.25
381.958	86.25
382.184	78.25
382.409	80.25
382.634	60.25
382.86	100.25
383.085	77.25
383.31	86.25
383.535	82.25
383.761	76.25
383.986	93.25
384.211	82.25
384.436	68.25
384.662	78.25
384.887	83.25
385.112	82.25
385.337	83.25
385.562	70.25
385.787	69.25
386.013	86.25
386.238	84.25
386.463	95.25
386.688	102.25
386.913	84.25
387.138	78.25
387.363	84.25
387.588	89.25
387.813	86.25
388.038	91.25
388.263	97.25
388.488	77.25
388.713	90.25
388.938	72.25
389.163	74.25
389.387	76.25
389.612	98.25
389.837	76.25
390.062	86.25
390.287	67.25
390.512	84.25
390.736	82.25
390.961	87.25
391.186	89.25
391.411	85.25
391.636	69.25
391.86	84.25
392.085	77.25
392.31	75.25
392.534	85.25
392.759	88.25
392.984	83.25
393.208	76.25
393.433	70.25
393.658	72.25
393.882	84.25
394.107	90.25
394.331	73.25
394.556	88.25
394.78	78.25
395.005	74.25
395.229	86.25
395.454	88.25
395.678	75.25
395.903	68.25
396.127	80.25
396.352	95.25
396.576	86.25
396.801	86.25
397.025	94.25
397.249	88.25
397.474	103.25
397.698	84.25
397.922	104.25
398.147	75.25
398.371	72.25
398.595	99.25
398.82	83.25
399.044	70.25
399.268	70.25
399.492	70.25
399.717	89.25
399.941	78.25
400.165	88.25
400.389	77.25
400.613	84.25
400.837	99.25
401.062	96.25
401.286	89.25
401.51	87.25
401.734	76.25
401.958	84.25
402.182	73.25
402.406	73.25
402.63	85.25
402.854	85.25
403.078	77.25
403.302	79.25
403.526	85.25
403.75	87.25
403.974	82.25
404.198	98.25
404.422	80.25
404.645	89.25
404.869	83.25
405.093	90.25
405.317	88.25
405.541	92.25
405.765	85.25
405.988	87.25
406.212	89.25
406.436	73.25
406.66	104.25
406.883	70.25
407.107	70.25
407.331	88.25
407.555	88.25
407.778	87.25
408.002	71.25
408.226	76.25
408.449	85.25
408.673	81.25
408.896	86.25
409.12	85.25
409.344	87.25
409.567	85.25
409.791	88.25
410.014	76.25
410.238	78.25
410.461	75.25
410.685	81.25
410.908	66.25
411.132	87.25
411.355	100.25
411.578	77.25
411.802	74.25
412.025	88.25
412.249	76.25
412.472	76.25
412.695	74.25
412.919	86.25
413.142	72.25
413.365	84.25
413.589	89.25
413.812	83.25
414.035	96.25
414.258	71.25
414.482	80.25
414.705	85.25
414.928	83.25
415.151	76.25
415.374	84.25
415.597	91.25
415.821	86.25
416.044	82.25
416.267	77.25
416.49	83.25
416.713	90.25
416.936	78.25
417.159	74.25
417.382	86.25
417.605	90.25
417.828	81.25
418.051	80.25
418.274	87.25
418.497	72.25
418.72	90.25
418.943	93.25
419.166	84.25
419.389	82.25
419.611	78.25
419.834	82.25
420.057	86.25
420.28	97.25
420.503	85.25
420.726	80.25
420.948	80.25
421.171	84.25
421.394	81.25
421.617	70.25
421.839	75.25
422.062	72.25
422.285	72.25
422.507	60.25
422.73	71.25
422.953	73.25
423.175	81.25
423.398	81.25
423.621	83.25
423.843	86.25
424.066	89.25
424.288	82.25
424.511	78.25
424.733	88.25
424.956	89.25
425.178	74.25
425.401	82.25
425.623	87.25
425.846	94.25
426.068	87.25
426.291	73.25
426.513	79.25
426.735	75.25
426.958	70.25
427.18	87.25
427.402	80.25
427.625	72.25
427.847	89.25
428.069	77.25
428.292	88.25
428.514	70.25
428.736	77.25
428.958	76.25
429.181	84.25
429.403	85.25
429.625	94.25
429.847	91.25
430.069	78.25
430.292	88.25
430.514	69.25
430.736	87.25
430.958	89.25
431.18	81.25
431.402	92.25
431.624	84.25
431.846	83.25
432.068	86.25
432.29	77.25
432.512	73.25
432.734	72.25
432.956	87.25
433.178	99.25
433.4	84.25
433.622	86.25
433.844	86.25
434.066	93.25
434.287	91.25
434.509	81.25
434.731	86.25
434.953	84.25
435.175	81.25
435.397	79.25
435.618	79.25
435.84	94.25
436.062	85.25
436.284	81.25
436.505	79.25
436.727	78.25
436.949	84.25
437.17	79.25
437.392	85.25
437.614	86.25
437.835	80.25
438.057	88.25
438.278	82.25
438.5	90.25
438.721	84.25
438.943	93.25
439.165	83.25
439.386	80.25
439.608	90.25
439.829	82.25
440.05	81.25
440.272	89.25
440.493	75.25
440.715	78.25
440.936	84.25
441.158	81.25
441.379	81.25
441.6	90.25
441.822	78.25
442.043	86.25
442.264	74.25
442.486	76.25
442.707	82.25
442.928	82.25
443.149	102.25
443.371	84.25
443.592	93.25
443.813	82.25
444.034	75.25
444.255	84.25
444.476	77.25
444.698	85.25
444.919	90.25
445.14	157.25
445.361	132.25
445.582	84.25
445.803	79.25
446.024	80.25
446.245	79.25
446.466	74.25
446.687	71.25
446.908	86.25
447.129	82.25
447.35	67.25
447.571	92.25
447.792	80.25
448.013	73.25
448.234	80.25
448.455	78.25
448.675	87.25
448.896	77.25
449.117	84.25
449.338	84.25
449.559	89.25
449.779	92.25
450	93.25
450.221	76.25
450.442	79.25
450.662	81.25
450.883	88.25
451.104	94.25
451.324	90.25
451.545	76.25
451.766	94.25
451.986	78.25
452.207	74.25
452.428	101.25
452.648	78.25
452.869	80.25
453.089	88.25
453.31	80.25
453.53	92.25
453.751	86.25
453.971	77.25
454.192	69.25
454.412	64.25
454.633	89.25
454.853	78.25
455.073	85.25
455.294	83.25
455.514	82.25
455.734	62.25
455.955	74.25
456.175	72.25
456.395	66.25
456.616	89.25
456.836	80.25
457.056	73.25
457.276	87.25
457.497	69.25
457.717	93.25
457.937	89.25
458.157	71.25
458.377	75.25
458.598	81.25
458.818	87.25
459.038	84.25
459.258	64.25
459.478	91.25
459.698	85.25
459.918	92.25
460.138	89.25
460.358	76.25
460.578	90.25
460.798	80.25
461.018	66.25
461.238	83.25
461.458	88.25
461.678	74.25
461.898	81.25
462.118	66.25
462.338	72.25
462.558	91.25
462.777	80.25
462.997	86.25
463.217	87.25
463.437	81.25
463.657	88.25
463.876	95.25
464.096	91.25
464.316	75.25
464.536	69.25
464.755	64.25
464.975	64.25
465.195	84.25
465.414	80.25
465.634	78.25
465.854	81.25
466.073	87.25
466.293	85.25
466.512	76.25
466.732	84.25
466.951	92.25
467.171	82.25
467.391	71.25
467.61	88.25
467.829	88.25
468.049	80.25
468.268	83.25
468.488	83.25
468.707	92.25
468.927	89.25
469.146	81.25
469.365	83.25
469.585	87.25
469.804	79.25
470.023	76.25
470.243	77.25
470.462	80.25
470.681	82.25
470.901	78.25
471.12	82.25
471.339	80.25
471.558	85.25
471.777	78.25
471.997	80.25
472.216	81.25
472.435	70.25
472.654	76.25
472.873	83.25
473.092	88.25
473.311	80.25
473.53	79.25
473.749	90.25
473.968	92.25
474.187	84.25
474.406	80.25
474.625	69.25
474.844	79.25
475.063	80.25
475.282	82.25
475.501	78.25
475.72	85.25
475.939	70.25
476.158	90.25
476.377	88.25
476.596	82.25
476.814	92.25
477.033	96.25
477.252	75.25
477.471	60.25
477.69	84.25
477.908	86.25
478.127	93.25
478.346	77.25
478.564	71.25
478.783	76.25
479.002	79.25
479.22	85.25
479.439	76.25
479.658	86.25
479.876	74.25
480.095	80.25
480.313	74.25
480.532	85.25
480.751	76.25
480.969	88.25
481.188	73.25
481.406	95.25
481.624	86.25
481.843	75.25
482.061	89.25
482.28	82.25
482.498	88.25
482.717	78.25
482.935	93.25
483.153	86.25
483.372	98.25
483.59	105.25
483.808	82.25
484.027	73.25
484.245	69.25
484.463	79.25
484.681	72.25
484.9	84.25
485.118	82.25
485.336	65.25
485.554	69.25
485.772	86.25
485.99	82.25
486.209	88.25
486.427	83.25
486.645	81.25
486.863	72.25
487.081	88.25
487.299	83.25
487.517	82.25
487.735	70.25
487.953	81.25
488.171	90.25
488.389	82.25
488.607	85.25
488.825	87.25
489.043	69.25
489.261	78.25
489.479	77.25
489.696	69.25
489.914	76.25
490.132	86.25
490.35	88.25
490.568	86.25
490.786	78.25
491.003	86.25
491.221	89.25
491.439	86.25
491.657	82.25
491.874	85.25
492.092	94.25
492.31	76.25
492.527	96.25
492.745	91.25
492.963	80.25
493.18	84.25
493.398	77.25
493.615	75.25
493.833	82.25
494.05	81.25
494.268	76.25
494.485	79.25
494.703	81.25
494.92	85.25
495.138	78.25
495.355	80.25
495.573	92.25
495.79	67.25
496.008	75.25
496.225	80.25
496.442	86.25
496.66	84.25
496.877	78.25
497.094	88.25
497.312	68.25
497.529	75.25
497.746	69.25
497.963	80.25
498.181	81.25
498.398	87.25
498.615	86.25
498.832	74.25
499.049	87.25
499.267	80.25
499.484	94.25
499.701	85.25
499.918	84.25
500.135	72.25
500.352	90.25
500.569	82.25
500.786	75.25
501.003	78.25
501.22	90.25
501.437	82.25
501.654	76.25
501.871	79.25
502.088	87.25
502.305	77.25
502.522	82.25
502.739	91.25
502.956	86.25
503.172	84.25
503.389	92.25
503.606	90.25
503.823	94.25
504.04	88.25
504.256	93.25
504.473	74.25
504.69	78.25
504.907	66.25
505.123	77.25
505.34	90.25
505.557	76.25
505.773	99.25
505.99	82.25
506.207	83.25
506.423	87.25
506.64	93.25
506.856	86.25
507.073	84.25
507.289	77.25
507.506	81.25
507.722	81.25
507.939	95.25
508.155	80.25
508.372	87.25
508.588	81.25
508.805	74.25
509.021	72.25
509.238	84.25
509.454	88.25
509.67	91.25
509.887	90.25
510.103	90.25
510.319	79.25
510.536	85.25
510.752	82.25
510.968	76.25
511.184	82.25
511.401	83.25
511.617	86.25
511.833	79.25
512.049	83.25
512.265	78.25
512.481	89.25
512.698	66.25
512.914	87.25
513.13	74.25
513.346	78.25
513.562	89.25
513.778	80.25
513.994	84.25
514.21	90.25
514.426	80.25
514.642	79.25
514.858	80.25
515.074	79.25
515.29	88.25
515.506	80.25
515.721	84.25
515.937	88.25
516.153	84.25
516.369	81.25
516.585	76.25
516.801	82.25
517.016	88.25
517.232	89.25
517.448	76.25
517.664	85.25
517.879	88.25
518.095	82.25
518.311	73.25
518.527	81.25
518.742	85.25
518.958	82.25
519.173	88.25
519.389	85.25
519.605	69.25
519.82	88.25
520.036	87.25
520.251	73.25
520.467	84.25
520.682	92.25
520.898	91.25
521.113	84.25
521.329	76.25
521.544	92.25
521.76	72.25
521.975	82.25
522.19	76.25
522.406	74.25
522.621	81.25
522.836	82.25
523.052	92.25
523.267	101.25
523.482	80.25
523.698	77.25
523.913	73.25
524.128	72.25
524.343	79.25
524.559	85.25
524.774	64.25
524.989	78.25
525.204	96.25
525.419	72.25
525.634	76.25
525.849	79.25
526.064	77.25
526.28	84.25
526.495	70.25
526.71	84.25
526.925	72.25
527.14	82.25
527.355	71.25
527.57	85.25
527.785	80.25
527.999	84.25
528.214	79.25
528.429	74.25
528.644	95.25
528.859	96.25
529.074	71.25
529.289	72.25
529.503	86.25
529.718	100.25
529.933	80.25
530.148	63.25
530.363	75.25
530.577	76.25
530.792	76.25
531.007	79.25
531.221	94.25
531.436	104.25
531.651	78.25
531.865	92.25
532.08	104.25
532.295	83.25
532.509	78.25
532.724	82.25
532.938	85.25
533.153	80.25
533.367	77.25
533.582	89.25
533.796	88.25
534.011	67.25
534.225	72.25
534.44	79.25
534.654	80.25
534.868	88.25
535.083	86.25
535.297	103.25
535.511	87.25
535.726	77.25
535.94	95.25
536.154	87.25
536.369	85.25
536.583	80.25
536.797	79.25
537.011	69.25
537.225	79.25
537.44	65.25
537.654	81.25
537.868	73.25
538.082	85.25
538.296	102.25
538.51	92.25
538.724	82.25
538.938	92.25
539.153	80.25
539.367	83.25
539.581	93.25
539.795	83.25
540.009	84.25
540.222	75.25
540.436	83.25
540.65	95.25
540.864	72.25
541.078	90.25
541.292	100.25
541.506	79.25
541.72	83.25
541.934	92.25
542.147	80.25
542.361	66.25
542.575	81.25
542.789	100.25
543.002	93.25
543.216	78.25
543.43	88.25
543.644	76.25
543.857	88.25
544.071	89.25
544.285	84.25
544.498	103.25
544.712	84.25
544.925	83.25
545.139	81.25
545.352	84.25
545.566	86.25
545.779	69.25
545.993	76.25
546.206	77.25
546.42	88.25
546.633	73.25
546.847	86.25
547.06	90.25
547.274	81.25
547.487	89.25
547.7	88.25
547.914	86.25
548.127	77.25
548.34	79.25
548.554	84.25
548.767	92.25
548.98	86.25
549.193	77.25
549.407	83.25
549.62	84.25
549.833	96.25
550.046	88.25
550.259	81.25
550.473	77.25
550.686	86.25
550.899	86.25
551.112	83.25
551.325	62.25
551.538	74.25
551.751	80.25
551.964	75.25
552.177	85.25
552.39	72.25
552.603	94.25
552.816	80.25
553.029	68.25
553.242	80.25
553.455	77.25
553.667	76.25
553.88	75.25
554.093	70.25
554.306	79.25
554.519	75.25
554.732	75.25
554.944	88.25
555.157	84.25
555.37	83.25
555.583	70.25
555.795	85.25
556.008	88.25
556.221	90.25
556.433	85.25
556.646	70.25
556.859	72.25
557.071	77.25
557.284	105.25
557.496	81.25
557.709	86.25
557.921	86.25
558.134	81.25
558.346	87.25
558.559	78.25
558.771	72.25
558.984	87.25
559.196	87.25
559.409	92.25
559.621	96.25
559.833	88.25
560.046	83.25
560.258	98.25
560.47	78.25
560.683	86.25
560.895	67.25
561.107	91.25
561.32	85.25
561.532	81.25
561.744	85.25
561.956	102.25
562.168	92.25
562.381	81.25
562.593	95.25
562.805	89.25
563.017	92.25
563.229	89.25
563.441	76.25
563.653	82.25
563.865	72.25
564.077	72.25
564.289	84.25
564.501	97.25
564.713	78.25
564.925	88.25
565.137	77.25
565.349	86.25
565.561	88.25
565.773	65.25
565.985	100.25
566.197	91.25
566.408	89.25
566.62	90.25
566.832	80.25
567.044	93.25
567.255	79.25
567.467	79.25
567.679	76.25
567.891	84.25
568.102	72.25
568.314	85.25
568.526	81.25
568.737	76.25
568.949	77.25
569.161	92.25
569.372	85.25
569.584	72.25
569.795	84.25
570.007	85.25
570.218	85.25
570.43	78.25
570.641	94.25
570.853	76.25
571.064	85.25
571.276	90.25
571.487	85.25
571.698	88.25
571.91	85.25
572.121	75.25
572.333	78.25
572.544	95.25
572.755	81.25
572.966	80.25
573.178	88.25
573.389	89.25
573.6	82.25
573.811	89.25
574.023	78.25
574.234	102.25
574.445	96.25
574.656	82.25
574.867	77.25
575.078	90.25
575.289	82.25
575.501	87.25
575.712	87.25
575.923	83.25
576.134	94.25
576.345	80.25
576.556	88.25
576.767	88.25
576.978	80.25
577.188	102.25
577.399	86.25
577.61	70.25
577.821	85.25
578.032	72.25
578.243	78.25
578.454	90.25
578.665	81.25
578.875	75.25
579.086	93.25
579.297	83.25
579.508	87.25
579.718	96.25
579.929	95.25
580.14	77.25
580.35	81.25
580.561	63.25
580.772	90.25
580.982	84.25
581.193	92.25
581.403	76.25
581.614	88.25
581.825	72.25
582.035	91.25
582.246	72.25
582.456	94.25
582.667	83.25
582.877	77.25
583.087	89.25
583.298	87.25
583.508	86.25
583.719	86.25
583.929	91.25
584.139	89.25
584.35	89.25
584.56	83.25
584.77	73.25
584.981	89.25
585.191	81.25
585.401	80.25
585.611	87.25
585.821	87.25
586.032	80.25
586.242	82.25
586.452	85.25
586.662	98.25
586.872	79.25
587.082	96.25
587.292	87.25
587.502	67.25
587.713	85.25
587.923	92.25
588.133	90.25
588.343	95.25
588.553	88.25
588.762	90.25
588.972	89.25
589.182	88.25
589.392	93.25
589.602	85.25
589.812	73.25
590.022	88.25
590.232	76.25
590.441	87.25
590.651	75.25
590.861	78.25
591.071	89.25
591.281	73.25
591.49	95.25
591.7	85.25
591.91	98.25
592.119	96.25
592.329	89.25
592.539	77.25
592.748	93.25
592.958	89.25
593.167	78.25
593.377	87.25
593.587	95.25
593.796	90.25
594.006	90.25
594.215	88.25
594.424	78.25
594.634	85.25
594.843	86.25
595.053	80.25
595.262	90.25
595.472	84.25
595.681	98.25
595.89	76.25
596.1	77.25
596.309	95.25
596.518	79.25
596.727	85.25
596.937	95.25
597.146	87.25
597.355	75.25
597.564	90.25
597.774	88.25
597.983	84.25
598.192	86.25
598.401	93.25
598.61	78.25
598.819	93.25
599.028	91.25
599.237	75.25
599.446	72.25
599.655	90.25
599.864	87.25
600.073	81.25
600.282	78.25
600.491	79.25
600.7	81.25
600.909	93.25
601.118	77.25
601.327	91.25
601.536	92.25
601.745	96.25
601.953	90.25
602.162	88.25
602.371	80.25
602.58	75.25
602.789	71.25
602.997	74.25
603.206	92.25
603.415	70.25
603.623	72.25
603.832	89.25
604.041	88.25
604.249	78.25
604.458	66.25
604.666	92.25
604.875	83.25
605.084	87.25
605.292	73.25
605.501	69.25
605.709	80.25
605.918	90.25
606.126	72.25
606.334	84.25
606.543	82.25
606.751	94.25
606.96	98.25
607.168	85.25
607.376	85.25
607.585	78.25
607.793	87.25
608.001	76.25
608.21	77.25
608.418	82.25
608.626	90.25
608.834	83.25
609.043	90.25
609.251	81.25
609.459	85.25
609.667	90.25
609.875	79.25
610.083	73.25
610.291	86.25
610.499	92.25
610.707	75.25
610.916	88.25
611.124	87.25
611.332	81.25
611.54	89.25
611.748	84.25
611.955	90.25
612.163	84.25
612.371	77.25
612.579	81.25
612.787	95.25
612.995	78.25
613.203	81.25
613.411	90.25
613.618	88.25
613.826	80.25
614.034	81.25
614.242	87.25
614.449	77.25
614.657	89.25
614.865	81.25
615.072	79.25
615.28	91.25
615.488	86.25
615.695	101.25
615.903	81.25
616.111	74.25
616.318	67.25
616.526	82.25
616.733	74.25
616.941	82.25
617.148	65.25
617.356	90.25
617.563	82.25
617.771	77.25
617.978	74.25
618.185	92.25
618.393	69.25
618.6	79.25
618.807	87.25
619.015	81.25
619.222	113.25
619.429	92.25
619.637	82.25
619.844	92.25
620.051	83.25
620.258	90.25
620.466	92.25
620.673	84.25
620.88	93.25
621.087	87.25
621.294	76.25
621.501	77.25
621.708	87.25
621.915	84.25
622.122	90.25
622.329	81.25
622.536	91.25
622.743	86.25
622.95	93.25
623.157	77.25
623.364	91.25
623.571	80.25
623.778	90.25
623.985	98.25
624.192	79.25
624.399	92.25
624.606	77.25
624.812	92.25
625.019	100.25
625.226	92.25
625.433	85.25
625.639	87.25
625.846	79.25
626.053	88.25
626.259	88.25
626.466	75.25
626.673	88.25
626.879	87.25
627.086	93.25
627.293	101.25
627.499	95.25
627.706	79.25
627.912	83.25
628.119	79.25
628.325	88.25
628.532	80.25
628.738	82.25
628.945	90.25
629.151	92.25
629.357	80.25
629.564	82.25
629.77	92.25
629.976	74.25
630.183	89.25
630.389	91.25
630.595	90.25
630.802	91.25
631.008	93.25
631.214	83.25
631.42	69.25
631.627	91.25
631.833	82.25
632.039	76.25
632.245	66.25
632.451	89.25
632.657	76.25
632.863	82.25
633.069	87.25
633.275	89.25
633.481	86.25
633.688	86.25
633.893	79.25
634.099	79.25
634.305	88.25
634.511	76.25
634.717	90.25
634.923	90.25
635.129	84.25
635.335	83.25
635.541	84.25
635.747	82.25
635.952	100.25
636.158	87.25
636.364	91.25
636.57	90.25
636.775	77.25
636.981	76.25
637.187	82.25
637.392	76.25
637.598	78.25
637.804	101.25
638.009	80.25
638.215	84.25
638.421	87.25
638.626	88.25
638.832	87.25
639.037	84.25
639.243	87.25
639.448	80.25
639.654	91.25
639.859	75.25
640.065	81.25
640.27	87.25
640.475	73.25
640.681	88.25
640.886	93.25
641.091	88.25
641.297	80.25
641.502	78.25
641.707	96.25
641.913	87.25
642.118	76.25
642.323	78.25
642.528	92.25
642.733	101.25
642.939	79.25
643.144	90.25
643.349	74.25
643.554	92.25
643.759	88.25
643.964	89.25
644.169	80.25
644.374	90.25
644.579	92.25
644.784	90.25
644.989	89.25
645.194	83.25
645.399	93.25
645.604	88.25
645.809	79.25
646.014	112.25
646.219	76.25
646.423	88.25
646.628	84.25
646.833	92.25
647.038	81.25
647.243	85.25
647.447	81.25
647.652	81.25
647.857	88.25
648.062	100.25
648.266	80.25
648.471	76.25
648.676	69.25
648.88	86.25
649.085	88.25
649.289	97.25
649.494	79.25
649.698	82.25
649.903	89.25
650.107	64.25
650.312	77.25
650.516	85.25
650.721	101.25
650.925	80.25
651.13	82.25
651.334	93.25
651.539	93.25
651.743	85.25
651.947	72.25
652.152	85.25
652.356	94.25
652.56	75.25
652.764	84.25
652.969	88.25
653.173	77.25
653.377	90.25
653.581	74.25
653.785	85.25
653.99	95.25
654.194	81.25
654.398	81.25
654.602	79.25
654.806	92.25
655.01	81.25
655.214	76.25
655.418	84.25
655.622	82.25
655.826	87.25
656.03	73.25
656.234	85.25
656.438	95.25
656.642	101.25
656.846	76.25
657.049	74.25
657.253	82.25
657.457	74.25
657.661	71.25
657.865	80.25
658.068	78.25
658.272	78.25
658.476	76.25
658.68	92.25
658.883	77.25
659.087	73.25
659.291	77.25
659.494	89.25
659.698	92.25
659.901	73.25
660.105	97.25
660.309	84.25
660.512	86.25
660.716	77.25
660.919	81.25
661.123	74.25
661.326	80.25
661.53	102.25
661.733	78.25
661.936	71.25
662.14	69.25
662.343	81.25
662.546	87.25
662.75	87.25
662.953	76.25
663.156	93.25
663.36	86.25
663.563	71.25
663.766	87.25
663.969	89.25
664.173	81.25
664.376	85.25
664.579	93.25
664.782	91.25
664.985	98.25
665.188	78.25
665.391	94.25
665.594	95.25
665.797	95.25
666	79.25
666.203	84.25
666.406	80.25
666.609	65.25
666.812	68.25
667.015	74.25
667.218	89.25
667.421	88.25
667.624	87.25
667.827	89.25
668.03	66.25
668.232	83.25
668.435	81.25
668.638	78.25
668.841	76.25
669.043	73.25
669.246	76.25
669.449	74.25
669.651	81.25
669.854	74.25
670.057	86.25
670.259	74.25
670.462	76.25
670.665	84.25
670.867	90.25
671.07	82.25
671.272	94.25
671.475	101.25
671.677	89.25
671.88	67.25
672.082	81.25
672.284	74.25
672.487	89.25
672.689	72.25
672.892	86.25
