Data from SampB_HRD10591_00062.txt Node
Date: Mon Jan 19 11:33:49 EST 2026
User: Yrep
Spectrometer: HR+D1059
Trigger mode: 0
Integration Time (sec): 3.443000E-1
Scans to average: 1
Electric dark correction enabled: true
Nonlinearity correction enabled: false
Boxcar width: 0
XAxis mode: Wavelengths
Number of Pixels in Spectrum: 2048
>>>>>Begin Spectral Data<<<<<
223.165	-31.88
223.4	-31.88
223.635	-31.88
223.869	-23.88
224.104	-11.88
224.338	-9.88
224.573	-16.88
224.808	-23.88
225.042	-4.88
225.277	17.12
225.511	-5.88
225.746	5.12
225.98	19.12
226.215	-0.88
226.449	13.12
226.683	25.12
226.918	18.12
227.152	32.12
227.387	31.12
227.621	49.12
227.856	45.12
228.09	50.12
228.324	63.12
228.559	65.12
228.793	79.12
229.027	64.12
229.262	71.12
229.496	86.12
229.73	76.12
229.964	88.12
230.199	76.12
230.433	92.12
230.667	97.12
230.901	93.12
231.136	92.12
231.37	99.12
231.604	95.12
231.838	91.12
232.072	90.12
232.306	96.12
232.541	75.12
232.775	84.12
233.009	94.12
233.243	100.12
233.477	99.12
233.711	108.12
233.945	98.12
234.179	103.12
234.413	100.12
234.647	96.12
234.881	104.12
235.115	105.12
235.349	86.12
235.583	108.12
235.817	85.12
236.051	88.12
236.285	83.12
236.519	107.12
236.753	89.12
236.987	87.12
237.221	100.12
237.455	98.12
237.689	94.12
237.922	104.12
238.156	99.12
238.39	102.12
238.624	112.12
238.858	91.12
239.091	105.12
239.325	97.12
239.559	99.12
239.793	115.12
240.027	109.12
240.26	106.12
240.494	115.12
240.728	117.12
240.961	110.12
241.195	109.12
241.429	121.12
241.662	113.12
241.896	100.12
242.13	98.12
242.363	115.12
242.597	107.12
242.83	102.12
243.064	101.12
243.298	108.12
243.531	100.12
243.765	115.12
243.998	118.12
244.232	120.12
244.465	112.12
244.699	122.12
244.932	97.12
245.166	107.12
245.399	111.12
245.633	129.12
245.866	107.12
246.099	113.12
246.333	100.12
246.566	111.12
246.8	101.12
247.033	123.12
247.266	128.12
247.5	117.12
247.733	110.12
247.966	131.12
248.2	130.12
248.433	107.12
248.666	128.12
248.899	102.12
249.133	110.12
249.366	143.12
249.599	124.12
249.832	131.12
250.066	118.12
250.299	129.12
250.532	131.12
250.765	126.12
250.998	121.12
251.231	117.12
251.465	117.12
251.698	115.12
251.931	123.12
252.164	119.12
252.397	144.12
252.63	125.12
252.863	127.12
253.096	131.12
253.329	129.12
253.562	150.12
253.795	123.12
254.028	143.12
254.261	151.12
254.494	123.12
254.727	117.12
254.96	132.12
255.193	132.12
255.426	133.12
255.659	130.12
255.892	143.12
256.124	130.12
256.357	139.12
256.59	153.12
256.823	151.12
257.056	126.12
257.289	141.12
257.521	143.12
257.754	132.12
257.987	116.12
258.22	142.12
258.452	136.12
258.685	151.12
258.918	146.12
259.151	138.12
259.383	149.12
259.616	140.12
259.849	144.12
260.081	164.12
260.314	157.12
260.547	146.12
260.779	142.12
261.012	161.12
261.244	127.12
261.477	164.12
261.71	147.12
261.942	153.12
262.175	139.12
262.407	142.12
262.64	149.12
262.872	152.12
263.105	146.12
263.337	159.12
263.57	157.12
263.802	129.12
264.035	133.12
264.267	133.12
264.499	129.12
264.732	136.12
264.964	137.12
265.197	137.12
265.429	133.12
265.661	131.12
265.894	145.12
266.126	147.12
266.358	147.12
266.591	131.12
266.823	141.12
267.055	131.12
267.287	144.12
267.52	112.12
267.752	144.12
267.984	138.12
268.216	144.12
268.448	147.12
268.681	149.12
268.913	158.12
269.145	146.12
269.377	147.12
269.609	136.12
269.841	143.12
270.073	163.12
270.306	139.12
270.538	166.12
270.77	155.12
271.002	169.12
271.234	164.12
271.466	171.12
271.698	154.12
271.93	143.12
272.162	160.12
272.394	147.12
272.626	153.12
272.858	166.12
273.09	171.12
273.322	165.12
273.553	165.12
273.785	170.12
274.017	177.12
274.249	185.12
274.481	183.12
274.713	188.12
274.945	210.12
275.176	199.12
275.408	207.12
275.64	180.12
275.872	200.12
276.104	165.12
276.335	147.12
276.567	160.12
276.799	163.12
277.031	156.12
277.262	161.12
277.494	170.12
277.726	173.12
277.957	174.12
278.189	171.12
278.421	178.12
278.652	171.12
278.884	157.12
279.115	181.12
279.347	177.12
279.579	183.12
279.81	177.12
280.042	179.12
280.273	178.12
280.505	180.12
280.736	178.12
280.968	161.12
281.199	158.12
281.431	167.12
281.662	149.12
281.894	157.12
282.125	160.12
282.356	166.12
282.588	164.12
282.819	175.12
283.051	171.12
283.282	184.12
283.513	171.12
283.745	165.12
283.976	168.12
284.207	172.12
284.439	178.12
284.67	186.12
284.901	166.12
285.132	178.12
285.364	151.12
285.595	165.12
285.826	164.12
286.057	189.12
286.288	173.12
286.52	183.12
286.751	173.12
286.982	178.12
287.213	181.12
287.444	175.12
287.675	182.12
287.906	196.12
288.138	183.12
288.369	193.12
288.6	164.12
288.831	180.12
289.062	192.12
289.293	176.12
289.524	183.12
289.755	170.12
289.986	167.12
290.217	182.12
290.448	168.12
290.679	190.12
290.91	183.12
291.141	193.12
291.371	185.12
291.602	191.12
291.833	191.12
292.064	180.12
292.295	179.12
292.526	178.12
292.757	179.12
292.987	168.12
293.218	173.12
293.449	196.12
293.68	188.12
293.91	183.12
294.141	180.12
294.372	162.12
294.603	193.12
294.833	199.12
295.064	194.12
295.295	191.12
295.525	205.12
295.756	185.12
295.987	183.12
296.217	186.12
296.448	191.12
296.679	183.12
296.909	205.12
297.14	185.12
297.37	218.12
297.601	192.12
297.831	200.12
298.062	193.12
298.292	202.12
298.523	191.12
298.753	195.12
298.984	207.12
299.214	202.12
299.445	204.12
299.675	191.12
299.905	208.12
300.136	192.12
300.366	198.12
300.597	205.12
300.827	199.12
301.057	200.12
301.288	203.12
301.518	199.12
301.748	208.12
301.979	242.12
302.209	223.12
302.439	206.12
302.669	201.12
302.9	197.12
303.13	189.12
303.36	202.12
303.59	211.12
303.82	202.12
304.051	193.12
304.281	219.12
304.511	222.12
304.741	196.12
304.971	199.12
305.201	199.12
305.431	189.12
305.661	205.12
305.891	194.12
306.121	215.12
306.352	215.12
306.582	202.12
306.812	194.12
307.042	203.12
307.272	200.12
307.502	206.12
307.731	202.12
307.961	232.12
308.191	223.12
308.421	200.12
308.651	199.12
308.881	206.12
309.111	205.12
309.341	209.12
309.571	208.12
309.8	216.12
310.03	205.12
310.26	201.12
310.49	200.12
310.72	181.12
310.949	210.12
311.179	210.12
311.409	206.12
311.639	195.12
311.868	195.12
312.098	208.12
312.328	218.12
312.557	220.12
312.787	213.12
313.017	209.12
313.246	237.12
313.476	217.12
313.706	207.12
313.935	221.12
314.165	207.12
314.394	205.12
314.624	213.12
314.853	202.12
315.083	206.12
315.312	228.12
315.542	209.12
315.771	217.12
316.001	218.12
316.23	216.12
316.46	197.12
316.689	226.12
316.919	221.12
317.148	217.12
317.377	194.12
317.607	212.12
317.836	221.12
318.065	202.12
318.295	202.12
318.524	211.12
318.753	222.12
318.983	210.12
319.212	223.12
319.441	204.12
319.67	215.12
319.9	197.12
320.129	220.12
320.358	229.12
320.587	235.12
320.816	214.12
321.046	215.12
321.275	218.12
321.504	216.12
321.733	203.12
321.962	232.12
322.191	215.12
322.42	218.12
322.649	213.12
322.878	227.12
323.108	220.12
323.337	233.12
323.566	229.12
323.795	219.12
324.024	233.12
324.253	222.12
324.482	232.12
324.71	222.12
324.939	225.12
325.168	215.12
325.397	230.12
325.626	235.12
325.855	230.12
326.084	242.12
326.313	229.12
326.542	233.12
326.77	232.12
326.999	223.12
327.228	241.12
327.457	240.12
327.686	256.12
327.914	268.12
328.143	277.12
328.372	283.12
328.6	267.12
328.829	249.12
329.058	226.12
329.287	238.12
329.515	269.12
329.744	254.12
329.972	303.12
330.201	330.12
330.43	332.12
330.658	273.12
330.887	279.12
331.115	249.12
331.344	259.12
331.572	276.12
331.801	252.12
332.03	268.12
332.258	260.12
332.486	260.12
332.715	287.12
332.943	283.12
333.172	293.12
333.4	296.12
333.629	332.12
333.857	337.12
334.085	366.12
334.314	394.12
334.542	408.12
334.771	400.12
334.999	346.12
335.227	312.12
335.455	299.12
335.684	301.12
335.912	276.12
336.14	277.12
336.369	266.12
336.597	263.12
336.825	276.12
337.053	267.12
337.281	271.12
337.51	232.12
337.738	256.12
337.966	271.12
338.194	252.12
338.422	266.12
338.65	246.12
338.878	240.12
339.106	245.12
339.334	260.12
339.562	240.12
339.79	239.12
340.018	250.12
340.246	235.12
340.474	246.12
340.702	246.12
340.93	243.12
341.158	239.12
341.386	241.12
341.614	229.12
341.842	231.12
342.07	236.12
342.298	237.12
342.526	243.12
342.754	236.12
342.981	240.12
343.209	252.12
343.437	277.12
343.665	265.12
343.893	282.12
344.12	302.12
344.348	255.12
344.576	234.12
344.804	253.12
345.031	242.12
345.259	261.12
345.487	240.12
345.714	256.12
345.942	237.12
346.17	244.12
346.397	243.12
346.625	233.12
346.853	226.12
347.08	241.12
347.308	236.12
347.535	236.12
347.763	232.12
347.99	253.12
348.218	249.12
348.445	233.12
348.673	224.12
348.9	238.12
349.128	247.12
349.355	229.12
349.583	243.12
349.81	235.12
350.037	222.12
350.265	233.12
350.492	227.12
350.72	221.12
350.947	234.12
351.174	236.12
351.402	222.12
351.629	225.12
351.856	218.12
352.083	239.12
352.311	237.12
352.538	227.12
352.765	217.12
352.992	237.12
353.22	220.12
353.447	231.12
353.674	237.12
353.901	214.12
354.128	218.12
354.355	224.12
354.583	225.12
354.81	232.12
355.037	238.12
355.264	240.12
355.491	224.12
355.718	243.12
355.945	232.12
356.172	235.12
356.399	237.12
356.626	242.12
356.853	230.12
357.08	243.12
357.307	248.12
357.534	236.12
357.761	253.12
357.988	242.12
358.215	251.12
358.441	239.12
358.668	238.12
358.895	226.12
359.122	222.12
359.349	240.12
359.576	226.12
359.802	230.12
360.029	213.12
360.256	239.12
360.483	239.12
360.709	257.12
360.936	254.12
361.163	244.12
361.39	233.12
361.616	230.12
361.843	233.12
362.07	255.12
362.296	248.12
362.523	229.12
362.749	218.12
362.976	236.12
363.203	248.12
363.429	235.12
363.656	232.12
363.882	233.12
364.109	236.12
364.335	252.12
364.562	236.12
364.788	224.12
365.015	227.12
365.241	233.12
365.468	244.12
365.694	230.12
365.92	231.12
366.147	221.12
366.373	209.12
366.599	224.12
366.826	211.12
367.052	225.12
367.278	242.12
367.505	219.12
367.731	252.12
367.957	229.12
368.184	233.12
368.41	239.12
368.636	247.12
368.862	265.12
369.089	237.12
369.315	244.12
369.541	247.12
369.767	248.12
369.993	243.12
370.219	240.12
370.445	244.12
370.672	246.12
370.898	239.12
371.124	249.12
371.35	240.12
371.576	257.12
371.802	235.12
372.028	245.12
372.254	259.12
372.48	252.12
372.706	244.12
372.932	264.12
373.158	273.12
373.384	284.12
373.61	292.12
373.835	276.12
374.061	258.12
374.287	268.12
374.513	279.12
374.739	279.12
374.965	298.12
375.191	287.12
375.416	264.12
375.642	274.12
375.868	280.12
376.094	267.12
376.319	255.12
376.545	273.12
376.771	266.12
376.997	245.12
377.222	230.12
377.448	255.12
377.674	253.12
377.899	242.12
378.125	244.12
378.35	248.12
378.576	241.12
378.802	237.12
379.027	243.12
379.253	253.12
379.478	240.12
379.704	260.12
379.929	247.12
380.155	243.12
380.38	249.12
380.606	241.12
380.831	253.12
381.057	288.12
381.282	255.12
381.507	271.12
381.733	268.12
381.958	271.12
382.184	259.12
382.409	273.12
382.634	276.12
382.86	283.12
383.085	267.12
383.31	268.12
383.535	284.12
383.761	284.12
383.986	286.12
384.211	284.12
384.436	289.12
384.662	289.12
384.887	292.12
385.112	279.12
385.337	329.12
385.562	293.12
385.787	302.12
386.013	314.12
386.238	300.12
386.463	280.12
386.688	307.12
386.913	270.12
387.138	257.12
387.363	260.12
387.588	299.12
387.813	300.12
388.038	306.12
388.263	302.12
388.488	291.12
388.713	298.12
388.938	287.12
389.163	287.12
389.387	285.12
389.612	276.12
389.837	309.12
390.062	283.12
390.287	299.12
390.512	296.12
390.736	308.12
390.961	283.12
391.186	306.12
391.411	285.12
391.636	316.12
391.86	334.12
392.085	320.12
392.31	309.12
392.534	314.12
392.759	305.12
392.984	308.12
393.208	316.12
393.433	312.12
393.658	309.12
393.882	307.12
394.107	317.12
394.331	329.12
394.556	318.12
394.78	336.12
395.005	336.12
395.229	323.12
395.454	342.12
395.678	339.12
395.903	333.12
396.127	374.12
396.352	369.12
396.576	325.12
396.801	325.12
397.025	353.12
397.249	327.12
397.474	344.12
397.698	328.12
397.922	343.12
398.147	309.12
398.371	335.12
398.595	337.12
398.82	372.12
399.044	405.12
399.268	437.12
399.492	472.12
399.717	504.12
399.941	478.12
400.165	411.12
400.389	390.12
400.613	380.12
400.837	360.12
401.062	362.12
401.286	336.12
401.51	364.12
401.734	349.12
401.958	370.12
402.182	354.12
402.406	381.12
402.63	392.12
402.854	382.12
403.078	393.12
403.302	411.12
403.526	397.12
403.75	394.12
403.974	398.12
404.198	417.12
404.422	395.12
404.645	413.12
404.869	410.12
405.093	406.12
405.317	392.12
405.541	391.12
405.765	412.12
405.988	403.12
406.212	396.12
406.436	399.12
406.66	405.12
406.883	419.12
407.107	446.12
407.331	425.12
407.555	457.12
407.778	443.12
408.002	419.12
408.226	424.12
408.449	419.12
408.673	409.12
408.896	384.12
409.12	399.12
409.344	398.12
409.567	393.12
409.791	398.12
410.014	392.12
410.238	396.12
410.461	388.12
410.685	374.12
410.908	378.12
411.132	399.12
411.355	364.12
411.578	378.12
411.802	377.12
412.025	376.12
412.249	385.12
412.472	367.12
412.695	380.12
412.919	351.12
413.142	370.12
413.365	372.12
413.589	357.12
413.812	362.12
414.035	364.12
414.258	382.12
414.482	380.12
414.705	362.12
414.928	387.12
415.151	364.12
415.374	368.12
415.597	335.12
415.821	364.12
416.044	374.12
416.267	365.12
416.49	367.12
416.713	357.12
416.936	372.12
417.159	373.12
417.382	360.12
417.605	358.12
417.828	398.12
418.051	361.12
418.274	357.12
418.497	384.12
418.72	382.12
418.943	361.12
419.166	400.12
419.389	423.12
419.611	399.12
419.834	376.12
420.057	394.12
420.28	366.12
420.503	384.12
420.726	393.12
420.948	348.12
421.171	382.12
421.394	363.12
421.617	363.12
421.839	364.12
422.062	366.12
422.285	380.12
422.507	370.12
422.73	388.12
422.953	388.12
423.175	373.12
423.398	388.12
423.621	370.12
423.843	383.12
424.066	374.12
424.288	394.12
424.511	372.12
424.733	369.12
424.956	370.12
425.178	371.12
425.401	380.12
425.623	363.12
425.846	350.12
426.068	346.12
426.291	352.12
426.513	348.12
426.735	348.12
426.958	345.12
427.18	352.12
427.402	362.12
427.625	335.12
427.847	333.12
428.069	339.12
428.292	367.12
428.514	365.12
428.736	341.12
428.958	341.12
429.181	338.12
429.403	328.12
429.625	343.12
429.847	353.12
430.069	362.12
430.292	343.12
430.514	361.12
430.736	346.12
430.958	352.12
431.18	331.12
431.402	328.12
431.624	345.12
431.846	330.12
432.068	318.12
432.29	331.12
432.512	344.12
432.734	329.12
432.956	338.12
433.178	323.12
433.4	335.12
433.622	339.12
433.844	346.12
434.066	336.12
434.287	325.12
434.509	321.12
434.731	348.12
434.953	371.12
435.175	375.12
435.397	353.12
435.618	341.12
435.84	339.12
436.062	326.12
436.284	336.12
436.505	328.12
436.727	337.12
436.949	344.12
437.17	314.12
437.392	322.12
437.614	324.12
437.835	308.12
438.057	340.12
438.278	334.12
438.5	351.12
438.721	333.12
438.943	332.12
439.165	321.12
439.386	328.12
439.608	373.12
439.829	340.12
440.05	338.12
440.272	331.12
440.493	350.12
440.715	332.12
440.936	353.12
441.158	355.12
441.379	361.12
441.6	371.12
441.822	375.12
442.043	361.12
442.264	368.12
442.486	352.12
442.707	355.12
442.928	365.12
443.149	362.12
443.371	363.12
443.592	363.12
443.813	363.12
444.034	392.12
444.255	405.12
444.476	394.12
444.698	405.12
444.919	435.12
445.14	577.12
445.361	473.12
445.582	366.12
445.803	371.12
446.024	357.12
446.245	363.12
446.466	352.12
446.687	365.12
446.908	355.12
447.129	335.12
447.35	327.12
447.571	339.12
447.792	323.12
448.013	314.12
448.234	333.12
448.455	331.12
448.675	301.12
448.896	318.12
449.117	320.12
449.338	301.12
449.559	319.12
449.779	311.12
450	305.12
450.221	306.12
450.442	313.12
450.662	301.12
450.883	311.12
451.104	307.12
451.324	320.12
451.545	322.12
451.766	319.12
451.986	304.12
452.207	305.12
452.428	308.12
452.648	300.12
452.869	299.12
453.089	307.12
453.31	290.12
453.53	298.12
453.751	300.12
453.971	308.12
454.192	292.12
454.412	290.12
454.633	284.12
454.853	289.12
455.073	309.12
455.294	304.12
455.514	297.12
455.734	304.12
455.955	293.12
456.175	282.12
456.395	274.12
456.616	266.12
456.836	255.12
457.056	284.12
457.276	267.12
457.497	275.12
457.717	284.12
457.937	278.12
458.157	291.12
458.377	278.12
458.598	292.12
458.818	298.12
459.038	296.12
459.258	315.12
459.478	316.12
459.698	311.12
459.918	327.12
460.138	352.12
460.358	362.12
460.578	378.12
460.798	364.12
461.018	375.12
461.238	366.12
461.458	361.12
461.678	382.12
461.898	383.12
462.118	381.12
462.338	419.12
462.558	425.12
462.777	391.12
462.997	427.12
463.217	476.12
463.437	471.12
463.657	393.12
463.876	409.12
464.096	397.12
464.316	425.12
464.536	411.12
464.755	398.12
464.975	399.12
465.195	382.12
465.414	355.12
465.634	346.12
465.854	336.12
466.073	312.12
466.293	339.12
466.512	343.12
466.732	354.12
466.951	333.12
467.171	321.12
467.391	330.12
467.61	337.12
467.829	351.12
468.049	377.12
468.268	383.12
468.488	347.12
468.707	341.12
468.927	328.12
469.146	332.12
469.365	340.12
469.585	352.12
469.804	356.12
470.023	358.12
470.243	336.12
470.462	333.12
470.681	346.12
470.901	338.12
471.12	340.12
471.339	351.12
471.558	333.12
471.777	341.12
471.997	369.12
472.216	446.12
472.435	508.12
472.654	427.12
472.873	367.12
473.092	349.12
473.311	321.12
473.53	314.12
473.749	314.12
473.968	338.12
474.187	315.12
474.406	301.12
474.625	307.12
474.844	329.12
475.063	338.12
475.282	329.12
475.501	321.12
475.72	331.12
475.939	309.12
476.158	319.12
476.377	332.12
476.596	318.12
476.814	342.12
477.033	323.12
477.252	320.12
477.471	338.12
477.69	339.12
477.908	344.12
478.127	359.12
478.346	367.12
478.564	369.12
478.783	368.12
479.002	371.12
479.22	408.12
479.439	403.12
479.658	389.12
479.876	372.12
480.095	368.12
480.313	391.12
480.532	426.12
480.751	429.12
480.969	471.12
481.188	660.12
481.406	562.12
481.624	413.12
481.843	381.12
482.061	364.12
482.28	362.12
482.498	348.12
482.717	362.12
482.935	355.12
483.153	367.12
483.372	347.12
483.59	363.12
483.808	340.12
484.027	329.12
484.245	354.12
484.463	358.12
484.681	367.12
484.9	355.12
485.118	361.12
485.336	335.12
485.554	350.12
485.772	340.12
485.99	355.12
486.209	357.12
486.427	361.12
486.645	364.12
486.863	377.12
487.081	367.12
487.299	375.12
487.517	369.12
487.735	389.12
487.953	386.12
488.171	380.12
488.389	366.12
488.607	368.12
488.825	340.12
489.043	342.12
489.261	346.12
489.479	368.12
489.696	358.12
489.914	355.12
490.132	364.12
490.35	368.12
490.568	364.12
490.786	361.12
491.003	378.12
491.221	395.12
491.439	393.12
491.657	404.12
491.874	409.12
492.092	440.12
492.31	431.12
492.527	439.12
492.745	411.12
492.963	417.12
493.18	399.12
493.398	424.12
493.615	411.12
493.833	405.12
494.05	399.12
494.268	382.12
494.485	394.12
494.703	407.12
494.92	404.12
495.138	381.12
495.355	409.12
495.573	398.12
495.79	396.12
496.008	423.12
496.225	408.12
496.442	410.12
496.66	420.12
496.877	421.12
497.094	419.12
497.312	427.12
497.529	424.12
497.746	430.12
497.963	431.12
498.181	445.12
498.398	464.12
498.615	484.12
498.832	495.12
499.049	544.12
499.267	597.12
499.484	631.12
499.701	660.12
499.918	752.12
500.135	838.12
500.352	929.12
500.569	940.12
500.786	955.12
501.003	867.12
501.22	740.12
501.437	689.12
501.654	639.12
501.871	555.12
502.088	537.12
502.305	525.12
502.522	489.12
502.739	480.12
502.956	458.12
503.172	455.12
503.389	420.12
503.606	419.12
503.823	427.12
504.04	426.12
504.256	407.12
504.473	431.12
504.69	458.12
504.907	423.12
505.123	396.12
505.34	384.12
505.557	363.12
505.773	368.12
505.99	370.12
506.207	362.12
506.423	352.12
506.64	349.12
506.856	340.12
507.073	355.12
507.289	353.12
507.506	343.12
507.722	329.12
507.939	331.12
508.155	344.12
508.372	330.12
508.588	318.12
508.805	340.12
509.021	317.12
509.238	323.12
509.454	298.12
509.67	303.12
509.887	324.12
510.103	312.12
510.319	285.12
510.536	320.12
510.752	297.12
510.968	316.12
511.184	301.12
511.401	297.12
511.617	298.12
511.833	301.12
512.049	309.12
512.265	316.12
512.481	307.12
512.698	310.12
512.914	319.12
513.13	304.12
513.346	301.12
513.562	297.12
513.778	299.12
513.994	323.12
514.21	331.12
514.426	311.12
514.642	304.12
514.858	330.12
515.074	297.12
515.29	328.12
515.506	317.12
515.721	322.12
515.937	332.12
516.153	341.12
516.369	307.12
516.585	336.12
516.801	362.12
517.016	370.12
517.232	394.12
517.448	395.12
517.664	394.12
517.879	405.12
518.095	383.12
518.311	383.12
518.527	368.12
518.742	365.12
518.958	354.12
519.173	359.12
519.389	341.12
519.605	308.12
519.82	335.12
520.036	338.12
520.251	335.12
520.467	335.12
520.682	332.12
520.898	301.12
521.113	306.12
521.329	305.12
521.544	288.12
521.76	298.12
521.975	309.12
522.19	309.12
522.406	316.12
522.621	311.12
522.836	297.12
523.052	305.12
523.267	296.12
523.482	303.12
523.698	288.12
523.913	295.12
524.128	309.12
524.343	294.12
524.559	298.12
524.774	309.12
524.989	313.12
525.204	302.12
525.419	283.12
525.634	305.12
525.849	315.12
526.064	283.12
526.28	296.12
526.495	304.12
526.71	290.12
526.925	288.12
527.14	269.12
527.355	288.12
527.57	288.12
527.785	284.12
527.999	285.12
528.214	308.12
528.429	299.12
528.644	315.12
528.859	302.12
529.074	305.12
529.289	335.12
529.503	296.12
529.718	313.12
529.933	275.12
530.148	283.12
530.363	288.12
530.577	270.12
530.792	289.12
531.007	291.12
531.221	279.12
531.436	273.12
531.651	281.12
531.865	282.12
532.08	279.12
532.295	289.12
532.509	291.12
532.724	284.12
532.938	294.12
533.153	285.12
533.367	283.12
533.582	294.12
533.796	281.12
534.011	283.12
534.225	288.12
534.44	299.12
534.654	297.12
534.868	262.12
535.083	295.12
535.297	280.12
535.511	279.12
535.726	274.12
535.94	268.12
536.154	265.12
536.369	275.12
536.583	289.12
536.797	277.12
537.011	251.12
537.225	271.12
537.44	275.12
537.654	269.12
537.868	276.12
538.082	285.12
538.296	268.12
538.51	270.12
538.724	274.12
538.938	253.12
539.153	274.12
539.367	273.12
539.581	263.12
539.795	284.12
540.009	264.12
540.222	262.12
540.436	261.12
540.65	287.12
540.864	267.12
541.078	283.12
541.292	287.12
541.506	305.12
541.72	324.12
541.934	303.12
542.147	293.12
542.361	292.12
542.575	273.12
542.789	276.12
543.002	281.12
543.216	284.12
543.43	283.12
543.644	276.12
543.857	297.12
544.071	288.12
544.285	296.12
544.498	300.12
544.712	303.12
544.925	293.12
545.139	308.12
545.352	298.12
545.566	292.12
545.779	304.12
545.993	316.12
546.206	302.12
546.42	302.12
546.633	305.12
546.847	306.12
547.06	303.12
547.274	334.12
547.487	311.12
547.7	294.12
547.914	314.12
548.127	314.12
548.34	325.12
548.554	300.12
548.767	303.12
548.98	315.12
549.193	309.12
549.407	319.12
549.62	298.12
549.833	311.12
550.046	291.12
550.259	310.12
550.473	297.12
550.686	318.12
550.899	295.12
551.112	301.12
551.325	302.12
551.538	300.12
551.751	283.12
551.964	283.12
552.177	285.12
552.39	305.12
552.603	310.12
552.816	309.12
553.029	309.12
553.242	315.12
553.455	324.12
553.667	322.12
553.88	333.12
554.093	322.12
554.306	313.12
554.519	319.12
554.732	284.12
554.944	288.12
555.157	272.12
555.37	278.12
555.583	291.12
555.795	279.12
556.008	274.12
556.221	272.12
556.433	272.12
556.646	269.12
556.859	256.12
557.071	266.12
557.284	251.12
557.496	263.12
557.709	277.12
557.921	274.12
558.134	275.12
558.346	267.12
558.559	268.12
558.771	265.12
558.984	264.12
559.196	270.12
559.409	269.12
559.621	256.12
559.833	245.12
560.046	249.12
560.258	254.12
560.47	269.12
560.683	256.12
560.895	242.12
561.107	236.12
561.32	251.12
561.532	248.12
561.744	259.12
561.956	254.12
562.168	244.12
562.381	251.12
562.593	259.12
562.805	260.12
563.017	248.12
563.229	258.12
563.441	265.12
563.653	258.12
563.865	243.12
564.077	256.12
564.289	254.12
564.501	246.12
564.713	258.12
564.925	263.12
565.137	267.12
565.349	279.12
565.561	279.12
565.773	282.12
565.985	288.12
566.197	301.12
566.408	331.12
566.62	347.12
566.832	356.12
567.044	362.12
567.255	360.12
567.467	368.12
567.679	387.12
567.891	403.12
568.102	400.12
568.314	388.12
568.526	363.12
568.737	324.12
568.949	299.12
569.161	287.12
569.372	259.12
569.584	251.12
569.795	260.12
570.007	242.12
570.218	228.12
570.43	245.12
570.641	236.12
570.853	240.12
571.064	250.12
571.276	259.12
571.487	264.12
571.698	244.12
571.91	244.12
572.121	220.12
572.333	226.12
572.544	225.12
572.755	241.12
572.966	203.12
573.178	215.12
573.389	212.12
573.6	209.12
573.811	214.12
574.023	206.12
574.234	221.12
574.445	217.12
574.656	196.12
574.867	213.12
575.078	209.12
575.289	200.12
575.501	224.12
575.712	208.12
575.923	206.12
576.134	207.12
576.345	193.12
576.556	203.12
576.767	205.12
576.978	219.12
577.188	206.12
577.399	211.12
577.61	193.12
577.821	199.12
578.032	205.12
578.243	188.12
578.454	201.12
578.665	195.12
578.875	189.12
579.086	195.12
579.297	191.12
579.508	192.12
579.718	191.12
579.929	196.12
580.14	203.12
580.35	186.12
580.561	183.12
580.772	179.12
580.982	193.12
581.193	194.12
581.403	196.12
581.614	200.12
581.825	205.12
582.035	182.12
582.246	196.12
582.456	169.12
582.667	184.12
582.877	192.12
583.087	196.12
583.298	189.12
583.508	181.12
583.719	177.12
583.929	195.12
584.139	179.12
584.35	185.12
584.56	181.12
584.77	194.12
584.981	173.12
585.191	183.12
585.401	178.12
585.611	188.12
585.821	181.12
586.032	183.12
586.242	174.12
586.452	195.12
586.662	204.12
586.872	187.12
587.082	186.12
587.292	182.12
587.502	181.12
587.713	175.12
587.923	183.12
588.133	175.12
588.343	183.12
588.553	182.12
588.762	202.12
588.972	198.12
589.182	188.12
589.392	197.12
589.602	199.12
589.812	185.12
590.022	193.12
590.232	178.12
590.441	177.12
590.651	175.12
590.861	176.12
591.071	188.12
591.281	177.12
591.49	186.12
591.7	215.12
591.91	201.12
592.119	201.12
592.329	196.12
592.539	194.12
592.748	207.12
592.958	211.12
593.167	211.12
593.377	199.12
593.587	236.12
593.796	216.12
594.006	209.12
594.215	228.12
594.424	217.12
594.634	216.12
594.843	211.12
595.053	210.12
595.262	194.12
595.472	196.12
595.681	178.12
595.89	188.12
596.1	188.12
596.309	174.12
596.518	173.12
596.727	189.12
596.937	190.12
597.146	170.12
597.355	181.12
597.564	191.12
597.774	188.12
597.983	171.12
598.192	167.12
598.401	183.12
598.61	161.12
598.819	155.12
599.028	175.12
599.237	174.12
599.446	171.12
599.655	165.12
599.864	179.12
600.073	178.12
600.282	173.12
600.491	167.12
600.7	166.12
600.909	166.12
601.118	171.12
601.327	184.12
601.536	178.12
601.745	169.12
601.953	189.12
602.162	185.12
602.371	179.12
602.58	186.12
602.789	176.12
602.997	186.12
603.206	184.12
603.415	160.12
603.623	171.12
603.832	179.12
604.041	182.12
604.249	173.12
604.458	162.12
604.666	155.12
604.875	144.12
605.084	169.12
605.292	165.12
605.501	168.12
605.709	179.12
605.918	174.12
606.126	177.12
606.334	176.12
606.543	173.12
606.751	175.12
606.96	176.12
607.168	166.12
607.376	162.12
607.585	158.12
607.793	175.12
608.001	163.12
608.21	172.12
608.418	171.12
608.626	159.12
608.834	171.12
609.043	172.12
609.251	171.12
609.459	170.12
609.667	167.12
609.875	170.12
610.083	164.12
610.291	156.12
610.499	184.12
610.707	174.12
610.916	165.12
611.124	175.12
611.332	165.12
611.54	166.12
611.748	163.12
611.955	153.12
612.163	168.12
612.371	171.12
612.579	148.12
612.787	159.12
612.995	163.12
613.203	178.12
613.411	164.12
613.618	171.12
613.826	161.12
614.034	167.12
614.242	189.12
614.449	171.12
614.657	166.12
614.865	177.12
615.072	162.12
615.28	171.12
615.488	168.12
615.695	160.12
615.903	175.12
616.111	175.12
616.318	182.12
616.526	176.12
616.733	186.12
616.941	174.12
617.148	170.12
617.356	167.12
617.563	168.12
617.771	167.12
617.978	155.12
618.185	184.12
618.393	176.12
618.6	170.12
618.807	176.12
619.015	170.12
619.222	171.12
619.429	167.12
619.637	164.12
619.844	145.12
620.051	159.12
620.258	158.12
620.466	153.12
620.673	155.12
620.88	152.12
621.087	147.12
621.294	160.12
621.501	155.12
621.708	162.12
621.915	148.12
622.122	147.12
622.329	154.12
622.536	155.12
622.743	158.12
622.95	164.12
623.157	161.12
623.364	153.12
623.571	160.12
623.778	168.12
623.985	164.12
624.192	157.12
624.399	153.12
624.606	164.12
624.812	161.12
625.019	163.12
625.226	149.12
625.433	145.12
625.639	139.12
625.846	154.12
626.053	137.12
626.259	139.12
626.466	161.12
626.673	142.12
626.879	133.12
627.086	140.12
627.293	142.12
627.499	144.12
627.706	142.12
627.912	147.12
628.119	165.12
628.325	172.12
628.532	151.12
628.738	135.12
628.945	130.12
629.151	148.12
629.357	140.12
629.564	143.12
629.77	139.12
629.976	125.12
630.183	151.12
630.389	127.12
630.595	139.12
630.802	147.12
631.008	119.12
631.214	149.12
631.42	159.12
631.627	149.12
631.833	136.12
632.039	125.12
632.245	133.12
632.451	156.12
632.657	146.12
632.863	150.12
633.069	141.12
633.275	148.12
633.481	153.12
633.688	151.12
633.893	139.12
634.099	129.12
634.305	140.12
634.511	135.12
634.717	143.12
634.923	129.12
635.129	129.12
635.335	135.12
635.541	142.12
635.747	132.12
635.952	128.12
636.158	122.12
636.364	172.12
636.57	175.12
636.775	154.12
636.981	147.12
637.187	146.12
637.392	144.12
637.598	129.12
637.804	151.12
638.009	133.12
638.215	147.12
638.421	128.12
638.626	135.12
638.832	140.12
639.037	142.12
639.243	131.12
639.448	131.12
639.654	155.12
639.859	126.12
640.065	134.12
640.27	154.12
640.475	125.12
640.681	120.12
640.886	123.12
641.091	128.12
641.297	120.12
641.502	126.12
641.707	138.12
641.913	139.12
642.118	127.12
642.323	126.12
642.528	140.12
642.733	143.12
642.939	145.12
643.144	138.12
643.349	125.12
643.554	121.12
643.759	122.12
643.964	130.12
644.169	135.12
644.374	137.12
644.579	135.12
644.784	125.12
644.989	130.12
645.194	119.12
645.399	126.12
645.604	123.12
645.809	128.12
646.014	140.12
646.219	139.12
646.423	115.12
646.628	122.12
646.833	124.12
647.038	132.12
647.243	144.12
647.447	135.12
647.652	128.12
647.857	133.12
648.062	133.12
648.266	135.12
648.471	149.12
648.676	137.12
648.88	135.12
649.085	121.12
649.289	120.12
649.494	125.12
649.698	136.12
649.903	124.12
650.107	133.12
650.312	156.12
650.516	144.12
650.721	133.12
650.925	119.12
651.13	117.12
651.334	110.12
651.539	124.12
651.743	130.12
651.947	135.12
652.152	121.12
652.356	121.12
652.56	124.12
652.764	119.12
652.969	115.12
653.173	117.12
653.377	124.12
653.581	106.12
653.785	115.12
653.99	100.12
654.194	122.12
654.398	104.12
654.602	102.12
654.806	114.12
655.01	131.12
655.214	110.12
655.418	128.12
655.622	125.12
655.826	115.12
656.03	112.12
656.234	129.12
656.438	109.12
656.642	121.12
656.846	112.12
657.049	113.12
657.253	117.12
657.457	120.12
657.661	112.12
657.865	113.12
658.068	100.12
658.272	89.12
658.476	88.12
658.68	98.12
658.883	98.12
659.087	87.12
659.291	84.12
659.494	106.12
659.698	80.12
659.901	108.12
660.105	89.12
660.309	92.12
660.512	94.12
660.716	84.12
660.919	99.12
661.123	107.12
661.326	80.12
661.53	84.12
661.733	95.12
661.936	76.12
662.14	83.12
662.343	82.12
662.546	93.12
662.75	92.12
662.953	81.12
663.156	101.12
663.36	86.12
663.563	76.12
663.766	80.12
663.969	98.12
664.173	82.12
664.376	77.12
664.579	80.12
664.782	77.12
664.985	93.12
665.188	83.12
665.391	95.12
665.594	90.12
665.797	76.12
666	75.12
666.203	89.12
666.406	80.12
666.609	75.12
666.812	98.12
667.015	80.12
667.218	75.12
667.421	76.12
667.624	81.12
667.827	83.12
668.03	86.12
668.232	78.12
668.435	80.12
668.638	76.12
668.841	82.12
669.043	77.12
669.246	91.12
669.449	80.12
669.651	78.12
669.854	82.12
670.057	84.12
670.259	98.12
670.462	93.12
670.665	85.12
670.867	83.12
671.07	82.12
671.272	83.12
671.475	92.12
671.677	87.12
671.88	69.12
672.082	77.12
672.284	86.12
672.487	81.12
672.689	78.12
672.892	82.12
