Data from SampB_HRD10591_00015.txt Node
Date: Mon Jan 19 11:33:33 EST 2026
User: Yrep
Spectrometer: HR+D1059
Trigger mode: 0
Integration Time (sec): 3.443000E-1
Scans to average: 1
Electric dark correction enabled: true
Nonlinearity correction enabled: false
Boxcar width: 0
XAxis mode: Wavelengths
Number of Pixels in Spectrum: 2048
>>>>>Begin Spectral Data<<<<<
223.165	-24.69
223.4	-24.69
223.635	-24.69
223.869	-17.69
224.104	-30.69
224.338	-17.69
224.573	-23.69
224.808	-17.69
225.042	15.31
225.277	-10.69
225.511	2.31
225.746	11.31
225.98	10.31
226.215	9.31
226.449	11.31
226.683	17.31
226.918	30.31
227.152	35.31
227.387	54.31
227.621	54.31
227.856	54.31
228.09	36.31
228.324	49.31
228.559	68.31
228.793	77.31
229.027	92.31
229.262	97.31
229.496	62.31
229.73	70.31
229.964	92.31
230.199	89.31
230.433	78.31
230.667	86.31
230.901	87.31
231.136	92.31
231.37	98.31
231.604	90.31
231.838	85.31
232.072	90.31
232.306	93.31
232.541	81.31
232.775	90.31
233.009	101.31
233.243	91.31
233.477	88.31
233.711	89.31
233.945	91.31
234.179	92.31
234.413	112.31
234.647	100.31
234.881	107.31
235.115	103.31
235.349	97.31
235.583	95.31
235.817	91.31
236.051	85.31
236.285	100.31
236.519	100.31
236.753	100.31
236.987	110.31
237.221	105.31
237.455	93.31
237.689	82.31
237.922	99.31
238.156	94.31
238.39	83.31
238.624	89.31
238.858	107.31
239.091	101.31
239.325	79.31
239.559	94.31
239.793	76.31
240.027	99.31
240.26	79.31
240.494	98.31
240.728	83.31
240.961	92.31
241.195	102.31
241.429	91.31
241.662	108.31
241.896	100.31
242.13	90.31
242.363	101.31
242.597	89.31
242.83	101.31
243.064	89.31
243.298	110.31
243.531	82.31
243.765	83.31
243.998	100.31
244.232	117.31
244.465	97.31
244.699	89.31
244.932	99.31
245.166	97.31
245.399	90.31
245.633	100.31
245.866	102.31
246.099	102.31
246.333	116.31
246.566	102.31
246.8	98.31
247.033	107.31
247.266	95.31
247.5	104.31
247.733	109.31
247.966	97.31
248.2	94.31
248.433	94.31
248.666	99.31
248.899	112.31
249.133	105.31
249.366	111.31
249.599	114.31
249.832	111.31
250.066	107.31
250.299	123.31
250.532	121.31
250.765	92.31
250.998	98.31
251.231	92.31
251.465	97.31
251.698	109.31
251.931	103.31
252.164	102.31
252.397	108.31
252.63	117.31
252.863	103.31
253.096	96.31
253.329	118.31
253.562	108.31
253.795	111.31
254.028	116.31
254.261	103.31
254.494	110.31
254.727	117.31
254.96	125.31
255.193	117.31
255.426	122.31
255.659	121.31
255.892	119.31
256.124	115.31
256.357	109.31
256.59	104.31
256.823	109.31
257.056	112.31
257.289	113.31
257.521	109.31
257.754	107.31
257.987	115.31
258.22	124.31
258.452	111.31
258.685	101.31
258.918	112.31
259.151	117.31
259.383	121.31
259.616	125.31
259.849	109.31
260.081	124.31
260.314	116.31
260.547	110.31
260.779	112.31
261.012	115.31
261.244	124.31
261.477	121.31
261.71	116.31
261.942	120.31
262.175	125.31
262.407	115.31
262.64	109.31
262.872	122.31
263.105	134.31
263.337	121.31
263.57	127.31
263.802	131.31
264.035	117.31
264.267	126.31
264.499	124.31
264.732	128.31
264.964	135.31
265.197	119.31
265.429	135.31
265.661	119.31
265.894	121.31
266.126	126.31
266.358	134.31
266.591	141.31
266.823	118.31
267.055	106.31
267.287	119.31
267.52	112.31
267.752	131.31
267.984	127.31
268.216	129.31
268.448	119.31
268.681	126.31
268.913	133.31
269.145	124.31
269.377	123.31
269.609	134.31
269.841	126.31
270.073	129.31
270.306	135.31
270.538	122.31
270.77	125.31
271.002	126.31
271.234	135.31
271.466	127.31
271.698	131.31
271.93	139.31
272.162	129.31
272.394	141.31
272.626	126.31
272.858	115.31
273.09	129.31
273.322	139.31
273.553	122.31
273.785	137.31
274.017	142.31
274.249	131.31
274.481	121.31
274.713	137.31
274.945	141.31
275.176	132.31
275.408	137.31
275.64	141.31
275.872	131.31
276.104	147.31
276.335	132.31
276.567	139.31
276.799	138.31
277.031	124.31
277.262	140.31
277.494	145.31
277.726	148.31
277.957	137.31
278.189	129.31
278.421	147.31
278.652	129.31
278.884	128.31
279.115	154.31
279.347	152.31
279.579	143.31
279.81	165.31
280.042	150.31
280.273	140.31
280.505	133.31
280.736	150.31
280.968	146.31
281.199	150.31
281.431	143.31
281.662	139.31
281.894	130.31
282.125	144.31
282.356	132.31
282.588	139.31
282.819	159.31
283.051	153.31
283.282	147.31
283.513	163.31
283.745	162.31
283.976	144.31
284.207	143.31
284.439	140.31
284.67	148.31
284.901	142.31
285.132	153.31
285.364	145.31
285.595	180.31
285.826	155.31
286.057	158.31
286.288	157.31
286.52	164.31
286.751	162.31
286.982	157.31
287.213	153.31
287.444	165.31
287.675	168.31
287.906	156.31
288.138	147.31
288.369	159.31
288.6	155.31
288.831	154.31
289.062	160.31
289.293	162.31
289.524	166.31
289.755	163.31
289.986	150.31
290.217	163.31
290.448	160.31
290.679	160.31
290.91	165.31
291.141	151.31
291.371	163.31
291.602	153.31
291.833	167.31
292.064	161.31
292.295	158.31
292.526	169.31
292.757	151.31
292.987	160.31
293.218	160.31
293.449	143.31
293.68	173.31
293.91	149.31
294.141	168.31
294.372	158.31
294.603	158.31
294.833	157.31
295.064	161.31
295.295	135.31
295.525	159.31
295.756	170.31
295.987	162.31
296.217	176.31
296.448	160.31
296.679	161.31
296.909	162.31
297.14	174.31
297.37	176.31
297.601	150.31
297.831	157.31
298.062	174.31
298.292	164.31
298.523	186.31
298.753	181.31
298.984	173.31
299.214	166.31
299.445	165.31
299.675	164.31
299.905	165.31
300.136	141.31
300.366	157.31
300.597	171.31
300.827	182.31
301.057	177.31
301.288	155.31
301.518	183.31
301.748	164.31
301.979	203.31
302.209	188.31
302.439	172.31
302.669	166.31
302.9	165.31
303.13	165.31
303.36	185.31
303.59	181.31
303.82	174.31
304.051	164.31
304.281	189.31
304.511	190.31
304.741	161.31
304.971	163.31
305.201	171.31
305.431	176.31
305.661	180.31
305.891	175.31
306.121	164.31
306.352	169.31
306.582	166.31
306.812	182.31
307.042	175.31
307.272	170.31
307.502	185.31
307.731	167.31
307.961	177.31
308.191	164.31
308.421	185.31
308.651	183.31
308.881	162.31
309.111	181.31
309.341	167.31
309.571	166.31
309.8	163.31
310.03	170.31
310.26	172.31
310.49	169.31
310.72	161.31
310.949	171.31
311.179	173.31
311.409	179.31
311.639	180.31
311.868	177.31
312.098	179.31
312.328	190.31
312.557	180.31
312.787	187.31
313.017	192.31
313.246	177.31
313.476	173.31
313.706	183.31
313.935	189.31
314.165	182.31
314.394	186.31
314.624	192.31
314.853	197.31
315.083	193.31
315.312	190.31
315.542	173.31
315.771	191.31
316.001	175.31
316.23	176.31
316.46	171.31
316.689	166.31
316.919	178.31
317.148	189.31
317.377	187.31
317.607	174.31
317.836	190.31
318.065	188.31
318.295	183.31
318.524	179.31
318.753	186.31
318.983	172.31
319.212	192.31
319.441	186.31
319.67	167.31
319.9	183.31
320.129	184.31
320.358	194.31
320.587	179.31
320.816	186.31
321.046	175.31
321.275	199.31
321.504	178.31
321.733	182.31
321.962	183.31
322.191	169.31
322.42	186.31
322.649	191.31
322.878	196.31
323.108	196.31
323.337	193.31
323.566	190.31
323.795	183.31
324.024	185.31
324.253	174.31
324.482	189.31
324.71	193.31
324.939	198.31
325.168	186.31
325.397	196.31
325.626	189.31
325.855	181.31
326.084	200.31
326.313	190.31
326.542	202.31
326.77	194.31
326.999	196.31
327.228	202.31
327.457	193.31
327.686	204.31
327.914	203.31
328.143	194.31
328.372	199.31
328.6	202.31
328.829	180.31
329.058	195.31
329.287	202.31
329.515	196.31
329.744	205.31
329.972	200.31
330.201	212.31
330.43	219.31
330.658	205.31
330.887	219.31
331.115	202.31
331.344	195.31
331.572	219.31
331.801	214.31
332.03	222.31
332.258	225.31
332.486	223.31
332.715	222.31
332.943	227.31
333.172	236.31
333.4	243.31
333.629	252.31
333.857	260.31
334.085	250.31
334.314	246.31
334.542	247.31
334.771	261.31
334.999	243.31
335.227	238.31
335.455	237.31
335.684	230.31
335.912	234.31
336.14	236.31
336.369	233.31
336.597	227.31
336.825	222.31
337.053	203.31
337.281	233.31
337.51	208.31
337.738	223.31
337.966	207.31
338.194	197.31
338.422	219.31
338.65	225.31
338.878	220.31
339.106	196.31
339.334	207.31
339.562	212.31
339.79	199.31
340.018	205.31
340.246	193.31
340.474	192.31
340.702	206.31
340.93	199.31
341.158	208.31
341.386	194.31
341.614	198.31
341.842	198.31
342.07	196.31
342.298	201.31
342.526	193.31
342.754	199.31
342.981	210.31
343.209	205.31
343.437	241.31
343.665	234.31
343.893	238.31
344.12	238.31
344.348	212.31
344.576	211.31
344.804	202.31
345.031	204.31
345.259	213.31
345.487	192.31
345.714	208.31
345.942	189.31
346.17	199.31
346.397	180.31
346.625	195.31
346.853	201.31
347.08	186.31
347.308	193.31
347.535	190.31
347.763	191.31
347.99	212.31
348.218	205.31
348.445	208.31
348.673	191.31
348.9	196.31
349.128	209.31
349.355	196.31
349.583	185.31
349.81	189.31
350.037	187.31
350.265	204.31
350.492	199.31
350.72	198.31
350.947	207.31
351.174	211.31
351.402	192.31
351.629	209.31
351.856	185.31
352.083	184.31
352.311	192.31
352.538	190.31
352.765	211.31
352.992	186.31
353.22	203.31
353.447	192.31
353.674	192.31
353.901	208.31
354.128	197.31
354.355	197.31
354.583	180.31
354.81	207.31
355.037	201.31
355.264	209.31
355.491	207.31
355.718	197.31
355.945	194.31
356.172	203.31
356.399	221.31
356.626	196.31
356.853	188.31
357.08	199.31
357.307	196.31
357.534	182.31
357.761	193.31
357.988	213.31
358.215	195.31
358.441	182.31
358.668	195.31
358.895	191.31
359.122	185.31
359.349	190.31
359.576	180.31
359.802	189.31
360.029	188.31
360.256	204.31
360.483	196.31
360.709	199.31
360.936	213.31
361.163	219.31
361.39	188.31
361.616	200.31
361.843	203.31
362.07	208.31
362.296	209.31
362.523	208.31
362.749	196.31
362.976	193.31
363.203	215.31
363.429	187.31
363.656	182.31
363.882	191.31
364.109	193.31
364.335	202.31
364.562	197.31
364.788	182.31
365.015	206.31
365.241	193.31
365.468	201.31
365.694	195.31
365.92	206.31
366.147	197.31
366.373	193.31
366.599	190.31
366.826	190.31
367.052	198.31
367.278	192.31
367.505	202.31
367.731	215.31
367.957	212.31
368.184	204.31
368.41	215.31
368.636	194.31
368.862	182.31
369.089	197.31
369.315	190.31
369.541	211.31
369.767	187.31
369.993	211.31
370.219	201.31
370.445	195.31
370.672	195.31
370.898	192.31
371.124	190.31
371.35	205.31
371.576	203.31
371.802	195.31
372.028	205.31
372.254	230.31
372.48	222.31
372.706	207.31
372.932	212.31
373.158	204.31
373.384	215.31
373.61	222.31
373.835	213.31
374.061	197.31
374.287	205.31
374.513	213.31
374.739	207.31
374.965	226.31
375.191	223.31
375.416	216.31
375.642	207.31
375.868	226.31
376.094	229.31
376.319	211.31
376.545	226.31
376.771	223.31
376.997	190.31
377.222	205.31
377.448	214.31
377.674	211.31
377.899	213.31
378.125	196.31
378.35	209.31
378.576	187.31
378.802	196.31
379.027	217.31
379.253	202.31
379.478	190.31
379.704	219.31
379.929	230.31
380.155	196.31
380.38	205.31
380.606	222.31
380.831	203.31
381.057	223.31
381.282	207.31
381.507	214.31
381.733	223.31
381.958	206.31
382.184	217.31
382.409	217.31
382.634	219.31
382.86	218.31
383.085	218.31
383.31	221.31
383.535	235.31
383.761	230.31
383.986	242.31
384.211	225.31
384.436	239.31
384.662	225.31
384.887	238.31
385.112	229.31
385.337	219.31
385.562	246.31
385.787	228.31
386.013	247.31
386.238	244.31
386.463	228.31
386.688	258.31
386.913	219.31
387.138	244.31
387.363	249.31
387.588	251.31
387.813	237.31
388.038	247.31
388.263	251.31
388.488	243.31
388.713	246.31
388.938	245.31
389.163	248.31
389.387	209.31
389.612	237.31
389.837	236.31
390.062	247.31
390.287	235.31
390.512	241.31
390.736	234.31
390.961	245.31
391.186	238.31
391.411	243.31
391.636	252.31
391.86	248.31
392.085	250.31
392.31	270.31
392.534	246.31
392.759	267.31
392.984	274.31
393.208	303.31
393.433	321.31
393.658	301.31
393.882	283.31
394.107	254.31
394.331	275.31
394.556	250.31
394.78	266.31
395.005	262.31
395.229	272.31
395.454	259.31
395.678	276.31
395.903	261.31
396.127	270.31
396.352	257.31
396.576	281.31
396.801	301.31
397.025	301.31
397.249	292.31
397.474	276.31
397.698	266.31
397.922	269.31
398.147	275.31
398.371	259.31
398.595	289.31
398.82	282.31
399.044	305.31
399.268	345.31
399.492	407.31
399.717	386.31
399.941	365.31
400.165	337.31
400.389	338.31
400.613	284.31
400.837	277.31
401.062	282.31
401.286	281.31
401.51	287.31
401.734	283.31
401.958	277.31
402.182	305.31
402.406	293.31
402.63	293.31
402.854	314.31
403.078	298.31
403.302	321.31
403.526	321.31
403.75	337.31
403.974	326.31
404.198	325.31
404.422	341.31
404.645	332.31
404.869	337.31
405.093	335.31
405.317	303.31
405.541	308.31
405.765	311.31
405.988	292.31
406.212	306.31
406.436	314.31
406.66	339.31
406.883	298.31
407.107	336.31
407.331	349.31
407.555	342.31
407.778	348.31
408.002	338.31
408.226	325.31
408.449	343.31
408.673	307.31
408.896	309.31
409.12	320.31
409.344	331.31
409.567	316.31
409.791	305.31
410.014	303.31
410.238	317.31
410.461	322.31
410.685	305.31
410.908	309.31
411.132	317.31
411.355	278.31
411.578	297.31
411.802	305.31
412.025	289.31
412.249	287.31
412.472	295.31
412.695	281.31
412.919	286.31
413.142	301.31
413.365	283.31
413.589	284.31
413.812	291.31
414.035	282.31
414.258	298.31
414.482	299.31
414.705	293.31
414.928	305.31
415.151	301.31
415.374	290.31
415.597	283.31
415.821	309.31
416.044	300.31
416.267	294.31
416.49	292.31
416.713	309.31
416.936	275.31
417.159	285.31
417.382	271.31
417.605	287.31
417.828	290.31
418.051	285.31
418.274	299.31
418.497	295.31
418.72	291.31
418.943	294.31
419.166	313.31
419.389	318.31
419.611	315.31
419.834	302.31
420.057	326.31
420.28	281.31
420.503	288.31
420.726	267.31
420.948	283.31
421.171	281.31
421.394	285.31
421.617	289.31
421.839	292.31
422.062	291.31
422.285	302.31
422.507	296.31
422.73	309.31
422.953	323.31
423.175	278.31
423.398	286.31
423.621	301.31
423.843	297.31
424.066	315.31
424.288	288.31
424.511	296.31
424.733	287.31
424.956	304.31
425.178	284.31
425.401	291.31
425.623	287.31
425.846	270.31
426.068	290.31
426.291	268.31
426.513	281.31
426.735	295.31
426.958	277.31
427.18	281.31
427.402	288.31
427.625	261.31
427.847	262.31
428.069	269.31
428.292	283.31
428.514	268.31
428.736	253.31
428.958	256.31
429.181	279.31
429.403	262.31
429.625	267.31
429.847	260.31
430.069	263.31
430.292	267.31
430.514	274.31
430.736	258.31
430.958	265.31
431.18	273.31
431.402	262.31
431.624	247.31
431.846	260.31
432.068	252.31
432.29	256.31
432.512	275.31
432.734	267.31
432.956	263.31
433.178	279.31
433.4	267.31
433.622	274.31
433.844	281.31
434.066	258.31
434.287	260.31
434.509	268.31
434.731	273.31
434.953	273.31
435.175	277.31
435.397	284.31
435.618	274.31
435.84	274.31
436.062	259.31
436.284	281.31
436.505	278.31
436.727	251.31
436.949	265.31
437.17	270.31
437.392	248.31
437.614	248.31
437.835	253.31
438.057	245.31
438.278	263.31
438.5	241.31
438.721	254.31
438.943	264.31
439.165	257.31
439.386	264.31
439.608	273.31
439.829	273.31
440.05	274.31
440.272	274.31
440.493	275.31
440.715	276.31
440.936	287.31
441.158	274.31
441.379	291.31
441.6	293.31
441.822	303.31
442.043	290.31
442.264	269.31
442.486	275.31
442.707	298.31
442.928	295.31
443.149	291.31
443.371	294.31
443.592	296.31
443.813	290.31
444.034	295.31
444.255	300.31
444.476	311.31
444.698	325.31
444.919	320.31
445.14	493.31
445.361	409.31
445.582	296.31
445.803	281.31
446.024	288.31
446.245	296.31
446.466	271.31
446.687	274.31
446.908	265.31
447.129	265.31
447.35	292.31
447.571	265.31
447.792	262.31
448.013	251.31
448.234	256.31
448.455	252.31
448.675	250.31
448.896	253.31
449.117	256.31
449.338	266.31
449.559	236.31
449.779	245.31
450	242.31
450.221	244.31
450.442	235.31
450.662	257.31
450.883	246.31
451.104	251.31
451.324	241.31
451.545	235.31
451.766	248.31
451.986	253.31
452.207	257.31
452.428	245.31
452.648	258.31
452.869	247.31
453.089	231.31
453.31	249.31
453.53	234.31
453.751	252.31
453.971	224.31
454.192	247.31
454.412	226.31
454.633	243.31
454.853	242.31
455.073	231.31
455.294	241.31
455.514	235.31
455.734	236.31
455.955	231.31
456.175	227.31
456.395	221.31
456.616	218.31
456.836	221.31
457.056	236.31
457.276	228.31
457.497	235.31
457.717	228.31
457.937	225.31
458.157	212.31
458.377	239.31
458.598	246.31
458.818	245.31
459.038	238.31
459.258	240.31
459.478	249.31
459.698	242.31
459.918	268.31
460.138	281.31
460.358	298.31
460.578	295.31
460.798	278.31
461.018	283.31
461.238	288.31
461.458	293.31
461.678	285.31
461.898	292.31
462.118	295.31
462.338	300.31
462.558	324.31
462.777	320.31
462.997	362.31
463.217	373.31
463.437	361.31
463.657	330.31
463.876	308.31
464.096	305.31
464.316	319.31
464.536	330.31
464.755	313.31
464.975	294.31
465.195	287.31
465.414	277.31
465.634	278.31
465.854	271.31
466.073	270.31
466.293	253.31
466.512	265.31
466.732	250.31
466.951	269.31
467.171	239.31
467.391	258.31
467.61	256.31
467.829	251.31
468.049	274.31
468.268	259.31
468.488	250.31
468.707	256.31
468.927	245.31
469.146	247.31
469.365	230.31
469.585	262.31
469.804	244.31
470.023	269.31
470.243	249.31
470.462	260.31
470.681	271.31
470.901	244.31
471.12	259.31
471.339	272.31
471.558	241.31
471.777	250.31
471.997	249.31
472.216	255.31
472.435	273.31
472.654	254.31
472.873	240.31
473.092	246.31
473.311	252.31
473.53	226.31
473.749	246.31
473.968	240.31
474.187	242.31
474.406	224.31
474.625	255.31
474.844	250.31
475.063	245.31
475.282	266.31
475.501	249.31
475.72	258.31
475.939	249.31
476.158	242.31
476.377	246.31
476.596	256.31
476.814	254.31
477.033	240.31
477.252	256.31
477.471	256.31
477.69	255.31
477.908	260.31
478.127	280.31
478.346	285.31
478.564	287.31
478.783	277.31
479.002	295.31
479.22	292.31
479.439	281.31
479.658	283.31
479.876	275.31
480.095	277.31
480.313	292.31
480.532	295.31
480.751	288.31
480.969	284.31
481.188	303.31
481.406	293.31
481.624	279.31
481.843	274.31
482.061	277.31
482.28	266.31
482.498	284.31
482.717	244.31
482.935	250.31
483.153	275.31
483.372	273.31
483.59	273.31
483.808	275.31
484.027	272.31
484.245	272.31
484.463	278.31
484.681	290.31
484.9	270.31
485.118	278.31
485.336	258.31
485.554	279.31
485.772	283.31
485.99	276.31
486.209	260.31
486.427	269.31
486.645	277.31
486.863	278.31
487.081	280.31
487.299	276.31
487.517	281.31
487.735	277.31
487.953	288.31
488.171	292.31
488.389	289.31
488.607	286.31
488.825	256.31
489.043	262.31
489.261	276.31
489.479	261.31
489.696	277.31
489.914	289.31
490.132	265.31
490.35	294.31
490.568	270.31
490.786	277.31
491.003	299.31
491.221	325.31
491.439	296.31
491.657	284.31
491.874	315.31
492.092	294.31
492.31	297.31
492.527	297.31
492.745	296.31
492.963	294.31
493.18	309.31
493.398	294.31
493.615	303.31
493.833	301.31
494.05	291.31
494.268	291.31
494.485	298.31
494.703	296.31
494.92	288.31
495.138	285.31
495.355	312.31
495.573	290.31
495.79	293.31
496.008	322.31
496.225	315.31
496.442	326.31
496.66	327.31
496.877	324.31
497.094	337.31
497.312	325.31
497.529	317.31
497.746	331.31
497.963	338.31
498.181	315.31
498.398	365.31
498.615	339.31
498.832	367.31
499.049	429.31
499.267	457.31
499.484	461.31
499.701	523.31
499.918	564.31
500.135	634.31
500.352	693.31
500.569	669.31
500.786	682.31
501.003	622.31
501.22	575.31
501.437	504.31
501.654	457.31
501.871	416.31
502.088	399.31
502.305	391.31
502.522	374.31
502.739	396.31
502.956	345.31
503.172	333.31
503.389	318.31
503.606	306.31
503.823	321.31
504.04	325.31
504.256	319.31
504.473	319.31
504.69	340.31
504.907	346.31
505.123	302.31
505.34	305.31
505.557	287.31
505.773	290.31
505.99	299.31
506.207	269.31
506.423	275.31
506.64	256.31
506.856	275.31
507.073	260.31
507.289	250.31
507.506	257.31
507.722	260.31
507.939	238.31
508.155	255.31
508.372	261.31
508.588	242.31
508.805	251.31
509.021	245.31
509.238	250.31
509.454	249.31
509.67	253.31
509.887	239.31
510.103	250.31
510.319	267.31
510.536	238.31
510.752	256.31
510.968	247.31
511.184	257.31
511.401	238.31
511.617	246.31
511.833	243.31
512.049	241.31
512.265	249.31
512.481	230.31
512.698	250.31
512.914	236.31
513.13	254.31
513.346	255.31
513.562	238.31
513.778	235.31
513.994	246.31
514.21	245.31
514.426	245.31
514.642	250.31
514.858	257.31
515.074	243.31
515.29	248.31
515.506	239.31
515.721	241.31
515.937	253.31
516.153	255.31
516.369	262.31
516.585	258.31
516.801	291.31
517.016	295.31
517.232	296.31
517.448	299.31
517.664	313.31
517.879	323.31
518.095	325.31
518.311	310.31
518.527	289.31
518.742	281.31
518.958	279.31
519.173	265.31
519.389	291.31
519.605	265.31
519.82	267.31
520.036	250.31
520.251	263.31
520.467	264.31
520.682	265.31
520.898	244.31
521.113	254.31
521.329	254.31
521.544	225.31
521.76	230.31
521.975	230.31
522.19	226.31
522.406	229.31
522.621	240.31
522.836	214.31
523.052	233.31
523.267	238.31
523.482	239.31
523.698	246.31
523.913	227.31
524.128	225.31
524.343	228.31
524.559	240.31
524.774	215.31
524.989	224.31
525.204	236.31
525.419	237.31
525.634	231.31
525.849	227.31
526.064	213.31
526.28	236.31
526.495	222.31
526.71	209.31
526.925	208.31
527.14	221.31
527.355	228.31
527.57	224.31
527.785	231.31
527.999	236.31
528.214	237.31
528.429	225.31
528.644	237.31
528.859	224.31
529.074	234.31
529.289	235.31
529.503	229.31
529.718	222.31
529.933	238.31
530.148	224.31
530.363	241.31
530.577	227.31
530.792	198.31
531.007	215.31
531.221	236.31
531.436	223.31
531.651	210.31
531.865	222.31
532.08	226.31
532.295	223.31
532.509	227.31
532.724	210.31
532.938	222.31
533.153	213.31
533.367	224.31
533.582	229.31
533.796	213.31
534.011	251.31
534.225	220.31
534.44	230.31
534.654	223.31
534.868	235.31
535.083	216.31
535.297	223.31
535.511	218.31
535.726	208.31
535.94	217.31
536.154	217.31
536.369	231.31
536.583	219.31
536.797	223.31
537.011	199.31
537.225	226.31
537.44	227.31
537.654	215.31
537.868	206.31
538.082	219.31
538.296	215.31
538.51	211.31
538.724	218.31
538.938	204.31
539.153	218.31
539.367	207.31
539.581	207.31
539.795	210.31
540.009	202.31
540.222	213.31
540.436	245.31
540.65	212.31
540.864	219.31
541.078	223.31
541.292	226.31
541.506	240.31
541.72	227.31
541.934	237.31
542.147	239.31
542.361	237.31
542.575	227.31
542.789	233.31
543.002	223.31
543.216	216.31
543.43	202.31
543.644	201.31
543.857	222.31
544.071	222.31
544.285	228.31
544.498	227.31
544.712	250.31
544.925	237.31
545.139	211.31
545.352	231.31
545.566	222.31
545.779	238.31
545.993	211.31
546.206	229.31
546.42	247.31
546.633	253.31
546.847	249.31
547.06	226.31
547.274	225.31
547.487	237.31
547.7	223.31
547.914	228.31
548.127	253.31
548.34	249.31
548.554	242.31
548.767	243.31
548.98	237.31
549.193	235.31
549.407	246.31
549.62	230.31
549.833	235.31
550.046	242.31
550.259	221.31
550.473	205.31
550.686	223.31
550.899	225.31
551.112	231.31
551.325	217.31
551.538	214.31
551.751	210.31
551.964	204.31
552.177	233.31
552.39	227.31
552.603	233.31
552.816	241.31
553.029	253.31
553.242	241.31
553.455	250.31
553.667	252.31
553.88	251.31
554.093	239.31
554.306	243.31
554.519	238.31
554.732	236.31
554.944	218.31
555.157	218.31
555.37	227.31
555.583	212.31
555.795	217.31
556.008	198.31
556.221	209.31
556.433	205.31
556.646	225.31
556.859	220.31
557.071	199.31
557.284	197.31
557.496	203.31
557.709	216.31
557.921	211.31
558.134	190.31
558.346	222.31
558.559	203.31
558.771	209.31
558.984	199.31
559.196	210.31
559.409	198.31
559.621	204.31
559.833	198.31
560.046	198.31
560.258	188.31
560.47	207.31
560.683	205.31
560.895	200.31
561.107	205.31
561.32	187.31
561.532	212.31
561.744	218.31
561.956	205.31
562.168	182.31
562.381	206.31
562.593	208.31
562.805	224.31
563.017	201.31
563.229	218.31
563.441	186.31
563.653	217.31
563.865	212.31
564.077	187.31
564.289	209.31
564.501	201.31
564.713	210.31
564.925	219.31
565.137	210.31
565.349	212.31
565.561	222.31
565.773	231.31
565.985	235.31
566.197	244.31
566.408	247.31
566.62	258.31
566.832	274.31
567.044	284.31
567.255	275.31
567.467	270.31
567.679	309.31
567.891	307.31
568.102	333.31
568.314	275.31
568.526	282.31
568.737	262.31
568.949	250.31
569.161	227.31
569.372	218.31
569.584	225.31
569.795	192.31
570.007	222.31
570.218	211.31
570.43	201.31
570.641	189.31
570.853	190.31
571.064	193.31
571.276	205.31
571.487	203.31
571.698	191.31
571.91	187.31
572.121	194.31
572.333	175.31
572.544	189.31
572.755	168.31
572.966	187.31
573.178	188.31
573.389	171.31
573.6	179.31
573.811	168.31
574.023	171.31
574.234	164.31
574.445	190.31
574.656	179.31
574.867	176.31
575.078	175.31
575.289	175.31
575.501	174.31
575.712	170.31
575.923	139.31
576.134	169.31
576.345	157.31
576.556	171.31
576.767	177.31
576.978	165.31
577.188	163.31
577.399	177.31
577.61	178.31
577.821	154.31
578.032	178.31
578.243	175.31
578.454	171.31
578.665	164.31
578.875	160.31
579.086	162.31
579.297	152.31
579.508	155.31
579.718	164.31
579.929	169.31
580.14	157.31
580.35	159.31
580.561	171.31
580.772	148.31
580.982	157.31
581.193	142.31
581.403	159.31
581.614	162.31
581.825	161.31
582.035	176.31
582.246	170.31
582.456	171.31
582.667	157.31
582.877	154.31
583.087	145.31
583.298	159.31
583.508	157.31
583.719	161.31
583.929	166.31
584.139	161.31
584.35	157.31
584.56	167.31
584.77	158.31
584.981	151.31
585.191	169.31
585.401	174.31
585.611	160.31
585.821	162.31
586.032	158.31
586.242	151.31
586.452	146.31
586.662	156.31
586.872	159.31
587.082	140.31
587.292	157.31
587.502	150.31
587.713	131.31
587.923	141.31
588.133	153.31
588.343	124.31
588.553	155.31
588.762	167.31
588.972	170.31
589.182	170.31
589.392	159.31
589.602	158.31
589.812	146.31
590.022	159.31
590.232	164.31
590.441	158.31
590.651	158.31
590.861	167.31
591.071	154.31
591.281	169.31
591.49	161.31
591.7	162.31
591.91	151.31
592.119	173.31
592.329	167.31
592.539	181.31
592.748	164.31
592.958	164.31
593.167	171.31
593.377	183.31
593.587	199.31
593.796	187.31
594.006	187.31
594.215	183.31
594.424	183.31
594.634	183.31
594.843	157.31
595.053	181.31
595.262	175.31
595.472	168.31
595.681	162.31
595.89	149.31
596.1	179.31
596.309	150.31
596.518	159.31
596.727	173.31
596.937	160.31
597.146	148.31
597.355	139.31
597.564	146.31
597.774	155.31
597.983	148.31
598.192	149.31
598.401	125.31
598.61	133.31
598.819	139.31
599.028	150.31
599.237	130.31
599.446	141.31
599.655	140.31
599.864	157.31
600.073	140.31
600.282	149.31
600.491	123.31
600.7	153.31
600.909	143.31
601.118	137.31
601.327	131.31
601.536	139.31
601.745	146.31
601.953	160.31
602.162	140.31
602.371	140.31
602.58	130.31
602.789	157.31
602.997	135.31
603.206	142.31
603.415	137.31
603.623	140.31
603.832	129.31
604.041	132.31
604.249	137.31
604.458	138.31
604.666	127.31
604.875	144.31
605.084	141.31
605.292	149.31
605.501	137.31
605.709	142.31
605.918	157.31
606.126	142.31
606.334	143.31
606.543	157.31
606.751	139.31
606.96	128.31
607.168	134.31
607.376	142.31
607.585	150.31
607.793	135.31
608.001	125.31
608.21	136.31
608.418	133.31
608.626	147.31
608.834	134.31
609.043	139.31
609.251	153.31
609.459	143.31
609.667	151.31
609.875	137.31
610.083	143.31
610.291	133.31
610.499	135.31
610.707	144.31
610.916	136.31
611.124	137.31
611.332	123.31
611.54	145.31
611.748	140.31
611.955	133.31
612.163	138.31
612.371	141.31
612.579	138.31
612.787	140.31
612.995	143.31
613.203	146.31
613.411	144.31
613.618	137.31
613.826	132.31
614.034	147.31
614.242	122.31
614.449	130.31
614.657	138.31
614.865	148.31
615.072	141.31
615.28	134.31
615.488	128.31
615.695	134.31
615.903	149.31
616.111	132.31
616.318	151.31
616.526	142.31
616.733	149.31
616.941	131.31
617.148	134.31
617.356	149.31
617.563	138.31
617.771	148.31
617.978	142.31
618.185	129.31
618.393	141.31
618.6	148.31
618.807	147.31
619.015	146.31
619.222	142.31
619.429	129.31
619.637	129.31
619.844	143.31
620.051	134.31
620.258	162.31
620.466	127.31
620.673	120.31
620.88	137.31
621.087	142.31
621.294	123.31
621.501	134.31
621.708	125.31
621.915	134.31
622.122	143.31
622.329	140.31
622.536	120.31
622.743	121.31
622.95	132.31
623.157	124.31
623.364	139.31
623.571	132.31
623.778	139.31
623.985	147.31
624.192	137.31
624.399	126.31
624.606	133.31
624.812	139.31
625.019	125.31
625.226	125.31
625.433	124.31
625.639	132.31
625.846	123.31
626.053	124.31
626.259	131.31
626.466	122.31
626.673	134.31
626.879	133.31
627.086	120.31
627.293	131.31
627.499	122.31
627.706	121.31
627.912	123.31
628.119	119.31
628.325	132.31
628.532	115.31
628.738	123.31
628.945	128.31
629.151	119.31
629.357	130.31
629.564	126.31
629.77	127.31
629.976	124.31
630.183	106.31
630.389	123.31
630.595	99.31
630.802	137.31
631.008	127.31
631.214	122.31
631.42	115.31
631.627	141.31
631.833	114.31
632.039	117.31
632.245	122.31
632.451	116.31
632.657	126.31
632.863	126.31
633.069	127.31
633.275	124.31
633.481	124.31
633.688	121.31
633.893	133.31
634.099	121.31
634.305	118.31
634.511	132.31
634.717	123.31
634.923	105.31
635.129	114.31
635.335	115.31
635.541	116.31
635.747	115.31
635.952	106.31
636.158	126.31
636.364	119.31
636.57	120.31
636.775	121.31
636.981	116.31
637.187	125.31
637.392	110.31
637.598	119.31
637.804	114.31
638.009	121.31
638.215	109.31
638.421	116.31
638.626	118.31
638.832	112.31
639.037	110.31
639.243	124.31
639.448	117.31
639.654	126.31
639.859	116.31
640.065	95.31
640.27	137.31
640.475	109.31
640.681	106.31
640.886	122.31
641.091	107.31
641.297	139.31
641.502	117.31
641.707	131.31
641.913	114.31
642.118	100.31
642.323	108.31
642.528	127.31
642.733	122.31
642.939	126.31
643.144	116.31
643.349	117.31
643.554	131.31
643.759	115.31
643.964	109.31
644.169	131.31
644.374	115.31
644.579	118.31
644.784	103.31
644.989	117.31
645.194	107.31
645.399	123.31
645.604	120.31
645.809	129.31
646.014	110.31
646.219	113.31
646.423	124.31
646.628	117.31
646.833	106.31
647.038	103.31
647.243	117.31
647.447	120.31
647.652	102.31
647.857	117.31
648.062	117.31
648.266	109.31
648.471	110.31
648.676	124.31
648.88	114.31
649.085	111.31
649.289	89.31
649.494	101.31
649.698	126.31
649.903	99.31
650.107	96.31
650.312	126.31
650.516	125.31
650.721	116.31
650.925	106.31
651.13	114.31
651.334	106.31
651.539	109.31
651.743	102.31
651.947	103.31
652.152	115.31
652.356	100.31
652.56	122.31
652.764	89.31
652.969	116.31
653.173	95.31
653.377	101.31
653.581	91.31
653.785	102.31
653.99	115.31
654.194	110.31
654.398	101.31
654.602	107.31
654.806	98.31
655.01	107.31
655.214	103.31
655.418	100.31
655.622	98.31
655.826	100.31
656.03	103.31
656.234	103.31
656.438	124.31
656.642	117.31
656.846	110.31
657.049	108.31
657.253	110.31
657.457	113.31
657.661	106.31
657.865	112.31
658.068	103.31
658.272	98.31
658.476	107.31
658.68	87.31
658.883	84.31
659.087	101.31
659.291	87.31
659.494	101.31
659.698	92.31
659.901	92.31
660.105	82.31
660.309	108.31
660.512	94.31
660.716	98.31
660.919	84.31
661.123	100.31
661.326	99.31
661.53	88.31
661.733	86.31
661.936	84.31
662.14	83.31
662.343	77.31
662.546	89.31
662.75	90.31
662.953	100.31
663.156	95.31
663.36	98.31
663.563	90.31
663.766	85.31
663.969	93.31
664.173	93.31
664.376	91.31
664.579	69.31
664.782	86.31
664.985	93.31
665.188	84.31
665.391	94.31
665.594	90.31
665.797	92.31
666	81.31
666.203	81.31
666.406	89.31
666.609	86.31
666.812	91.31
667.015	79.31
667.218	88.31
667.421	90.31
667.624	75.31
667.827	93.31
668.03	67.31
668.232	82.31
668.435	79.31
668.638	76.31
668.841	98.31
669.043	85.31
669.246	86.31
669.449	92.31
669.651	81.31
669.854	75.31
670.057	79.31
670.259	84.31
670.462	86.31
670.665	71.31
670.867	95.31
671.07	82.31
671.272	100.31
671.475	103.31
671.677	89.31
671.88	82.31
672.082	78.31
672.284	84.31
672.487	81.31
672.689	85.31
672.892	89.31
