Data from Circ_1993_H10_HRD10591_00006.txt Node
Date: Wed Jan 03 11:44:03 EST 2024
User: Yrep
Spectrometer: HR+D1059
Trigger mode: 1
Integration Time (sec): 1.000000E-1
Scans to average: 1
Electric dark correction enabled: true
Nonlinearity correction enabled: false
Boxcar width: 0
XAxis mode: Wavelengths
Number of Pixels in Spectrum: 2048
>>>>>Begin Spectral Data<<<<<
223.165	-15.69
223.4	-15.69
223.635	-15.69
223.869	-28.69
224.104	-26.69
224.338	-25.69
224.573	-10.69
224.808	-0.69
225.042	-7.69
225.277	5.31
225.511	-15.69
225.746	3.31
225.98	13.31
226.215	9.31
226.449	23.31
226.683	23.31
226.918	20.31
227.152	33.31
227.387	33.31
227.621	47.31
227.856	45.31
228.09	43.31
228.324	47.31
228.559	47.31
228.793	61.31
229.027	73.31
229.262	59.31
229.496	74.31
229.73	75.31
229.964	65.31
230.199	80.31
230.433	77.31
230.667	92.31
230.901	77.31
231.136	79.31
231.37	82.31
231.604	81.31
231.838	92.31
232.072	91.31
232.306	97.31
232.541	76.31
232.775	93.31
233.009	85.31
233.243	68.31
233.477	72.31
233.711	81.31
233.945	97.31
234.179	81.31
234.413	76.31
234.647	86.31
234.881	84.31
235.115	79.31
235.349	78.31
235.583	66.31
235.817	74.31
236.051	59.31
236.285	72.31
236.519	71.31
236.753	68.31
236.987	86.31
237.221	77.31
237.455	77.31
237.689	68.31
237.922	71.31
238.156	55.31
238.39	88.31
238.624	78.31
238.858	76.31
239.091	68.31
239.325	63.31
239.559	77.31
239.793	71.31
240.027	81.31
240.26	71.31
240.494	65.31
240.728	71.31
240.961	77.31
241.195	64.31
241.429	73.31
241.662	74.31
241.896	74.31
242.13	69.31
242.363	64.31
242.597	67.31
242.83	67.31
243.064	80.31
243.298	77.31
243.531	68.31
243.765	71.31
243.998	74.31
244.232	63.31
244.465	93.31
244.699	75.31
244.932	77.31
245.166	80.31
245.399	77.31
245.633	73.31
245.866	71.31
246.099	78.31
246.333	77.31
246.566	82.31
246.8	77.31
247.033	82.31
247.266	68.31
247.5	71.31
247.733	92.31
247.966	79.31
248.2	84.31
248.433	77.31
248.666	74.31
248.899	74.31
249.133	79.31
249.366	79.31
249.599	84.31
249.832	73.31
250.066	81.31
250.299	81.31
250.532	76.31
250.765	56.31
250.998	84.31
251.231	77.31
251.465	68.31
251.698	63.31
251.931	85.31
252.164	73.31
252.397	75.31
252.63	82.31
252.863	83.31
253.096	88.31
253.329	77.31
253.562	76.31
253.795	82.31
254.028	64.31
254.261	76.31
254.494	79.31
254.727	76.31
254.96	80.31
255.193	76.31
255.426	77.31
255.659	80.31
255.892	79.31
256.124	80.31
256.357	75.31
256.59	75.31
256.823	76.31
257.056	91.31
257.289	96.31
257.521	77.31
257.754	71.31
257.987	88.31
258.22	81.31
258.452	84.31
258.685	84.31
258.918	78.31
259.151	76.31
259.383	71.31
259.616	73.31
259.849	66.31
260.081	86.31
260.314	102.31
260.547	80.31
260.779	80.31
261.012	85.31
261.244	82.31
261.477	78.31
261.71	84.31
261.942	89.31
262.175	98.31
262.407	86.31
262.64	59.31
262.872	77.31
263.105	75.31
263.337	77.31
263.57	79.31
263.802	98.31
264.035	77.31
264.267	76.31
264.499	79.31
264.732	84.31
264.964	64.31
265.197	78.31
265.429	79.31
265.661	82.31
265.894	80.31
266.126	77.31
266.358	84.31
266.591	74.31
266.823	81.31
267.055	82.31
267.287	79.31
267.52	83.31
267.752	82.31
267.984	74.31
268.216	87.31
268.448	85.31
268.681	91.31
268.913	88.31
269.145	79.31
269.377	89.31
269.609	83.31
269.841	79.31
270.073	81.31
270.306	79.31
270.538	80.31
270.77	89.31
271.002	84.31
271.234	88.31
271.466	79.31
271.698	87.31
271.93	87.31
272.162	98.31
272.394	90.31
272.626	61.31
272.858	96.31
273.09	94.31
273.322	83.31
273.553	77.31
273.785	84.31
274.017	80.31
274.249	69.31
274.481	75.31
274.713	92.31
274.945	79.31
275.176	78.31
275.408	84.31
275.64	78.31
275.872	76.31
276.104	77.31
276.335	88.31
276.567	90.31
276.799	104.31
277.031	92.31
277.262	77.31
277.494	80.31
277.726	87.31
277.957	69.31
278.189	83.31
278.421	78.31
278.652	87.31
278.884	80.31
279.115	85.31
279.347	83.31
279.579	84.31
279.81	89.31
280.042	81.31
280.273	67.31
280.505	79.31
280.736	85.31
280.968	83.31
281.199	90.31
281.431	91.31
281.662	90.31
281.894	82.31
282.125	83.31
282.356	91.31
282.588	112.31
282.819	104.31
283.051	89.31
283.282	81.31
283.513	100.31
283.745	82.31
283.976	87.31
284.207	90.31
284.439	86.31
284.67	90.31
284.901	85.31
285.132	80.31
285.364	92.31
285.595	74.31
285.826	88.31
286.057	104.31
286.288	74.31
286.52	83.31
286.751	83.31
286.982	88.31
287.213	89.31
287.444	97.31
287.675	82.31
287.906	85.31
288.138	84.31
288.369	85.31
288.6	88.31
288.831	94.31
289.062	87.31
289.293	79.31
289.524	68.31
289.755	80.31
289.986	66.31
290.217	73.31
290.448	80.31
290.679	88.31
290.91	96.31
291.141	81.31
291.371	81.31
291.602	85.31
291.833	88.31
292.064	92.31
292.295	87.31
292.526	92.31
292.757	87.31
292.987	75.31
293.218	87.31
293.449	95.31
293.68	84.31
293.91	83.31
294.141	82.31
294.372	85.31
294.603	86.31
294.833	80.31
295.064	87.31
295.295	107.31
295.525	81.31
295.756	97.31
295.987	117.31
296.217	115.31
296.448	104.31
296.679	92.31
296.909	92.31
297.14	87.31
297.37	87.31
297.601	93.31
297.831	79.31
298.062	94.31
298.292	79.31
298.523	78.31
298.753	82.31
298.984	72.31
299.214	83.31
299.445	88.31
299.675	91.31
299.905	95.31
300.136	73.31
300.366	93.31
300.597	93.31
300.827	97.31
301.057	99.31
301.288	87.31
301.518	91.31
301.748	87.31
301.979	96.31
302.209	87.31
302.439	86.31
302.669	83.31
302.9	68.31
303.13	91.31
303.36	82.31
303.59	85.31
303.82	89.31
304.051	89.31
304.281	86.31
304.511	85.31
304.741	97.31
304.971	90.31
305.201	89.31
305.431	71.31
305.661	88.31
305.891	80.31
306.121	106.31
306.352	100.31
306.582	99.31
306.812	94.31
307.042	87.31
307.272	74.31
307.502	97.31
307.731	91.31
307.961	85.31
308.191	85.31
308.421	80.31
308.651	108.31
308.881	96.31
309.111	88.31
309.341	107.31
309.571	99.31
309.8	80.31
310.03	99.31
310.26	90.31
310.49	88.31
310.72	89.31
310.949	106.31
311.179	87.31
311.409	83.31
311.639	98.31
311.868	95.31
312.098	93.31
312.328	95.31
312.557	100.31
312.787	87.31
313.017	84.31
313.246	102.31
313.476	96.31
313.706	98.31
313.935	91.31
314.165	88.31
314.394	89.31
314.624	88.31
314.853	89.31
315.083	85.31
315.312	91.31
315.542	81.31
315.771	85.31
316.001	89.31
316.23	88.31
316.46	86.31
316.689	80.31
316.919	71.31
317.148	83.31
317.377	82.31
317.607	82.31
317.836	89.31
318.065	95.31
318.295	82.31
318.524	73.31
318.753	90.31
318.983	85.31
319.212	95.31
319.441	91.31
319.67	86.31
319.9	101.31
320.129	84.31
320.358	74.31
320.587	82.31
320.816	88.31
321.046	93.31
321.275	85.31
321.504	94.31
321.733	93.31
321.962	87.31
322.191	87.31
322.42	84.31
322.649	77.31
322.878	119.31
323.108	105.31
323.337	92.31
323.566	98.31
323.795	123.31
324.024	151.31
324.253	285.31
324.482	540.31
324.71	1107.31
324.939	1395.31
325.168	543.31
325.397	175.31
325.626	122.31
325.855	102.31
326.084	104.31
326.313	113.31
326.542	104.31
326.77	180.31
326.999	322.31
327.228	632.31
327.457	1121.31
327.686	896.31
327.914	271.31
328.143	157.31
328.372	113.31
328.6	109.31
328.829	99.31
329.058	105.31
329.287	108.31
329.515	100.31
329.744	100.31
329.972	95.31
330.201	89.31
330.43	117.31
330.658	116.31
330.887	101.31
331.115	100.31
331.344	93.31
331.572	99.31
331.801	92.31
332.03	98.31
332.258	85.31
332.486	99.31
332.715	99.31
332.943	94.31
333.172	98.31
333.4	95.31
333.629	98.31
333.857	97.31
334.085	89.31
334.314	103.31
334.542	117.31
334.771	106.31
334.999	93.31
335.227	88.31
335.455	99.31
335.684	104.31
335.912	85.31
336.14	95.31
336.369	100.31
336.597	104.31
336.825	91.31
337.053	88.31
337.281	88.31
337.51	90.31
337.738	88.31
337.966	81.31
338.194	92.31
338.422	90.31
338.65	94.31
338.878	93.31
339.106	79.31
339.334	96.31
339.562	93.31
339.79	92.31
340.018	76.31
340.246	100.31
340.474	97.31
340.702	75.31
340.93	84.31
341.158	83.31
341.386	88.31
341.614	91.31
341.842	79.31
342.07	83.31
342.298	77.31
342.526	87.31
342.754	84.31
342.981	87.31
343.209	85.31
343.437	98.31
343.665	78.31
343.893	81.31
344.12	79.31
344.348	95.31
344.576	78.31
344.804	87.31
345.031	103.31
345.259	87.31
345.487	88.31
345.714	93.31
345.942	82.31
346.17	87.31
346.397	90.31
346.625	101.31
346.853	80.31
347.08	85.31
347.308	87.31
347.535	90.31
347.763	101.31
347.99	104.31
348.218	107.31
348.445	100.31
348.673	90.31
348.9	91.31
349.128	104.31
349.355	95.31
349.583	93.31
349.81	104.31
350.037	95.31
350.265	91.31
350.492	95.31
350.72	115.31
350.947	101.31
351.174	89.31
351.402	99.31
351.629	113.31
351.856	113.31
352.083	88.31
352.311	107.31
352.538	95.31
352.765	107.31
352.992	92.31
353.22	96.31
353.447	105.31
353.674	98.31
353.901	94.31
354.128	85.31
354.355	90.31
354.583	100.31
354.81	97.31
355.037	107.31
355.264	88.31
355.491	96.31
355.718	99.31
355.945	100.31
356.172	108.31
356.399	87.31
356.626	106.31
356.853	102.31
357.08	83.31
357.307	95.31
357.534	93.31
357.761	91.31
357.988	96.31
358.215	114.31
358.441	108.31
358.668	125.31
358.895	100.31
359.122	97.31
359.349	94.31
359.576	91.31
359.802	104.31
360.029	89.31
360.256	91.31
360.483	77.31
360.709	80.31
360.936	95.31
361.163	94.31
361.39	93.31
361.616	86.31
361.843	101.31
362.07	89.31
362.296	80.31
362.523	71.31
362.749	81.31
362.976	98.31
363.203	75.31
363.429	86.31
363.656	84.31
363.882	80.31
364.109	99.31
364.335	95.31
364.562	84.31
364.788	87.31
365.015	95.31
365.241	88.31
365.468	86.31
365.694	84.31
365.92	84.31
366.147	91.31
366.373	82.31
366.599	90.31
366.826	78.31
367.052	97.31
367.278	76.31
367.505	79.31
367.731	97.31
367.957	98.31
368.184	91.31
368.41	104.31
368.636	97.31
368.862	98.31
369.089	88.31
369.315	103.31
369.541	84.31
369.767	96.31
369.993	88.31
370.219	76.31
370.445	91.31
370.672	83.31
370.898	90.31
371.124	79.31
371.35	95.31
371.576	99.31
371.802	84.31
372.028	74.31
372.254	71.31
372.48	95.31
372.706	90.31
372.932	89.31
373.158	94.31
373.384	77.31
373.61	96.31
373.835	78.31
374.061	89.31
374.287	96.31
374.513	78.31
374.739	90.31
374.965	89.31
375.191	100.31
375.416	93.31
375.642	100.31
375.868	113.31
376.094	111.31
376.319	105.31
376.545	96.31
376.771	95.31
376.997	89.31
377.222	101.31
377.448	95.31
377.674	97.31
377.899	99.31
378.125	97.31
378.35	102.31
378.576	96.31
378.802	95.31
379.027	102.31
379.253	112.31
379.478	105.31
379.704	120.31
379.929	111.31
380.155	108.31
380.38	115.31
380.606	121.31
380.831	120.31
381.057	104.31
381.282	110.31
381.507	116.31
381.733	117.31
381.958	117.31
382.184	110.31
382.409	130.31
382.634	116.31
382.86	124.31
383.085	145.31
383.31	151.31
383.535	144.31
383.761	139.31
383.986	141.31
384.211	128.31
384.436	139.31
384.662	143.31
384.887	177.31
385.112	167.31
385.337	183.31
385.562	181.31
385.787	162.31
386.013	152.31
386.238	178.31
386.463	170.31
386.688	152.31
386.913	171.31
387.138	174.31
387.363	155.31
387.588	135.31
387.813	144.31
388.038	161.31
388.263	208.31
388.488	182.31
388.713	108.31
388.938	87.31
389.163	86.31
389.387	88.31
389.612	95.31
389.837	89.31
390.062	90.31
390.287	84.31
390.512	88.31
390.736	103.31
390.961	114.31
391.186	82.31
391.411	94.31
391.636	95.31
391.86	97.31
392.085	89.31
392.31	95.31
392.534	85.31
392.759	89.31
392.984	118.31
393.208	146.31
393.433	215.31
393.658	190.31
393.882	108.31
394.107	76.31
394.331	68.31
394.556	94.31
394.78	86.31
395.005	97.31
395.229	87.31
395.454	79.31
395.678	80.31
395.903	96.31
396.127	79.31
396.352	89.31
396.576	109.31
396.801	147.31
397.025	164.31
397.249	101.31
397.474	84.31
397.698	85.31
397.922	88.31
398.147	78.31
398.371	87.31
398.595	74.31
398.82	87.31
399.044	90.31
399.268	90.31
399.492	87.31
399.717	76.31
399.941	85.31
400.165	83.31
400.389	84.31
400.613	87.31
400.837	90.31
401.062	92.31
401.286	84.31
401.51	90.31
401.734	99.31
401.958	94.31
402.182	98.31
402.406	118.31
402.63	112.31
402.854	84.31
403.078	87.31
403.302	77.31
403.526	84.31
403.75	67.31
403.974	88.31
404.198	91.31
404.422	85.31
404.645	84.31
404.869	79.31
405.093	95.31
405.317	96.31
405.541	90.31
405.765	91.31
405.988	96.31
406.212	122.31
406.436	160.31
406.66	106.31
406.883	103.31
407.107	84.31
407.331	83.31
407.555	108.31
407.778	85.31
408.002	92.31
408.226	92.31
408.449	98.31
408.673	88.31
408.896	108.31
409.12	100.31
409.344	91.31
409.567	86.31
409.791	92.31
410.014	90.31
410.238	89.31
410.461	106.31
410.685	97.31
410.908	88.31
411.132	102.31
411.355	81.31
411.578	94.31
411.802	77.31
412.025	87.31
412.249	103.31
412.472	74.31
412.695	85.31
412.919	95.31
413.142	94.31
413.365	89.31
413.589	98.31
413.812	101.31
414.035	101.31
414.258	98.31
414.482	91.31
414.705	96.31
414.928	98.31
415.151	101.31
415.374	108.31
415.597	92.31
415.821	89.31
416.044	89.31
416.267	96.31
416.49	93.31
416.713	100.31
416.936	101.31
417.159	96.31
417.382	89.31
417.605	93.31
417.828	95.31
418.051	83.31
418.274	88.31
418.497	98.31
418.72	80.31
418.943	81.31
419.166	98.31
419.389	84.31
419.611	105.31
419.834	95.31
420.057	91.31
420.28	93.31
420.503	86.31
420.726	92.31
420.948	101.31
421.171	93.31
421.394	75.31
421.617	103.31
421.839	88.31
422.062	95.31
422.285	93.31
422.507	104.31
422.73	158.31
422.953	135.31
423.175	104.31
423.398	87.31
423.621	96.31
423.843	96.31
424.066	88.31
424.288	84.31
424.511	87.31
424.733	100.31
424.956	93.31
425.178	91.31
425.401	93.31
425.623	91.31
425.846	98.31
426.068	88.31
426.291	85.31
426.513	79.31
426.735	97.31
426.958	84.31
427.18	105.31
427.402	105.31
427.625	120.31
427.847	105.31
428.069	109.31
428.292	103.31
428.514	88.31
428.736	78.31
428.958	75.31
429.181	82.31
429.403	94.31
429.625	90.31
429.847	74.31
430.069	90.31
430.292	95.31
430.514	76.31
430.736	81.31
430.958	101.31
431.18	83.31
431.402	95.31
431.624	87.31
431.846	80.31
432.068	87.31
432.29	79.31
432.512	93.31
432.734	88.31
432.956	106.31
433.178	96.31
433.4	86.31
433.622	105.31
433.844	101.31
434.066	99.31
434.287	96.31
434.509	88.31
434.731	99.31
434.953	93.31
435.175	83.31
435.397	92.31
435.618	91.31
435.84	90.31
436.062	111.31
436.284	98.31
436.505	102.31
436.727	95.31
436.949	97.31
437.17	92.31
437.392	100.31
437.614	90.31
437.835	93.31
438.057	112.31
438.278	98.31
438.5	89.31
438.721	101.31
438.943	99.31
439.165	82.31
439.386	80.31
439.608	90.31
439.829	96.31
440.05	104.31
440.272	113.31
440.493	68.31
440.715	89.31
440.936	93.31
441.158	83.31
441.379	98.31
441.6	86.31
441.822	94.31
442.043	97.31
442.264	83.31
442.486	95.31
442.707	93.31
442.928	99.31
443.149	105.31
443.371	100.31
443.592	92.31
443.813	108.31
444.034	101.31
444.255	78.31
444.476	86.31
444.698	88.31
444.919	84.31
445.14	109.31
445.361	107.31
445.582	114.31
445.803	118.31
446.024	116.31
446.245	105.31
446.466	90.31
446.687	104.31
446.908	97.31
447.129	95.31
447.35	92.31
447.571	84.31
447.792	86.31
448.013	83.31
448.234	99.31
448.455	101.31
448.675	100.31
448.896	99.31
449.117	98.31
449.338	83.31
449.559	130.31
449.779	115.31
450	101.31
450.221	88.31
450.442	96.31
450.662	87.31
450.883	107.31
451.104	98.31
451.324	90.31
451.545	88.31
451.766	73.31
451.986	74.31
452.207	90.31
452.428	91.31
452.648	88.31
452.869	80.31
453.089	106.31
453.31	115.31
453.53	112.31
453.751	89.31
453.971	103.31
454.192	101.31
454.412	82.31
454.633	88.31
454.853	97.31
455.073	78.31
455.294	80.31
455.514	97.31
455.734	85.31
455.955	69.31
456.175	83.31
456.395	91.31
456.616	89.31
456.836	79.31
457.056	85.31
457.276	99.31
457.497	89.31
457.717	77.31
457.937	80.31
458.157	91.31
458.377	68.31
458.598	91.31
458.818	117.31
459.038	119.31
459.258	86.31
459.478	95.31
459.698	102.31
459.918	90.31
460.138	91.31
460.358	91.31
460.578	84.31
460.798	91.31
461.018	84.31
461.238	94.31
461.458	73.31
461.678	83.31
461.898	87.31
462.118	84.31
462.338	86.31
462.558	93.31
462.777	84.31
462.997	78.31
463.217	83.31
463.437	89.31
463.657	86.31
463.876	80.31
464.096	83.31
464.316	88.31
464.536	85.31
464.755	98.31
464.975	101.31
465.195	129.31
465.414	122.31
465.634	90.31
465.854	64.31
466.073	81.31
466.293	81.31
466.512	91.31
466.732	102.31
466.951	95.31
467.171	102.31
467.391	104.31
467.61	81.31
467.829	88.31
468.049	87.31
468.268	74.31
468.488	72.31
468.707	85.31
468.927	83.31
469.146	92.31
469.365	72.31
469.585	93.31
469.804	90.31
470.023	99.31
470.243	81.31
470.462	88.31
470.681	106.31
470.901	88.31
471.12	90.31
471.339	83.31
471.558	91.31
471.777	76.31
471.997	96.31
472.216	107.31
472.435	111.31
472.654	92.31
472.873	87.31
473.092	82.31
473.311	96.31
473.53	89.31
473.749	81.31
473.968	105.31
474.187	88.31
474.406	77.31
474.625	82.31
474.844	77.31
475.063	92.31
475.282	76.31
475.501	85.31
475.72	94.31
475.939	88.31
476.158	73.31
476.377	78.31
476.596	79.31
476.814	92.31
477.033	85.31
477.252	76.31
477.471	90.31
477.69	79.31
477.908	89.31
478.127	95.31
478.346	89.31
478.564	76.31
478.783	89.31
479.002	89.31
479.22	87.31
479.439	83.31
479.658	103.31
479.876	83.31
480.095	84.31
480.313	86.31
480.532	83.31
480.751	96.31
480.969	105.31
481.188	172.31
481.406	121.31
481.624	79.31
481.843	73.31
482.061	82.31
482.28	86.31
482.498	98.31
482.717	78.31
482.935	79.31
483.153	77.31
483.372	87.31
483.59	69.31
483.808	90.31
484.027	90.31
484.245	82.31
484.463	84.31
484.681	102.31
484.9	101.31
485.118	101.31
485.336	99.31
485.554	104.31
485.772	91.31
485.99	98.31
486.209	109.31
486.427	107.31
486.645	112.31
486.863	98.31
487.081	110.31
487.299	96.31
487.517	79.31
487.735	98.31
487.953	101.31
488.171	96.31
488.389	94.31
488.607	98.31
488.825	98.31
489.043	92.31
489.261	81.31
489.479	80.31
489.696	74.31
489.914	83.31
490.132	95.31
490.35	89.31
490.568	87.31
490.786	96.31
491.003	95.31
491.221	84.31
491.439	88.31
491.657	80.31
491.874	82.31
492.092	85.31
492.31	98.31
492.527	90.31
492.745	90.31
492.963	90.31
493.18	88.31
493.398	101.31
493.615	89.31
493.833	83.31
494.05	81.31
494.268	94.31
494.485	102.31
494.703	96.31
494.92	87.31
495.138	84.31
495.355	100.31
495.573	102.31
495.79	89.31
496.008	104.31
496.225	85.31
496.442	81.31
496.66	87.31
496.877	81.31
497.094	99.31
497.312	91.31
497.529	103.31
497.746	92.31
497.963	99.31
498.181	81.31
498.398	86.31
498.615	93.31
498.832	100.31
499.049	93.31
499.267	75.31
499.484	96.31
499.701	87.31
499.918	86.31
500.135	87.31
500.352	90.31
500.569	78.31
500.786	90.31
501.003	84.31
501.22	91.31
501.437	91.31
501.654	78.31
501.871	109.31
502.088	94.31
502.305	76.31
502.522	83.31
502.739	102.31
502.956	77.31
503.172	93.31
503.389	97.31
503.606	97.31
503.823	93.31
504.04	96.31
504.256	88.31
504.473	94.31
504.69	79.31
504.907	92.31
505.123	97.31
505.34	81.31
505.557	87.31
505.773	78.31
505.99	81.31
506.207	88.31
506.423	89.31
506.64	89.31
506.856	88.31
507.073	76.31
507.289	96.31
507.506	93.31
507.722	107.31
507.939	85.31
508.155	94.31
508.372	95.31
508.588	90.31
508.805	106.31
509.021	83.31
509.238	80.31
509.454	109.31
509.67	93.31
509.887	98.31
510.103	114.31
510.319	159.31
510.536	486.31
510.752	1438.31
510.968	435.31
511.184	124.31
511.401	107.31
511.617	92.31
511.833	95.31
512.049	108.31
512.265	81.31
512.481	95.31
512.698	91.31
512.914	100.31
513.13	79.31
513.346	92.31
513.562	86.31
513.778	81.31
513.994	91.31
514.21	98.31
514.426	99.31
514.642	105.31
514.858	98.31
515.074	128.31
515.29	291.31
515.506	827.31
515.721	333.31
515.937	142.31
516.153	104.31
516.369	104.31
516.585	85.31
516.801	98.31
517.016	85.31
517.232	100.31
517.448	83.31
517.664	92.31
517.879	86.31
518.095	81.31
518.311	90.31
518.527	107.31
518.742	75.31
518.958	97.31
519.173	83.31
519.389	88.31
519.605	101.31
519.82	98.31
520.036	94.31
520.251	96.31
520.467	98.31
520.682	85.31
520.898	97.31
521.113	105.31
521.329	115.31
521.544	164.31
521.76	338.31
521.975	1332.31
522.19	809.31
522.406	212.31
522.621	101.31
522.836	90.31
523.052	97.31
523.267	91.31
523.482	91.31
523.698	89.31
523.913	97.31
524.128	96.31
524.343	101.31
524.559	97.31
524.774	83.31
524.989	100.31
525.204	87.31
525.419	90.31
525.634	84.31
525.849	83.31
526.064	89.31
526.28	92.31
526.495	75.31
526.71	81.31
526.925	100.31
527.14	96.31
527.355	84.31
527.57	92.31
527.785	97.31
527.999	108.31
528.214	87.31
528.429	83.31
528.644	97.31
528.859	89.31
529.074	112.31
529.289	119.31
529.503	126.31
529.718	106.31
529.933	80.31
530.148	84.31
530.363	96.31
530.577	72.31
530.792	85.31
531.007	86.31
531.221	82.31
531.436	99.31
531.651	100.31
531.865	81.31
532.08	84.31
532.295	93.31
532.509	85.31
532.724	97.31
532.938	94.31
533.153	99.31
533.367	96.31
533.582	97.31
533.796	89.31
534.011	74.31
534.225	88.31
534.44	89.31
534.654	96.31
534.868	91.31
535.083	73.31
535.297	68.31
535.511	111.31
535.726	97.31
535.94	81.31
536.154	101.31
536.369	87.31
536.583	66.31
536.797	84.31
537.011	97.31
537.225	94.31
537.44	85.31
537.654	94.31
537.868	91.31
538.082	89.31
538.296	88.31
538.51	96.31
538.724	99.31
538.938	85.31
539.153	84.31
539.367	93.31
539.581	87.31
539.795	100.31
540.009	89.31
540.222	83.31
540.436	100.31
540.65	86.31
540.864	96.31
541.078	83.31
541.292	108.31
541.506	93.31
541.72	98.31
541.934	99.31
542.147	88.31
542.361	88.31
542.575	93.31
542.789	83.31
543.002	100.31
543.216	89.31
543.43	89.31
543.644	92.31
543.857	83.31
544.071	95.31
544.285	91.31
544.498	91.31
544.712	93.31
544.925	70.31
545.139	81.31
545.352	79.31
545.566	83.31
545.779	78.31
545.993	87.31
546.206	98.31
546.42	85.31
546.633	85.31
546.847	84.31
547.06	93.31
547.274	89.31
547.487	66.31
547.7	85.31
547.914	89.31
548.127	78.31
548.34	93.31
548.554	85.31
548.767	82.31
548.98	83.31
549.193	83.31
549.407	93.31
549.62	76.31
549.833	81.31
550.046	81.31
550.259	85.31
550.473	77.31
550.686	89.31
550.899	88.31
551.112	89.31
551.325	88.31
551.538	88.31
551.751	86.31
551.964	67.31
552.177	74.31
552.39	77.31
552.603	76.31
552.816	84.31
553.029	81.31
553.242	93.31
553.455	98.31
553.667	97.31
553.88	88.31
554.093	79.31
554.306	92.31
554.519	90.31
554.732	97.31
554.944	80.31
555.157	75.31
555.37	74.31
555.583	88.31
555.795	94.31
556.008	86.31
556.221	96.31
556.433	106.31
556.646	100.31
556.859	92.31
557.071	82.31
557.284	92.31
557.496	86.31
557.709	92.31
557.921	81.31
558.134	87.31
558.346	86.31
558.559	86.31
558.771	81.31
558.984	99.31
559.196	94.31
559.409	87.31
559.621	99.31
559.833	87.31
560.046	97.31
560.258	81.31
560.47	97.31
560.683	73.31
560.895	93.31
561.107	79.31
561.32	87.31
561.532	94.31
561.744	85.31
561.956	97.31
562.168	76.31
562.381	95.31
562.593	90.31
562.805	84.31
563.017	80.31
563.229	75.31
563.441	77.31
563.653	93.31
563.865	86.31
564.077	84.31
564.289	82.31
564.501	83.31
564.713	92.31
564.925	96.31
565.137	104.31
565.349	98.31
565.561	81.31
565.773	95.31
565.985	79.31
566.197	82.31
566.408	81.31
566.62	89.31
566.832	75.31
567.044	83.31
567.255	78.31
567.467	83.31
567.679	78.31
567.891	71.31
568.102	83.31
568.314	89.31
568.526	80.31
568.737	99.31
568.949	80.31
569.161	91.31
569.372	77.31
569.584	95.31
569.795	92.31
570.007	103.31
570.218	171.31
570.43	118.31
570.641	87.31
570.853	88.31
571.064	81.31
571.276	85.31
571.487	85.31
571.698	88.31
571.91	92.31
572.121	79.31
572.333	82.31
572.544	85.31
572.755	96.31
572.966	97.31
573.178	85.31
573.389	72.31
573.6	81.31
573.811	85.31
574.023	90.31
574.234	98.31
574.445	89.31
574.656	75.31
574.867	91.31
575.078	94.31
575.289	86.31
575.501	98.31
575.712	80.31
575.923	77.31
576.134	85.31
576.345	83.31
576.556	85.31
576.767	81.31
576.978	90.31
577.188	68.31
577.399	85.31
577.61	76.31
577.821	96.31
578.032	106.31
578.243	189.31
578.454	470.31
578.665	177.31
578.875	97.31
579.086	96.31
579.297	102.31
579.508	91.31
579.718	77.31
579.929	81.31
580.14	68.31
580.35	84.31
580.561	93.31
580.772	81.31
580.982	80.31
581.193	89.31
581.403	80.31
581.614	82.31
581.825	89.31
582.035	101.31
582.246	99.31
582.456	64.31
582.667	89.31
582.877	92.31
583.087	79.31
583.298	82.31
583.508	90.31
583.719	83.31
583.929	89.31
584.139	84.31
584.35	89.31
584.56	77.31
584.77	74.31
584.981	85.31
585.191	89.31
585.401	95.31
585.611	93.31
585.821	89.31
586.032	88.31
586.242	79.31
586.452	73.31
586.662	84.31
586.872	98.31
587.082	83.31
587.292	98.31
587.502	85.31
587.713	87.31
587.923	87.31
588.133	81.31
588.343	84.31
588.553	91.31
588.762	96.31
588.972	177.31
589.182	541.31
589.392	259.31
589.602	180.31
589.812	370.31
590.022	157.31
590.232	93.31
590.441	97.31
590.651	66.31
590.861	92.31
591.071	75.31
591.281	72.31
591.49	100.31
591.7	80.31
591.91	76.31
592.119	81.31
592.329	81.31
592.539	79.31
592.748	90.31
592.958	80.31
593.167	98.31
593.377	94.31
593.587	90.31
593.796	76.31
594.006	75.31
594.215	80.31
594.424	90.31
594.634	80.31
594.843	97.31
595.053	100.31
595.262	84.31
595.472	89.31
595.681	85.31
595.89	80.31
596.1	91.31
596.309	78.31
596.518	77.31
596.727	79.31
596.937	71.31
597.146	87.31
597.355	80.31
597.564	76.31
597.774	80.31
597.983	84.31
598.192	91.31
598.401	84.31
598.61	88.31
598.819	91.31
599.028	76.31
599.237	80.31
599.446	88.31
599.655	93.31
599.864	77.31
600.073	84.31
600.282	91.31
600.491	97.31
600.7	79.31
600.909	80.31
601.118	97.31
601.327	86.31
601.536	75.31
601.745	85.31
601.953	84.31
602.162	92.31
602.371	86.31
602.58	91.31
602.789	83.31
602.997	89.31
603.206	85.31
603.415	81.31
603.623	91.31
603.832	88.31
604.041	68.31
604.249	83.31
604.458	80.31
604.666	86.31
604.875	85.31
605.084	88.31
605.292	88.31
605.501	81.31
605.709	93.31
605.918	84.31
606.126	78.31
606.334	81.31
606.543	83.31
606.751	86.31
606.96	93.31
607.168	78.31
607.376	78.31
607.585	107.31
607.793	82.31
608.001	89.31
608.21	77.31
608.418	87.31
608.626	80.31
608.834	88.31
609.043	86.31
609.251	86.31
609.459	88.31
609.667	81.31
609.875	79.31
610.083	84.31
610.291	77.31
610.499	85.31
610.707	87.31
610.916	77.31
611.124	88.31
611.332	92.31
611.54	77.31
611.748	87.31
611.955	74.31
612.163	90.31
612.371	69.31
612.579	74.31
612.787	84.31
612.995	83.31
613.203	80.31
613.411	94.31
613.618	75.31
613.826	94.31
614.034	81.31
614.242	73.31
614.449	71.31
614.657	81.31
614.865	86.31
615.072	84.31
615.28	85.31
615.488	86.31
615.695	92.31
615.903	86.31
616.111	103.31
616.318	99.31
616.526	85.31
616.733	98.31
616.941	100.31
617.148	77.31
617.356	80.31
617.563	70.31
617.771	91.31
617.978	85.31
618.185	81.31
618.393	77.31
618.6	81.31
618.807	73.31
619.015	94.31
619.222	81.31
619.429	78.31
619.637	93.31
619.844	91.31
620.051	96.31
620.258	74.31
620.466	76.31
620.673	80.31
620.88	79.31
621.087	87.31
621.294	87.31
621.501	75.31
621.708	83.31
621.915	72.31
622.122	87.31
622.329	86.31
622.536	87.31
622.743	79.31
622.95	74.31
623.157	92.31
623.364	85.31
623.571	93.31
623.778	84.31
623.985	86.31
624.192	83.31
624.399	78.31
624.606	83.31
624.812	84.31
625.019	77.31
625.226	80.31
625.433	72.31
625.639	80.31
625.846	85.31
626.053	78.31
626.259	83.31
626.466	78.31
626.673	65.31
626.879	79.31
627.086	83.31
627.293	90.31
627.499	86.31
627.706	83.31
627.912	99.31
628.119	76.31
628.325	82.31
628.532	82.31
628.738	75.31
628.945	77.31
629.151	83.31
629.357	81.31
629.564	93.31
629.77	75.31
629.976	76.31
630.183	91.31
630.389	89.31
630.595	86.31
630.802	93.31
631.008	74.31
631.214	84.31
631.42	82.31
631.627	79.31
631.833	77.31
632.039	79.31
632.245	80.31
632.451	89.31
632.657	81.31
632.863	75.31
633.069	76.31
633.275	80.31
633.481	82.31
633.688	87.31
633.893	97.31
634.099	86.31
634.305	83.31
634.511	80.31
634.717	84.31
634.923	86.31
635.129	89.31
635.335	81.31
635.541	76.31
635.747	79.31
635.952	89.31
636.158	80.31
636.364	95.31
636.57	98.31
636.775	80.31
636.981	84.31
637.187	84.31
637.392	66.31
637.598	97.31
637.804	87.31
638.009	73.31
638.215	75.31
638.421	78.31
638.626	83.31
638.832	86.31
639.037	82.31
639.243	81.31
639.448	68.31
639.654	82.31
639.859	79.31
640.065	74.31
640.27	80.31
640.475	73.31
640.681	79.31
640.886	82.31
641.091	82.31
641.297	86.31
641.502	95.31
641.707	77.31
641.913	74.31
642.118	84.31
642.323	73.31
642.528	85.31
642.733	88.31
642.939	70.31
643.144	78.31
643.349	87.31
643.554	74.31
643.759	86.31
643.964	84.31
644.169	78.31
644.374	91.31
644.579	80.31
644.784	78.31
644.989	68.31
645.194	76.31
645.399	91.31
645.604	82.31
645.809	79.31
646.014	89.31
646.219	84.31
646.423	88.31
646.628	84.31
646.833	91.31
647.038	84.31
647.243	84.31
647.447	73.31
647.652	85.31
647.857	88.31
648.062	74.31
648.266	77.31
648.471	89.31
648.676	90.31
648.88	88.31
649.085	78.31
649.289	83.31
649.494	90.31
649.698	109.31
649.903	103.31
650.107	89.31
650.312	91.31
650.516	80.31
650.721	75.31
650.925	88.31
651.13	88.31
651.334	76.31
651.539	72.31
651.743	79.31
651.947	85.31
652.152	98.31
652.356	66.31
652.56	89.31
652.764	84.31
652.969	77.31
653.173	84.31
653.377	77.31
653.581	86.31
653.785	67.31
653.99	79.31
654.194	87.31
654.398	83.31
654.602	80.31
654.806	91.31
655.01	106.31
655.214	81.31
655.418	82.31
655.622	77.31
655.826	92.31
656.03	83.31
656.234	104.31
656.438	119.31
656.642	101.31
656.846	101.31
657.049	82.31
657.253	87.31
657.457	94.31
657.661	71.31
657.865	84.31
658.068	81.31
658.272	90.31
658.476	78.31
658.68	69.31
658.883	81.31
659.087	83.31
659.291	75.31
659.494	82.31
659.698	75.31
659.901	87.31
660.105	66.31
660.309	80.31
660.512	79.31
660.716	81.31
660.919	83.31
661.123	79.31
661.326	69.31
661.53	77.31
661.733	81.31
661.936	87.31
662.14	76.31
662.343	87.31
662.546	77.31
662.75	97.31
662.953	79.31
663.156	79.31
663.36	87.31
663.563	80.31
663.766	81.31
663.969	80.31
664.173	80.31
664.376	61.31
664.579	71.31
664.782	86.31
664.985	79.31
665.188	84.31
665.391	61.31
665.594	85.31
665.797	65.31
666	78.31
666.203	83.31
666.406	88.31
666.609	78.31
666.812	76.31
667.015	82.31
667.218	79.31
667.421	78.31
667.624	82.31
667.827	85.31
668.03	85.31
668.232	83.31
668.435	75.31
668.638	76.31
668.841	98.31
669.043	84.31
669.246	95.31
669.449	87.31
669.651	84.31
669.854	85.31
670.057	74.31
670.259	79.31
670.462	79.31
670.665	83.31
670.867	61.31
671.07	77.31
671.272	76.31
671.475	80.31
671.677	66.31
671.88	80.31
672.082	76.31
672.284	76.31
672.487	88.31
672.689	74.31
672.892	66.31
