Data from 18505_1_HRD10591_00040.txt Node
Date: Mon Jan 19 13:58:51 EST 2026
User: Yrep
Spectrometer: HR+D1059
Trigger mode: 1
Integration Time (sec): 1.000000E-1
Scans to average: 1
Electric dark correction enabled: true
Nonlinearity correction enabled: false
Boxcar width: 0
XAxis mode: Wavelengths
Number of Pixels in Spectrum: 2048
>>>>>Begin Spectral Data<<<<<
223.165	-15.62
223.4	-15.62
223.635	-15.62
223.869	-3.62
224.104	-22.62
224.338	-21.62
224.573	-9.62
224.808	-8.62
225.042	-5.62
225.277	-14.62
225.511	2.38
225.746	-0.62
225.98	-0.62
226.215	12.38
226.449	18.38
226.683	18.38
226.918	36.38
227.152	15.38
227.387	45.38
227.621	49.38
227.856	46.38
228.09	54.38
228.324	35.38
228.559	63.38
228.793	61.38
229.027	66.38
229.262	75.38
229.496	67.38
229.73	66.38
229.964	76.38
230.199	80.38
230.433	68.38
230.667	86.38
230.901	65.38
231.136	75.38
231.37	70.38
231.604	66.38
231.838	90.38
232.072	55.38
232.306	85.38
232.541	76.38
232.775	75.38
233.009	85.38
233.243	83.38
233.477	83.38
233.711	82.38
233.945	87.38
234.179	73.38
234.413	66.38
234.647	77.38
234.881	85.38
235.115	75.38
235.349	84.38
235.583	65.38
235.817	73.38
236.051	70.38
236.285	74.38
236.519	75.38
236.753	85.38
236.987	71.38
237.221	72.38
237.455	86.38
237.689	87.38
237.922	87.38
238.156	74.38
238.39	72.38
238.624	86.38
238.858	83.38
239.091	81.38
239.325	87.38
239.559	76.38
239.793	70.38
240.027	73.38
240.26	78.38
240.494	71.38
240.728	69.38
240.961	83.38
241.195	76.38
241.429	87.38
241.662	74.38
241.896	64.38
242.13	81.38
242.363	69.38
242.597	69.38
242.83	86.38
243.064	74.38
243.298	68.38
243.531	67.38
243.765	73.38
243.998	65.38
244.232	76.38
244.465	72.38
244.699	65.38
244.932	69.38
245.166	73.38
245.399	81.38
245.633	83.38
245.866	86.38
246.099	79.38
246.333	73.38
246.566	72.38
246.8	73.38
247.033	72.38
247.266	76.38
247.5	74.38
247.733	96.38
247.966	74.38
248.2	74.38
248.433	78.38
248.666	71.38
248.899	74.38
249.133	79.38
249.366	73.38
249.599	79.38
249.832	81.38
250.066	80.38
250.299	74.38
250.532	75.38
250.765	88.38
250.998	65.38
251.231	72.38
251.465	68.38
251.698	70.38
251.931	91.38
252.164	70.38
252.397	74.38
252.63	89.38
252.863	74.38
253.096	61.38
253.329	85.38
253.562	81.38
253.795	73.38
254.028	74.38
254.261	81.38
254.494	79.38
254.727	87.38
254.96	75.38
255.193	80.38
255.426	71.38
255.659	88.38
255.892	89.38
256.124	71.38
256.357	56.38
256.59	72.38
256.823	74.38
257.056	83.38
257.289	74.38
257.521	76.38
257.754	74.38
257.987	79.38
258.22	86.38
258.452	82.38
258.685	89.38
258.918	68.38
259.151	86.38
259.383	81.38
259.616	72.38
259.849	88.38
260.081	82.38
260.314	72.38
260.547	72.38
260.779	81.38
261.012	82.38
261.244	90.38
261.477	78.38
261.71	76.38
261.942	67.38
262.175	74.38
262.407	82.38
262.64	74.38
262.872	85.38
263.105	89.38
263.337	75.38
263.57	82.38
263.802	93.38
264.035	75.38
264.267	77.38
264.499	86.38
264.732	85.38
264.964	82.38
265.197	79.38
265.429	87.38
265.661	95.38
265.894	93.38
266.126	74.38
266.358	78.38
266.591	93.38
266.823	85.38
267.055	79.38
267.287	64.38
267.52	52.38
267.752	82.38
267.984	86.38
268.216	74.38
268.448	95.38
268.681	73.38
268.913	69.38
269.145	92.38
269.377	73.38
269.609	77.38
269.841	84.38
270.073	86.38
270.306	77.38
270.538	74.38
270.77	83.38
271.002	77.38
271.234	81.38
271.466	92.38
271.698	71.38
271.93	80.38
272.162	77.38
272.394	89.38
272.626	82.38
272.858	90.38
273.09	85.38
273.322	86.38
273.553	88.38
273.785	78.38
274.017	80.38
274.249	95.38
274.481	68.38
274.713	78.38
274.945	89.38
275.176	78.38
275.408	77.38
275.64	67.38
275.872	76.38
276.104	90.38
276.335	81.38
276.567	75.38
276.799	85.38
277.031	75.38
277.262	74.38
277.494	84.38
277.726	75.38
277.957	91.38
278.189	93.38
278.421	85.38
278.652	80.38
278.884	93.38
279.115	88.38
279.347	76.38
279.579	89.38
279.81	84.38
280.042	93.38
280.273	86.38
280.505	101.38
280.736	90.38
280.968	90.38
281.199	82.38
281.431	80.38
281.662	89.38
281.894	75.38
282.125	80.38
282.356	76.38
282.588	81.38
282.819	61.38
283.051	73.38
283.282	80.38
283.513	84.38
283.745	77.38
283.976	75.38
284.207	82.38
284.439	81.38
284.67	82.38
284.901	87.38
285.132	89.38
285.364	95.38
285.595	75.38
285.826	74.38
286.057	86.38
286.288	90.38
286.52	91.38
286.751	82.38
286.982	80.38
287.213	75.38
287.444	90.38
287.675	71.38
287.906	85.38
288.138	68.38
288.369	84.38
288.6	79.38
288.831	74.38
289.062	93.38
289.293	79.38
289.524	80.38
289.755	85.38
289.986	88.38
290.217	79.38
290.448	81.38
290.679	86.38
290.91	84.38
291.141	88.38
291.371	70.38
291.602	83.38
291.833	97.38
292.064	81.38
292.295	73.38
292.526	87.38
292.757	83.38
292.987	78.38
293.218	86.38
293.449	91.38
293.68	89.38
293.91	86.38
294.141	82.38
294.372	82.38
294.603	83.38
294.833	64.38
295.064	71.38
295.295	66.38
295.525	92.38
295.756	93.38
295.987	79.38
296.217	92.38
296.448	79.38
296.679	93.38
296.909	87.38
297.14	88.38
297.37	87.38
297.601	86.38
297.831	80.38
298.062	88.38
298.292	103.38
298.523	83.38
298.753	97.38
298.984	76.38
299.214	65.38
299.445	88.38
299.675	99.38
299.905	92.38
300.136	87.38
300.366	81.38
300.597	77.38
300.827	88.38
301.057	78.38
301.288	71.38
301.518	79.38
301.748	87.38
301.979	105.38
302.209	83.38
302.439	87.38
302.669	89.38
302.9	84.38
303.13	74.38
303.36	81.38
303.59	73.38
303.82	79.38
304.051	81.38
304.281	96.38
304.511	95.38
304.741	84.38
304.971	72.38
305.201	83.38
305.431	79.38
305.661	84.38
305.891	79.38
306.121	84.38
306.352	75.38
306.582	83.38
306.812	80.38
307.042	82.38
307.272	86.38
307.502	86.38
307.731	84.38
307.961	98.38
308.191	95.38
308.421	93.38
308.651	75.38
308.881	91.38
309.111	83.38
309.341	82.38
309.571	88.38
309.8	88.38
310.03	76.38
310.26	93.38
310.49	82.38
310.72	97.38
310.949	100.38
311.179	79.38
311.409	94.38
311.639	91.38
311.868	77.38
312.098	74.38
312.328	89.38
312.557	93.38
312.787	99.38
313.017	84.38
313.246	71.38
313.476	88.38
313.706	88.38
313.935	81.38
314.165	95.38
314.394	89.38
314.624	85.38
314.853	95.38
315.083	94.38
315.312	85.38
315.542	84.38
315.771	91.38
316.001	79.38
316.23	76.38
316.46	71.38
316.689	94.38
316.919	95.38
317.148	79.38
317.377	90.38
317.607	83.38
317.836	95.38
318.065	96.38
318.295	87.38
318.524	76.38
318.753	83.38
318.983	89.38
319.212	82.38
319.441	85.38
319.67	90.38
319.9	93.38
320.129	79.38
320.358	87.38
320.587	92.38
320.816	85.38
321.046	90.38
321.275	87.38
321.504	95.38
321.733	88.38
321.962	75.38
322.191	83.38
322.42	96.38
322.649	94.38
322.878	84.38
323.108	76.38
323.337	87.38
323.566	93.38
323.795	89.38
324.024	93.38
324.253	92.38
324.482	73.38
324.71	84.38
324.939	83.38
325.168	77.38
325.397	95.38
325.626	80.38
325.855	79.38
326.084	79.38
326.313	87.38
326.542	79.38
326.77	89.38
326.999	77.38
327.228	85.38
327.457	91.38
327.686	88.38
327.914	97.38
328.143	93.38
328.372	68.38
328.6	88.38
328.829	75.38
329.058	88.38
329.287	86.38
329.515	85.38
329.744	79.38
329.972	95.38
330.201	87.38
330.43	79.38
330.658	71.38
330.887	81.38
331.115	85.38
331.344	74.38
331.572	101.38
331.801	91.38
332.03	88.38
332.258	77.38
332.486	86.38
332.715	94.38
332.943	82.38
333.172	87.38
333.4	87.38
333.629	83.38
333.857	93.38
334.085	90.38
334.314	89.38
334.542	90.38
334.771	81.38
334.999	89.38
335.227	86.38
335.455	77.38
335.684	98.38
335.912	85.38
336.14	95.38
336.369	87.38
336.597	72.38
336.825	84.38
337.053	79.38
337.281	94.38
337.51	82.38
337.738	91.38
337.966	83.38
338.194	88.38
338.422	90.38
338.65	94.38
338.878	76.38
339.106	80.38
339.334	100.38
339.562	91.38
339.79	76.38
340.018	95.38
340.246	75.38
340.474	76.38
340.702	83.38
340.93	81.38
341.158	89.38
341.386	75.38
341.614	79.38
341.842	79.38
342.07	81.38
342.298	89.38
342.526	86.38
342.754	80.38
342.981	78.38
343.209	90.38
343.437	103.38
343.665	94.38
343.893	78.38
344.12	87.38
344.348	74.38
344.576	93.38
344.804	85.38
345.031	75.38
345.259	83.38
345.487	88.38
345.714	79.38
345.942	83.38
346.17	82.38
346.397	84.38
346.625	75.38
346.853	89.38
347.08	80.38
347.308	98.38
347.535	85.38
347.763	101.38
347.99	96.38
348.218	79.38
348.445	99.38
348.673	82.38
348.9	78.38
349.128	89.38
349.355	88.38
349.583	78.38
349.81	84.38
350.037	94.38
350.265	93.38
350.492	75.38
350.72	79.38
350.947	90.38
351.174	79.38
351.402	80.38
351.629	81.38
351.856	74.38
352.083	91.38
352.311	95.38
352.538	86.38
352.765	83.38
352.992	89.38
353.22	106.38
353.447	104.38
353.674	81.38
353.901	76.38
354.128	75.38
354.355	75.38
354.583	83.38
354.81	88.38
355.037	80.38
355.264	73.38
355.491	79.38
355.718	78.38
355.945	93.38
356.172	87.38
356.399	84.38
356.626	103.38
356.853	92.38
357.08	102.38
357.307	95.38
357.534	86.38
357.761	76.38
357.988	101.38
358.215	89.38
358.441	81.38
358.668	82.38
358.895	88.38
359.122	81.38
359.349	102.38
359.576	77.38
359.802	83.38
360.029	74.38
360.256	89.38
360.483	78.38
360.709	94.38
360.936	100.38
361.163	92.38
361.39	73.38
361.616	77.38
361.843	89.38
362.07	97.38
362.296	94.38
362.523	93.38
362.749	87.38
362.976	98.38
363.203	95.38
363.429	74.38
363.656	81.38
363.882	88.38
364.109	89.38
364.335	85.38
364.562	96.38
364.788	79.38
365.015	99.38
365.241	93.38
365.468	96.38
365.694	100.38
365.92	93.38
366.147	74.38
366.373	90.38
366.599	90.38
366.826	94.38
367.052	95.38
367.278	94.38
367.505	82.38
367.731	82.38
367.957	76.38
368.184	89.38
368.41	79.38
368.636	81.38
368.862	88.38
369.089	82.38
369.315	100.38
369.541	91.38
369.767	93.38
369.993	72.38
370.219	87.38
370.445	90.38
370.672	87.38
370.898	83.38
371.124	79.38
371.35	77.38
371.576	79.38
371.802	76.38
372.028	81.38
372.254	89.38
372.48	96.38
372.706	81.38
372.932	99.38
373.158	85.38
373.384	94.38
373.61	91.38
373.835	92.38
374.061	93.38
374.287	85.38
374.513	88.38
374.739	84.38
374.965	87.38
375.191	74.38
375.416	75.38
375.642	84.38
375.868	83.38
376.094	93.38
376.319	82.38
376.545	86.38
376.771	77.38
376.997	93.38
377.222	81.38
377.448	85.38
377.674	86.38
377.899	75.38
378.125	82.38
378.35	68.38
378.576	73.38
378.802	87.38
379.027	83.38
379.253	98.38
379.478	75.38
379.704	93.38
379.929	93.38
380.155	79.38
380.38	76.38
380.606	86.38
380.831	66.38
381.057	86.38
381.282	79.38
381.507	93.38
381.733	82.38
381.958	88.38
382.184	89.38
382.409	84.38
382.634	93.38
382.86	75.38
383.085	89.38
383.31	83.38
383.535	84.38
383.761	90.38
383.986	94.38
384.211	86.38
384.436	84.38
384.662	94.38
384.887	73.38
385.112	93.38
385.337	91.38
385.562	97.38
385.787	88.38
386.013	92.38
386.238	91.38
386.463	96.38
386.688	87.38
386.913	87.38
387.138	86.38
387.363	84.38
387.588	87.38
387.813	85.38
388.038	97.38
388.263	86.38
388.488	91.38
388.713	79.38
388.938	69.38
389.163	78.38
389.387	99.38
389.612	98.38
389.837	75.38
390.062	82.38
390.287	101.38
390.512	79.38
390.736	83.38
390.961	63.38
391.186	79.38
391.411	78.38
391.636	70.38
391.86	94.38
392.085	91.38
392.31	89.38
392.534	100.38
392.759	110.38
392.984	160.38
393.208	233.38
393.433	341.38
393.658	258.38
393.882	134.38
394.107	92.38
394.331	98.38
394.556	95.38
394.78	100.38
395.005	90.38
395.229	86.38
395.454	97.38
395.678	81.38
395.903	90.38
396.127	118.38
396.352	133.38
396.576	158.38
396.801	239.38
397.025	262.38
397.249	150.38
397.474	104.38
397.698	94.38
397.922	85.38
398.147	82.38
398.371	87.38
398.595	103.38
398.82	83.38
399.044	78.38
399.268	76.38
399.492	81.38
399.717	83.38
399.941	88.38
400.165	95.38
400.389	85.38
400.613	76.38
400.837	75.38
401.062	85.38
401.286	80.38
401.51	81.38
401.734	72.38
401.958	90.38
402.182	69.38
402.406	67.38
402.63	90.38
402.854	79.38
403.078	96.38
403.302	87.38
403.526	89.38
403.75	75.38
403.974	81.38
404.198	97.38
404.422	98.38
404.645	113.38
404.869	102.38
405.093	92.38
405.317	75.38
405.541	88.38
405.765	86.38
405.988	88.38
406.212	94.38
406.436	81.38
406.66	83.38
406.883	80.38
407.107	81.38
407.331	90.38
407.555	93.38
407.778	105.38
408.002	107.38
408.226	83.38
408.449	76.38
408.673	87.38
408.896	74.38
409.12	84.38
409.344	101.38
409.567	85.38
409.791	88.38
410.014	94.38
410.238	80.38
410.461	84.38
410.685	97.38
410.908	83.38
411.132	91.38
411.355	80.38
411.578	72.38
411.802	87.38
412.025	89.38
412.249	93.38
412.472	81.38
412.695	85.38
412.919	82.38
413.142	85.38
413.365	91.38
413.589	81.38
413.812	76.38
414.035	73.38
414.258	80.38
414.482	74.38
414.705	83.38
414.928	81.38
415.151	89.38
415.374	88.38
415.597	79.38
415.821	76.38
416.044	90.38
416.267	81.38
416.49	88.38
416.713	96.38
416.936	74.38
417.159	73.38
417.382	87.38
417.605	92.38
417.828	86.38
418.051	86.38
418.274	66.38
418.497	80.38
418.72	74.38
418.943	92.38
419.166	73.38
419.389	77.38
419.611	90.38
419.834	77.38
420.057	92.38
420.28	75.38
420.503	80.38
420.726	89.38
420.948	78.38
421.171	81.38
421.394	87.38
421.617	117.38
421.839	102.38
422.062	94.38
422.285	127.38
422.507	197.38
422.73	335.38
422.953	307.38
423.175	162.38
423.398	120.38
423.621	95.38
423.843	101.38
424.066	88.38
424.288	87.38
424.511	96.38
424.733	81.38
424.956	79.38
425.178	85.38
425.401	99.38
425.623	92.38
425.846	85.38
426.068	81.38
426.291	90.38
426.513	84.38
426.735	84.38
426.958	94.38
427.18	82.38
427.402	83.38
427.625	96.38
427.847	85.38
428.069	92.38
428.292	120.38
428.514	132.38
428.736	100.38
428.958	112.38
429.181	121.38
429.403	96.38
429.625	89.38
429.847	113.38
430.069	139.38
430.292	169.38
430.514	171.38
430.736	122.38
430.958	129.38
431.18	98.38
431.402	88.38
431.624	97.38
431.846	101.38
432.068	117.38
432.29	88.38
432.512	85.38
432.734	82.38
432.956	64.38
433.178	76.38
433.4	98.38
433.622	96.38
433.844	89.38
434.066	91.38
434.287	83.38
434.509	68.38
434.731	83.38
434.953	93.38
435.175	76.38
435.397	64.38
435.618	86.38
435.84	89.38
436.062	85.38
436.284	84.38
436.505	79.38
436.727	84.38
436.949	71.38
437.17	66.38
437.392	84.38
437.614	76.38
437.835	86.38
438.057	81.38
438.278	87.38
438.5	82.38
438.721	69.38
438.943	87.38
439.165	85.38
439.386	83.38
439.608	83.38
439.829	74.38
440.05	95.38
440.272	83.38
440.493	83.38
440.715	94.38
440.936	81.38
441.158	95.38
441.379	83.38
441.6	85.38
441.822	81.38
442.043	92.38
442.264	79.38
442.486	110.38
442.707	128.38
442.928	110.38
443.149	101.38
443.371	136.38
443.592	215.38
443.813	195.38
444.034	105.38
444.255	106.38
444.476	87.38
444.698	78.38
444.919	89.38
445.14	171.38
445.361	192.38
445.582	245.38
445.803	199.38
446.024	114.38
446.245	93.38
446.466	86.38
446.687	93.38
446.908	86.38
447.129	84.38
447.35	62.38
447.571	88.38
447.792	93.38
448.013	81.38
448.234	96.38
448.455	71.38
448.675	75.38
448.896	74.38
449.117	74.38
449.338	79.38
449.559	81.38
449.779	82.38
450	80.38
450.221	76.38
450.442	81.38
450.662	74.38
450.883	83.38
451.104	91.38
451.324	76.38
451.545	83.38
451.766	78.38
451.986	92.38
452.207	91.38
452.428	81.38
452.648	92.38
452.869	103.38
453.089	88.38
453.31	79.38
453.53	98.38
453.751	74.38
453.971	87.38
454.192	85.38
454.412	94.38
454.633	82.38
454.853	83.38
455.073	73.38
455.294	73.38
455.514	83.38
455.734	71.38
455.955	73.38
456.175	87.38
456.395	91.38
456.616	109.38
456.836	92.38
457.056	87.38
457.276	83.38
457.497	80.38
457.717	79.38
457.937	79.38
458.157	103.38
458.377	119.38
458.598	114.38
458.818	109.38
459.038	76.38
459.258	63.38
459.478	86.38
459.698	93.38
459.918	91.38
460.138	87.38
460.358	83.38
460.578	85.38
460.798	93.38
461.018	106.38
461.238	85.38
461.458	87.38
461.678	91.38
461.898	89.38
462.118	84.38
462.338	76.38
462.558	75.38
462.777	77.38
462.997	87.38
463.217	82.38
463.437	76.38
463.657	86.38
463.876	87.38
464.096	89.38
464.316	86.38
464.536	70.38
464.755	88.38
464.975	73.38
465.195	88.38
465.414	82.38
465.634	75.38
465.854	86.38
466.073	88.38
466.293	75.38
466.512	86.38
466.732	93.38
466.951	81.38
467.171	86.38
467.391	78.38
467.61	89.38
467.829	87.38
468.049	89.38
468.268	74.38
468.488	83.38
468.707	84.38
468.927	89.38
469.146	89.38
469.365	89.38
469.585	77.38
469.804	77.38
470.023	86.38
470.243	81.38
470.462	75.38
470.681	76.38
470.901	93.38
471.12	81.38
471.339	98.38
471.558	82.38
471.777	73.38
471.997	79.38
472.216	64.38
472.435	85.38
472.654	99.38
472.873	94.38
473.092	69.38
473.311	78.38
473.53	81.38
473.749	83.38
473.968	94.38
474.187	83.38
474.406	88.38
474.625	80.38
474.844	86.38
475.063	83.38
475.282	89.38
475.501	74.38
475.72	85.38
475.939	105.38
476.158	72.38
476.377	89.38
476.596	87.38
476.814	96.38
477.033	93.38
477.252	63.38
477.471	91.38
477.69	77.38
477.908	84.38
478.127	77.38
478.346	81.38
478.564	81.38
478.783	69.38
479.002	80.38
479.22	85.38
479.439	81.38
479.658	87.38
479.876	95.38
480.095	82.38
480.313	93.38
480.532	83.38
480.751	92.38
480.969	72.38
481.188	90.38
481.406	82.38
481.624	80.38
481.843	81.38
482.061	63.38
482.28	81.38
482.498	85.38
482.717	84.38
482.935	85.38
483.153	91.38
483.372	89.38
483.59	77.38
483.808	87.38
484.027	89.38
484.245	79.38
484.463	86.38
484.681	97.38
484.9	88.38
485.118	91.38
485.336	64.38
485.554	71.38
485.772	90.38
485.99	96.38
486.209	90.38
486.427	89.38
486.645	78.38
486.863	85.38
487.081	99.38
487.299	88.38
487.517	75.38
487.735	105.38
487.953	147.38
488.171	104.38
488.389	78.38
488.607	86.38
488.825	83.38
489.043	76.38
489.261	82.38
489.479	83.38
489.696	84.38
489.914	78.38
490.132	87.38
490.35	96.38
490.568	93.38
490.786	96.38
491.003	95.38
491.221	78.38
491.439	89.38
491.657	95.38
491.874	89.38
492.092	85.38
492.31	89.38
492.527	82.38
492.745	90.38
492.963	76.38
493.18	69.38
493.398	80.38
493.615	91.38
493.833	77.38
494.05	83.38
494.268	91.38
494.485	84.38
494.703	88.38
494.92	83.38
495.138	90.38
495.355	97.38
495.573	97.38
495.79	86.38
496.008	93.38
496.225	81.38
496.442	85.38
496.66	90.38
496.877	87.38
497.094	93.38
497.312	81.38
497.529	91.38
497.746	82.38
497.963	83.38
498.181	85.38
498.398	82.38
498.615	94.38
498.832	76.38
499.049	84.38
499.267	85.38
499.484	94.38
499.701	79.38
499.918	78.38
500.135	77.38
500.352	84.38
500.569	89.38
500.786	90.38
501.003	82.38
501.22	92.38
501.437	86.38
501.654	84.38
501.871	86.38
502.088	80.38
502.305	83.38
502.522	87.38
502.739	90.38
502.956	90.38
503.172	78.38
503.389	79.38
503.606	80.38
503.823	91.38
504.04	89.38
504.256	111.38
504.473	111.38
504.69	85.38
504.907	96.38
505.123	96.38
505.34	84.38
505.557	94.38
505.773	105.38
505.99	80.38
506.207	95.38
506.423	82.38
506.64	97.38
506.856	85.38
507.073	77.38
507.289	87.38
507.506	98.38
507.722	67.38
507.939	83.38
508.155	86.38
508.372	96.38
508.588	94.38
508.805	89.38
509.021	70.38
509.238	89.38
509.454	95.38
509.67	101.38
509.887	94.38
510.103	76.38
510.319	77.38
510.536	90.38
510.752	77.38
510.968	73.38
511.184	83.38
511.401	85.38
511.617	86.38
511.833	74.38
512.049	78.38
512.265	81.38
512.481	88.38
512.698	79.38
512.914	85.38
513.13	83.38
513.346	80.38
513.562	83.38
513.778	94.38
513.994	85.38
514.21	84.38
514.426	79.38
514.642	85.38
514.858	86.38
515.074	80.38
515.29	87.38
515.506	82.38
515.721	81.38
515.937	93.38
516.153	93.38
516.369	83.38
516.585	88.38
516.801	83.38
517.016	93.38
517.232	76.38
517.448	85.38
517.664	88.38
517.879	82.38
518.095	88.38
518.311	87.38
518.527	90.38
518.742	94.38
518.958	133.38
519.173	126.38
519.389	80.38
519.605	90.38
519.82	86.38
520.036	78.38
520.251	74.38
520.467	82.38
520.682	93.38
520.898	84.38
521.113	65.38
521.329	85.38
521.544	88.38
521.76	90.38
521.975	79.38
522.19	85.38
522.406	87.38
522.621	82.38
522.836	74.38
523.052	92.38
523.267	80.38
523.482	82.38
523.698	97.38
523.913	82.38
524.128	82.38
524.343	96.38
524.559	92.38
524.774	80.38
524.989	91.38
525.204	76.38
525.419	93.38
525.634	87.38
525.849	82.38
526.064	111.38
526.28	168.38
526.495	243.38
526.71	234.38
526.925	176.38
527.14	209.38
527.355	216.38
527.57	110.38
527.785	99.38
527.999	85.38
528.214	94.38
528.429	93.38
528.644	95.38
528.859	75.38
529.074	90.38
529.289	74.38
529.503	75.38
529.718	68.38
529.933	81.38
530.148	94.38
530.363	95.38
530.577	89.38
530.792	96.38
531.007	89.38
531.221	81.38
531.436	69.38
531.651	94.38
531.865	79.38
532.08	82.38
532.295	84.38
532.509	76.38
532.724	90.38
532.938	86.38
533.153	87.38
533.367	98.38
533.582	76.38
533.796	101.38
534.011	80.38
534.225	88.38
534.44	93.38
534.654	89.38
534.868	99.38
535.083	135.38
535.297	114.38
535.511	84.38
535.726	90.38
535.94	91.38
536.154	105.38
536.369	95.38
536.583	98.38
536.797	91.38
537.011	91.38
537.225	91.38
537.44	87.38
537.654	91.38
537.868	89.38
538.082	88.38
538.296	85.38
538.51	85.38
538.724	80.38
538.938	87.38
539.153	95.38
539.367	86.38
539.581	87.38
539.795	101.38
540.009	93.38
540.222	99.38
540.436	90.38
540.65	93.38
540.864	83.38
541.078	86.38
541.292	88.38
541.506	81.38
541.72	85.38
541.934	91.38
542.147	94.38
542.361	77.38
542.575	77.38
542.789	97.38
543.002	86.38
543.216	96.38
543.43	94.38
543.644	92.38
543.857	95.38
544.071	72.38
544.285	82.38
544.498	90.38
544.712	95.38
544.925	83.38
545.139	94.38
545.352	93.38
545.566	93.38
545.779	100.38
545.993	102.38
546.206	106.38
546.42	94.38
546.633	88.38
546.847	101.38
547.06	92.38
547.274	103.38
547.487	105.38
547.7	117.38
547.914	127.38
548.127	118.38
548.34	114.38
548.554	115.38
548.767	126.38
548.98	115.38
549.193	115.38
549.407	111.38
549.62	116.38
549.833	138.38
550.046	146.38
550.259	119.38
550.473	109.38
550.686	143.38
550.899	151.38
551.112	160.38
551.325	153.38
551.538	169.38
551.751	137.38
551.964	151.38
552.177	142.38
552.39	123.38
552.603	141.38
552.816	117.38
553.029	127.38
553.242	121.38
553.455	117.38
553.667	144.38
553.88	128.38
554.093	128.38
554.306	136.38
554.519	140.38
554.732	122.38
554.944	121.38
555.157	124.38
555.37	108.38
555.583	118.38
555.795	102.38
556.008	117.38
556.221	104.38
556.433	105.38
556.646	116.38
556.859	97.38
557.071	102.38
557.284	118.38
557.496	97.38
557.709	94.38
557.921	95.38
558.134	105.38
558.346	152.38
558.559	137.38
558.771	131.38
558.984	255.38
559.196	300.38
559.409	157.38
559.621	226.38
559.833	169.38
560.046	211.38
560.258	187.38
560.47	168.38
560.683	109.38
560.895	95.38
561.107	92.38
561.32	88.38
561.532	86.38
561.744	90.38
561.956	100.38
562.168	96.38
562.381	88.38
562.593	97.38
562.805	93.38
563.017	79.38
563.229	94.38
563.441	94.38
563.653	69.38
563.865	83.38
564.077	96.38
564.289	81.38
564.501	81.38
564.713	82.38
564.925	75.38
565.137	93.38
565.349	98.38
565.561	89.38
565.773	89.38
565.985	79.38
566.197	87.38
566.408	85.38
566.62	88.38
566.832	89.38
567.044	90.38
567.255	80.38
567.467	88.38
567.679	96.38
567.891	100.38
568.102	76.38
568.314	99.38
568.526	91.38
568.737	98.38
568.949	96.38
569.161	92.38
569.372	90.38
569.584	90.38
569.795	96.38
570.007	94.38
570.218	82.38
570.43	90.38
570.641	93.38
570.853	82.38
571.064	85.38
571.276	74.38
571.487	78.38
571.698	88.38
571.91	95.38
572.121	84.38
572.333	82.38
572.544	72.38
572.755	91.38
572.966	75.38
573.178	86.38
573.389	91.38
573.6	79.38
573.811	86.38
574.023	81.38
574.234	75.38
574.445	85.38
574.656	94.38
574.867	86.38
575.078	86.38
575.289	76.38
575.501	89.38
575.712	99.38
575.923	74.38
576.134	85.38
576.345	97.38
576.556	96.38
576.767	90.38
576.978	89.38
577.188	67.38
577.399	86.38
577.61	75.38
577.821	88.38
578.032	86.38
578.243	91.38
578.454	94.38
578.665	90.38
578.875	81.38
579.086	95.38
579.297	78.38
579.508	88.38
579.718	87.38
579.929	84.38
580.14	78.38
580.35	93.38
580.561	95.38
580.772	90.38
580.982	103.38
581.193	84.38
581.403	97.38
581.614	102.38
581.825	73.38
582.035	86.38
582.246	109.38
582.456	102.38
582.667	88.38
582.877	90.38
583.087	85.38
583.298	75.38
583.508	94.38
583.719	89.38
583.929	94.38
584.139	101.38
584.35	87.38
584.56	88.38
584.77	86.38
584.981	96.38
585.191	93.38
585.401	89.38
585.611	89.38
585.821	124.38
586.032	172.38
586.242	102.38
586.452	101.38
586.662	88.38
586.872	81.38
587.082	88.38
587.292	89.38
587.502	92.38
587.713	89.38
587.923	85.38
588.133	83.38
588.343	103.38
588.553	93.38
588.762	109.38
588.972	152.38
589.182	376.38
589.392	233.38
589.602	160.38
589.812	291.38
590.022	176.38
590.232	106.38
590.441	95.38
590.651	82.38
590.861	94.38
591.071	105.38
591.281	93.38
591.49	90.38
591.7	90.38
591.91	88.38
592.119	87.38
592.329	82.38
592.539	86.38
592.748	91.38
592.958	112.38
593.167	87.38
593.377	95.38
593.587	104.38
593.796	85.38
594.006	105.38
594.215	91.38
594.424	86.38
594.634	101.38
594.843	102.38
595.053	100.38
595.262	96.38
595.472	99.38
595.681	95.38
595.89	91.38
596.1	110.38
596.309	95.38
596.518	98.38
596.727	126.38
596.937	102.38
597.146	91.38
597.355	114.38
597.564	125.38
597.774	112.38
597.983	110.38
598.192	104.38
598.401	123.38
598.61	117.38
598.819	102.38
599.028	110.38
599.237	125.38
599.446	119.38
599.655	127.38
599.864	99.38
600.073	103.38
600.282	112.38
600.491	121.38
600.7	126.38
600.909	114.38
601.118	113.38
601.327	119.38
601.536	110.38
601.745	95.38
601.953	99.38
602.162	95.38
602.371	119.38
602.58	113.38
602.789	116.38
602.997	115.38
603.206	114.38
603.415	115.38
603.623	103.38
603.832	107.38
604.041	117.38
604.249	105.38
604.458	110.38
604.666	111.38
604.875	128.38
605.084	121.38
605.292	125.38
605.501	137.38
605.709	137.38
605.918	140.38
606.126	141.38
606.334	147.38
606.543	145.38
606.751	140.38
606.96	142.38
607.168	125.38
607.376	123.38
607.585	132.38
607.793	124.38
608.001	126.38
608.21	135.38
608.418	130.38
608.626	134.38
608.834	141.38
609.043	133.38
609.251	118.38
609.459	132.38
609.667	136.38
609.875	136.38
610.083	138.38
610.291	151.38
610.499	181.38
610.707	153.38
610.916	135.38
611.124	121.38
611.332	122.38
611.54	129.38
611.748	131.38
611.955	137.38
612.163	145.38
612.371	255.38
612.579	222.38
612.787	157.38
612.995	149.38
613.203	144.38
613.411	119.38
613.618	141.38
613.826	125.38
614.034	136.38
614.242	148.38
614.449	145.38
614.657	144.38
614.865	132.38
615.072	137.38
615.28	119.38
615.488	129.38
615.695	135.38
615.903	139.38
616.111	147.38
616.318	261.38
616.526	303.38
616.733	182.38
616.941	152.38
617.148	179.38
617.356	136.38
617.563	137.38
617.771	142.38
617.978	109.38
618.185	135.38
618.393	127.38
618.6	126.38
618.807	110.38
619.015	102.38
619.222	101.38
619.429	110.38
619.637	99.38
619.844	111.38
620.051	110.38
620.258	113.38
620.466	121.38
620.673	93.38
620.88	125.38
621.087	122.38
621.294	113.38
621.501	116.38
621.708	111.38
621.915	105.38
622.122	113.38
622.329	115.38
622.536	107.38
622.743	125.38
622.95	125.38
623.157	122.38
623.364	125.38
623.571	113.38
623.778	116.38
623.985	114.38
624.192	119.38
624.399	113.38
624.606	136.38
624.812	109.38
625.019	105.38
625.226	122.38
625.433	121.38
625.639	119.38
625.846	101.38
626.053	98.38
626.259	115.38
626.466	116.38
626.673	113.38
626.879	113.38
627.086	111.38
627.293	115.38
627.499	105.38
627.706	98.38
627.912	91.38
628.119	86.38
628.325	93.38
628.532	105.38
628.738	89.38
628.945	98.38
629.151	91.38
629.357	74.38
629.564	92.38
629.77	75.38
629.976	91.38
630.183	102.38
630.389	91.38
630.595	72.38
630.802	89.38
631.008	77.38
631.214	80.38
631.42	80.38
631.627	83.38
631.833	96.38
632.039	88.38
632.245	85.38
632.451	77.38
632.657	95.38
632.863	73.38
633.069	73.38
633.275	96.38
633.481	94.38
633.688	92.38
633.893	88.38
634.099	90.38
634.305	80.38
634.511	96.38
634.717	97.38
634.923	91.38
635.129	100.38
635.335	95.38
635.541	91.38
635.747	95.38
635.952	75.38
636.158	74.38
636.364	98.38
636.57	90.38
636.775	94.38
636.981	83.38
637.187	88.38
637.392	90.38
637.598	78.38
637.804	83.38
638.009	84.38
638.215	89.38
638.421	83.38
638.626	101.38
638.832	96.38
639.037	87.38
639.243	97.38
639.448	72.38
639.654	94.38
639.859	84.38
640.065	77.38
640.27	97.38
640.475	74.38
640.681	99.38
640.886	71.38
641.091	84.38
641.297	83.38
641.502	94.38
641.707	85.38
641.913	84.38
642.118	81.38
642.323	78.38
642.528	95.38
642.733	87.38
642.939	95.38
643.144	96.38
643.349	83.38
643.554	87.38
643.759	84.38
643.964	136.38
644.169	158.38
644.374	101.38
644.579	94.38
644.784	87.38
644.989	98.38
645.194	102.38
645.399	87.38
645.604	73.38
645.809	83.38
646.014	87.38
646.219	106.38
646.423	130.38
646.628	111.38
646.833	87.38
647.038	85.38
647.243	75.38
647.447	97.38
647.652	102.38
647.857	95.38
648.062	92.38
648.266	74.38
648.471	97.38
648.676	88.38
648.88	79.38
649.085	91.38
649.289	87.38
649.494	112.38
649.698	125.38
649.903	89.38
650.107	102.38
650.312	91.38
650.516	82.38
650.721	69.38
650.925	79.38
651.13	86.38
651.334	97.38
651.539	80.38
651.743	78.38
651.947	89.38
652.152	91.38
652.356	93.38
652.56	75.38
652.764	98.38
652.969	78.38
653.173	81.38
653.377	81.38
653.581	99.38
653.785	76.38
653.99	102.38
654.194	80.38
654.398	85.38
654.602	86.38
654.806	74.38
655.01	102.38
655.214	79.38
655.418	77.38
655.622	88.38
655.826	81.38
656.03	84.38
656.234	73.38
656.438	86.38
656.642	87.38
656.846	81.38
657.049	79.38
657.253	86.38
657.457	86.38
657.661	80.38
657.865	73.38
658.068	89.38
658.272	67.38
658.476	68.38
658.68	92.38
658.883	91.38
659.087	70.38
659.291	85.38
659.494	86.38
659.698	74.38
659.901	86.38
660.105	80.38
660.309	89.38
660.512	90.38
660.716	87.38
660.919	75.38
661.123	88.38
661.326	99.38
661.53	83.38
661.733	85.38
661.936	80.38
662.14	81.38
662.343	83.38
662.546	90.38
662.75	80.38
662.953	94.38
663.156	100.38
663.36	72.38
663.563	93.38
663.766	95.38
663.969	77.38
664.173	86.38
664.376	87.38
664.579	90.38
664.782	96.38
664.985	91.38
665.188	73.38
665.391	79.38
665.594	81.38
665.797	70.38
666	74.38
666.203	70.38
666.406	86.38
666.609	87.38
666.812	84.38
667.015	89.38
667.218	67.38
667.421	97.38
667.624	82.38
667.827	83.38
668.03	67.38
668.232	87.38
668.435	87.38
668.638	93.38
668.841	90.38
669.043	87.38
669.246	85.38
669.449	81.38
669.651	82.38
669.854	84.38
670.057	80.38
670.259	88.38
670.462	75.38
670.665	74.38
670.867	74.38
671.07	90.38
671.272	85.38
671.475	86.38
671.677	79.38
671.88	85.38
672.082	86.38
672.284	82.38
672.487	81.38
672.689	65.38
672.892	83.38
