Data from 18505_1_HRD10591_00010.txt Node
Date: Mon Jan 19 13:58:36 EST 2026
User: Yrep
Spectrometer: HR+D1059
Trigger mode: 1
Integration Time (sec): 1.000000E-1
Scans to average: 1
Electric dark correction enabled: true
Nonlinearity correction enabled: false
Boxcar width: 0
XAxis mode: Wavelengths
Number of Pixels in Spectrum: 2048
>>>>>Begin Spectral Data<<<<<
223.165	-11
223.4	-11
223.635	-11
223.869	-29
224.104	-30
224.338	-9
224.573	-2
224.808	-23
225.042	-4
225.277	-8
225.511	-2
225.746	8
225.98	7
226.215	13
226.449	18
226.683	12
226.918	28
227.152	32
227.387	34
227.621	41
227.856	52
228.09	48
228.324	34
228.559	60
228.793	66
229.027	61
229.262	58
229.496	69
229.73	78
229.964	68
230.199	74
230.433	58
230.667	83
230.901	78
231.136	80
231.37	77
231.604	73
231.838	62
232.072	81
232.306	76
232.541	73
232.775	68
233.009	80
233.243	80
233.477	88
233.711	81
233.945	76
234.179	86
234.413	71
234.647	81
234.881	75
235.115	82
235.349	89
235.583	71
235.817	72
236.051	77
236.285	72
236.519	80
236.753	75
236.987	57
237.221	62
237.455	66
237.689	78
237.922	70
238.156	60
238.39	66
238.624	92
238.858	74
239.091	85
239.325	69
239.559	78
239.793	74
240.027	88
240.26	65
240.494	72
240.728	52
240.961	72
241.195	94
241.429	71
241.662	58
241.896	73
242.13	81
242.363	72
242.597	95
242.83	78
243.064	71
243.298	83
243.531	64
243.765	64
243.998	92
244.232	71
244.465	84
244.699	66
244.932	66
245.166	88
245.399	74
245.633	75
245.866	70
246.099	72
246.333	89
246.566	97
246.8	73
247.033	67
247.266	90
247.5	79
247.733	82
247.966	98
248.2	79
248.433	72
248.666	79
248.899	78
249.133	71
249.366	84
249.599	81
249.832	73
250.066	81
250.299	83
250.532	72
250.765	75
250.998	76
251.231	80
251.465	84
251.698	71
251.931	69
252.164	66
252.397	83
252.63	68
252.863	75
253.096	81
253.329	84
253.562	73
253.795	87
254.028	79
254.261	80
254.494	85
254.727	82
254.96	92
255.193	87
255.426	82
255.659	95
255.892	81
256.124	85
256.357	79
256.59	93
256.823	92
257.056	94
257.289	83
257.521	76
257.754	68
257.987	92
258.22	72
258.452	80
258.685	85
258.918	89
259.151	82
259.383	78
259.616	63
259.849	70
260.081	65
260.314	80
260.547	91
260.779	89
261.012	78
261.244	93
261.477	69
261.71	78
261.942	80
262.175	93
262.407	78
262.64	80
262.872	87
263.105	68
263.337	84
263.57	85
263.802	83
264.035	90
264.267	79
264.499	78
264.732	79
264.964	68
265.197	82
265.429	88
265.661	77
265.894	82
266.126	84
266.358	81
266.591	74
266.823	76
267.055	82
267.287	83
267.52	72
267.752	84
267.984	88
268.216	83
268.448	75
268.681	68
268.913	78
269.145	94
269.377	76
269.609	70
269.841	61
270.073	80
270.306	82
270.538	77
270.77	79
271.002	90
271.234	71
271.466	84
271.698	88
271.93	72
272.162	84
272.394	72
272.626	66
272.858	86
273.09	85
273.322	86
273.553	79
273.785	89
274.017	92
274.249	80
274.481	71
274.713	79
274.945	86
275.176	80
275.408	84
275.64	70
275.872	95
276.104	89
276.335	86
276.567	68
276.799	70
277.031	83
277.262	73
277.494	77
277.726	85
277.957	79
278.189	81
278.421	78
278.652	90
278.884	84
279.115	91
279.347	95
279.579	90
279.81	85
280.042	96
280.273	90
280.505	97
280.736	90
280.968	82
281.199	91
281.431	80
281.662	84
281.894	78
282.125	86
282.356	79
282.588	85
282.819	77
283.051	92
283.282	97
283.513	80
283.745	92
283.976	94
284.207	81
284.439	89
284.67	92
284.901	80
285.132	74
285.364	89
285.595	89
285.826	81
286.057	85
286.288	71
286.52	75
286.751	86
286.982	74
287.213	77
287.444	73
287.675	81
287.906	83
288.138	84
288.369	99
288.6	90
288.831	86
289.062	88
289.293	74
289.524	92
289.755	92
289.986	85
290.217	83
290.448	93
290.679	69
290.91	71
291.141	81
291.371	88
291.602	85
291.833	88
292.064	86
292.295	102
292.526	87
292.757	88
292.987	89
293.218	89
293.449	85
293.68	80
293.91	80
294.141	83
294.372	98
294.603	93
294.833	87
295.064	95
295.295	76
295.525	83
295.756	97
295.987	71
296.217	68
296.448	84
296.679	81
296.909	85
297.14	82
297.37	84
297.601	95
297.831	83
298.062	95
298.292	87
298.523	86
298.753	84
298.984	94
299.214	95
299.445	78
299.675	97
299.905	93
300.136	83
300.366	90
300.597	77
300.827	98
301.057	93
301.288	84
301.518	81
301.748	85
301.979	103
302.209	92
302.439	88
302.669	76
302.9	82
303.13	88
303.36	98
303.59	84
303.82	84
304.051	106
304.281	82
304.511	82
304.741	87
304.971	90
305.201	88
305.431	84
305.661	80
305.891	92
306.121	86
306.352	70
306.582	78
306.812	91
307.042	83
307.272	82
307.502	80
307.731	90
307.961	79
308.191	88
308.421	102
308.651	92
308.881	88
309.111	87
309.341	96
309.571	92
309.8	82
310.03	81
310.26	84
310.49	95
310.72	98
310.949	83
311.179	94
311.409	86
311.639	88
311.868	80
312.098	83
312.328	86
312.557	88
312.787	89
313.017	93
313.246	104
313.476	85
313.706	85
313.935	89
314.165	93
314.394	81
314.624	80
314.853	85
315.083	84
315.312	95
315.542	97
315.771	98
316.001	102
316.23	100
316.46	90
316.689	78
316.919	76
317.148	93
317.377	98
317.607	103
317.836	106
318.065	114
318.295	114
318.524	96
318.753	80
318.983	75
319.212	87
319.441	87
319.67	74
319.9	86
320.129	94
320.358	101
320.587	85
320.816	83
321.046	88
321.275	89
321.504	92
321.733	98
321.962	74
322.191	86
322.42	86
322.649	105
322.878	89
323.108	84
323.337	74
323.566	88
323.795	85
324.024	83
324.253	93
324.482	78
324.71	96
324.939	73
325.168	87
325.397	96
325.626	95
325.855	89
326.084	86
326.313	81
326.542	84
326.77	83
326.999	78
327.228	85
327.457	80
327.686	94
327.914	93
328.143	91
328.372	94
328.6	89
328.829	86
329.058	100
329.287	95
329.515	76
329.744	93
329.972	94
330.201	75
330.43	88
330.658	89
330.887	80
331.115	92
331.344	80
331.572	97
331.801	78
332.03	86
332.258	80
332.486	89
332.715	84
332.943	96
333.172	85
333.4	80
333.629	96
333.857	93
334.085	82
334.314	95
334.542	86
334.771	72
334.999	100
335.227	95
335.455	95
335.684	104
335.912	94
336.14	89
336.369	85
336.597	85
336.825	83
337.053	87
337.281	71
337.51	86
337.738	74
337.966	91
338.194	92
338.422	84
338.65	75
338.878	84
339.106	88
339.334	74
339.562	94
339.79	75
340.018	86
340.246	97
340.474	82
340.702	84
340.93	93
341.158	102
341.386	68
341.614	82
341.842	79
342.07	74
342.298	96
342.526	82
342.754	75
342.981	87
343.209	98
343.437	110
343.665	92
343.893	87
344.12	96
344.348	93
344.576	92
344.804	88
345.031	100
345.259	92
345.487	85
345.714	97
345.942	86
346.17	85
346.397	92
346.625	96
346.853	73
347.08	79
347.308	90
347.535	81
347.763	101
347.99	81
348.218	84
348.445	92
348.673	92
348.9	94
349.128	85
349.355	98
349.583	74
349.81	83
350.037	87
350.265	89
350.492	84
350.72	76
350.947	75
351.174	80
351.402	95
351.629	88
351.856	84
352.083	74
352.311	77
352.538	82
352.765	88
352.992	92
353.22	77
353.447	71
353.674	74
353.901	81
354.128	75
354.355	79
354.583	98
354.81	72
355.037	95
355.264	100
355.491	89
355.718	84
355.945	96
356.172	73
356.399	91
356.626	91
356.853	79
357.08	112
357.307	98
357.534	85
357.761	95
357.988	81
358.215	95
358.441	92
358.668	81
358.895	86
359.122	79
359.349	90
359.576	104
359.802	84
360.029	80
360.256	78
360.483	69
360.709	59
360.936	98
361.163	83
361.39	93
361.616	86
361.843	100
362.07	96
362.296	104
362.523	103
362.749	99
362.976	103
363.203	124
363.429	92
363.656	90
363.882	92
364.109	106
364.335	121
364.562	132
364.788	113
365.015	87
365.241	90
365.468	91
365.694	79
365.92	80
366.147	86
366.373	80
366.599	74
366.826	76
367.052	74
367.278	87
367.505	100
367.731	76
367.957	94
368.184	93
368.41	73
368.636	93
368.862	111
369.089	77
369.315	85
369.541	96
369.767	86
369.993	95
370.219	83
370.445	116
370.672	101
370.898	94
371.124	88
371.35	94
371.576	92
371.802	91
372.028	102
372.254	94
372.48	87
372.706	85
372.932	89
373.158	106
373.384	115
373.61	126
373.835	157
374.061	111
374.287	88
374.513	98
374.739	80
374.965	100
375.191	101
375.416	86
375.642	80
375.868	88
376.094	93
376.319	74
376.545	95
376.771	94
376.997	87
377.222	82
377.448	90
377.674	89
377.899	92
378.125	78
378.35	108
378.576	88
378.802	82
379.027	89
379.253	100
379.478	94
379.704	102
379.929	81
380.155	84
380.38	92
380.606	82
380.831	84
381.057	97
381.282	79
381.507	91
381.733	96
381.958	78
382.184	103
382.409	96
382.634	97
382.86	96
383.085	102
383.31	107
383.535	88
383.761	94
383.986	97
384.211	97
384.436	80
384.662	85
384.887	85
385.112	93
385.337	81
385.562	85
385.787	93
386.013	88
386.238	102
386.463	90
386.688	117
386.913	91
387.138	86
387.363	94
387.588	100
387.813	120
388.038	98
388.263	105
388.488	91
388.713	89
388.938	97
389.163	93
389.387	87
389.612	96
389.837	83
390.062	79
390.287	96
390.512	87
390.736	76
390.961	92
391.186	100
391.411	114
391.636	84
391.86	91
392.085	91
392.31	102
392.534	116
392.759	156
392.984	261
393.208	539
393.433	863
393.658	624
393.882	225
394.107	134
394.331	123
394.556	124
394.78	97
395.005	94
395.229	92
395.454	109
395.678	104
395.903	136
396.127	178
396.352	207
396.576	299
396.801	561
397.025	646
397.249	289
397.474	144
397.698	106
397.922	103
398.147	92
398.371	87
398.595	103
398.82	89
399.044	78
399.268	73
399.492	83
399.717	84
399.941	78
400.165	88
400.389	73
400.613	86
400.837	85
401.062	85
401.286	92
401.51	79
401.734	86
401.958	86
402.182	100
402.406	80
402.63	79
402.854	75
403.078	78
403.302	92
403.526	79
403.75	69
403.974	84
404.198	85
404.422	101
404.645	89
404.869	95
405.093	94
405.317	79
405.541	98
405.765	91
405.988	93
406.212	83
406.436	80
406.66	96
406.883	81
407.107	93
407.331	94
407.555	103
407.778	154
408.002	177
408.226	104
408.449	89
408.673	92
408.896	75
409.12	70
409.344	102
409.567	102
409.791	80
410.014	108
410.238	72
410.461	85
410.685	89
410.908	81
411.132	89
411.355	110
411.578	95
411.802	84
412.025	88
412.249	90
412.472	84
412.695	70
412.919	93
413.142	91
413.365	79
413.589	89
413.812	89
414.035	98
414.258	102
414.482	96
414.705	84
414.928	97
415.151	72
415.374	78
415.597	86
415.821	81
416.044	82
416.267	80
416.49	96
416.713	92
416.936	75
417.159	88
417.382	88
417.605	82
417.828	90
418.051	74
418.274	75
418.497	87
418.72	88
418.943	91
419.166	80
419.389	94
419.611	85
419.834	88
420.057	78
420.28	80
420.503	78
420.726	85
420.948	97
421.171	99
421.394	125
421.617	151
421.839	152
422.062	133
422.285	180
422.507	347
422.73	624
422.953	549
423.175	220
423.398	126
423.621	98
423.843	98
424.066	89
424.288	89
424.511	78
424.733	90
424.956	94
425.178	99
425.401	74
425.623	77
425.846	89
426.068	89
426.291	94
426.513	104
426.735	85
426.958	93
427.18	85
427.402	80
427.625	85
427.847	86
428.069	117
428.292	129
428.514	153
428.736	118
428.958	151
429.181	146
429.403	100
429.625	94
429.847	131
430.069	202
430.292	229
430.514	222
430.736	160
430.958	165
431.18	103
431.402	99
431.624	99
431.846	150
432.068	173
432.29	106
432.512	94
432.734	100
432.956	93
433.178	99
433.4	84
433.622	84
433.844	89
434.066	80
434.287	90
434.509	76
434.731	84
434.953	89
435.175	83
435.397	95
435.618	103
435.84	88
436.062	71
436.284	88
436.505	83
436.727	78
436.949	81
437.17	87
437.392	73
437.614	86
437.835	88
438.057	77
438.278	94
438.5	84
438.721	71
438.943	85
439.165	81
439.386	89
439.608	81
439.829	68
440.05	92
440.272	79
440.493	78
440.715	97
440.936	84
441.158	91
441.379	82
441.6	83
441.822	108
442.043	96
442.264	88
442.486	166
442.707	214
442.928	142
443.149	103
443.371	166
443.592	299
443.813	257
444.034	138
444.255	97
444.476	98
444.698	92
444.919	96
445.14	172
445.361	240
445.582	352
445.803	300
446.024	152
446.245	84
446.466	93
446.687	74
446.908	98
447.129	87
447.35	86
447.571	78
447.792	77
448.013	93
448.234	93
448.455	79
448.675	91
448.896	82
449.117	78
449.338	79
449.559	82
449.779	82
450	92
450.221	78
450.442	82
450.662	82
450.883	88
451.104	73
451.324	94
451.545	71
451.766	90
451.986	90
452.207	91
452.428	88
452.648	83
452.869	94
453.089	94
453.31	74
453.53	89
453.751	103
453.971	84
454.192	69
454.412	83
454.633	79
454.853	92
455.073	83
455.294	89
455.514	86
455.734	96
455.955	86
456.175	81
456.395	92
456.616	76
456.836	103
457.056	80
457.276	74
457.497	89
457.717	96
457.937	113
458.157	112
458.377	108
458.598	132
458.818	133
459.038	101
459.258	88
459.478	88
459.698	85
459.918	84
460.138	86
460.358	95
460.578	120
460.798	134
461.018	135
461.238	88
461.458	89
461.678	82
461.898	97
462.118	84
462.338	78
462.558	92
462.777	78
462.997	79
463.217	70
463.437	102
463.657	85
463.876	80
464.096	65
464.316	84
464.536	88
464.755	87
464.975	80
465.195	101
465.414	73
465.634	89
465.854	88
466.073	77
466.293	100
466.512	84
466.732	98
466.951	73
467.171	74
467.391	81
467.61	79
467.829	73
468.049	74
468.268	85
468.488	80
468.707	82
468.927	85
469.146	90
469.365	92
469.585	71
469.804	90
470.023	89
470.243	94
470.462	85
470.681	70
470.901	96
471.12	80
471.339	88
471.558	73
471.777	91
471.997	80
472.216	92
472.435	77
472.654	92
472.873	77
473.092	75
473.311	79
473.53	80
473.749	86
473.968	88
474.187	77
474.406	72
474.625	95
474.844	87
475.063	84
475.282	81
475.501	82
475.72	97
475.939	71
476.158	79
476.377	73
476.596	78
476.814	86
477.033	90
477.252	79
477.471	65
477.69	73
477.908	74
478.127	75
478.346	85
478.564	85
478.783	87
479.002	92
479.22	64
479.439	94
479.658	88
479.876	65
480.095	81
480.313	84
480.532	84
480.751	95
480.969	84
481.188	71
481.406	98
481.624	96
481.843	75
482.061	84
482.28	94
482.498	94
482.717	93
482.935	100
483.153	92
483.372	89
483.59	80
483.808	85
484.027	96
484.245	91
484.463	93
484.681	87
484.9	102
485.118	90
485.336	89
485.554	90
485.772	81
485.99	72
486.209	85
486.427	83
486.645	101
486.863	84
487.081	90
487.299	100
487.517	99
487.735	115
487.953	190
488.171	147
488.389	106
488.607	78
488.825	88
489.043	92
489.261	94
489.479	85
489.696	93
489.914	79
490.132	82
490.35	90
490.568	81
490.786	81
491.003	92
491.221	93
491.439	89
491.657	72
491.874	99
492.092	78
492.31	96
492.527	80
492.745	87
492.963	82
493.18	89
493.398	97
493.615	117
493.833	94
494.05	79
494.268	97
494.485	92
494.703	88
494.92	77
495.138	78
495.355	88
495.573	84
495.79	101
496.008	91
496.225	92
496.442	96
496.66	89
496.877	93
497.094	89
497.312	79
497.529	90
497.746	87
497.963	68
498.181	76
498.398	91
498.615	93
498.832	91
499.049	99
499.267	89
499.484	94
499.701	82
499.918	90
500.135	86
500.352	84
500.569	72
500.786	93
501.003	93
501.22	89
501.437	83
501.654	101
501.871	84
502.088	86
502.305	93
502.522	85
502.739	98
502.956	93
503.172	95
503.389	85
503.606	79
503.823	91
504.04	109
504.256	152
504.473	131
504.69	86
504.907	80
505.123	74
505.34	101
505.557	86
505.773	78
505.99	86
506.207	90
506.423	86
506.64	103
506.856	73
507.073	87
507.289	96
507.506	97
507.722	98
507.939	74
508.155	83
508.372	88
508.588	100
508.805	95
509.021	88
509.238	80
509.454	85
509.67	83
509.887	93
510.103	80
510.319	84
510.536	74
510.752	75
510.968	85
511.184	89
511.401	104
511.617	81
511.833	71
512.049	105
512.265	95
512.481	90
512.698	70
512.914	81
513.13	101
513.346	92
513.562	87
513.778	97
513.994	96
514.21	92
514.426	96
514.642	85
514.858	83
515.074	89
515.29	83
515.506	81
515.721	85
515.937	86
516.153	88
516.369	84
516.585	86
516.801	93
517.016	104
517.232	82
517.448	116
517.664	85
517.879	74
518.095	85
518.311	108
518.527	117
518.742	119
518.958	173
519.173	169
519.389	106
519.605	85
519.82	93
520.036	73
520.251	90
520.467	93
520.682	98
520.898	87
521.113	77
521.329	83
521.544	85
521.76	100
521.975	84
522.19	86
522.406	94
522.621	88
522.836	96
523.052	84
523.267	96
523.482	81
523.698	90
523.913	78
524.128	93
524.343	96
524.559	93
524.774	106
524.989	89
525.204	110
525.419	105
525.634	98
525.849	108
526.064	128
526.28	246
526.495	359
526.71	396
526.925	252
527.14	334
527.355	310
527.57	113
527.785	102
527.999	82
528.214	87
528.429	85
528.644	80
528.859	86
529.074	96
529.289	87
529.503	88
529.718	96
529.933	90
530.148	96
530.363	92
530.577	88
530.792	100
531.007	92
531.221	98
531.436	87
531.651	94
531.865	98
532.08	92
532.295	88
532.509	92
532.724	82
532.938	87
533.153	92
533.367	91
533.582	95
533.796	105
534.011	97
534.225	93
534.44	93
534.654	117
534.868	112
535.083	194
535.297	153
535.511	107
535.726	97
535.94	110
536.154	96
536.369	102
536.583	81
536.797	101
537.011	103
537.225	97
537.44	108
537.654	90
537.868	94
538.082	96
538.296	89
538.51	102
538.724	106
538.938	96
539.153	92
539.367	97
539.581	95
539.795	90
540.009	98
540.222	112
540.436	84
540.65	98
540.864	93
541.078	101
541.292	99
541.506	102
541.72	106
541.934	93
542.147	105
542.361	101
542.575	95
542.789	78
543.002	85
543.216	84
543.43	94
543.644	93
543.857	100
544.071	87
544.285	91
544.498	93
544.712	103
544.925	91
545.139	105
545.352	114
545.566	102
545.779	113
545.993	103
546.206	118
546.42	110
546.633	108
546.847	90
547.06	117
547.274	143
547.487	157
547.7	177
547.914	162
548.127	167
548.34	173
548.554	174
548.767	164
548.98	164
549.193	158
549.407	175
549.62	188
549.833	200
550.046	204
550.259	208
550.473	180
550.686	219
550.899	223
551.112	254
551.325	263
551.538	287
551.751	258
551.964	241
552.177	236
552.39	225
552.603	220
552.816	217
553.029	208
553.242	218
553.455	209
553.667	227
553.88	223
554.093	221
554.306	232
554.519	216
554.732	225
554.944	199
555.157	207
555.37	189
555.583	196
555.795	181
556.008	172
556.221	162
556.433	149
556.646	144
556.859	135
557.071	146
557.284	136
557.496	138
557.709	134
557.921	135
558.134	142
558.346	216
558.559	186
558.771	181
558.984	419
559.196	518
559.409	248
559.621	399
559.833	282
560.046	325
560.258	261
560.47	265
560.683	148
560.895	111
561.107	108
561.32	105
561.532	111
561.744	112
561.956	98
562.168	88
562.381	104
562.593	102
562.805	103
563.017	93
563.229	95
563.441	106
563.653	100
563.865	100
564.077	103
564.289	91
564.501	93
564.713	93
564.925	82
565.137	94
565.349	93
565.561	113
565.773	85
565.985	86
566.197	92
566.408	92
566.62	86
566.832	94
567.044	86
567.255	102
567.467	94
567.679	102
567.891	80
568.102	82
568.314	81
568.526	105
568.737	102
568.949	93
569.161	101
569.372	95
569.584	94
569.795	92
570.007	104
570.218	82
570.43	100
570.641	107
570.853	86
571.064	96
571.276	103
571.487	90
571.698	94
571.91	98
572.121	77
572.333	110
572.544	103
572.755	96
572.966	101
573.178	87
573.389	95
573.6	99
573.811	92
574.023	82
574.234	102
574.445	95
574.656	82
574.867	89
575.078	111
575.289	90
575.501	96
575.712	97
575.923	79
576.134	91
576.345	97
576.556	95
576.767	96
576.978	81
577.188	83
577.399	89
577.61	92
577.821	85
578.032	82
578.243	88
578.454	83
578.665	112
578.875	84
579.086	93
579.297	90
579.508	96
579.718	94
579.929	98
580.14	99
580.35	92
580.561	105
580.772	85
580.982	83
581.193	96
581.403	96
581.614	96
581.825	92
582.035	96
582.246	94
582.456	85
582.667	78
582.877	97
583.087	99
583.298	92
583.508	86
583.719	97
583.929	90
584.139	97
584.35	83
584.56	88
584.77	83
584.981	100
585.191	106
585.401	98
585.611	102
585.821	198
586.032	280
586.242	122
586.452	103
586.662	85
586.872	106
587.082	105
587.292	113
587.502	103
587.713	110
587.923	109
588.133	102
588.343	116
588.553	116
588.762	145
588.972	258
589.182	721
589.392	485
589.602	326
589.812	649
590.022	321
590.232	172
590.441	116
590.651	106
590.861	126
591.071	105
591.281	108
591.49	103
591.7	112
591.91	122
592.119	110
592.329	108
592.539	112
592.748	113
592.958	111
593.167	99
593.377	95
593.587	113
593.796	113
594.006	119
594.215	125
594.424	133
594.634	117
594.843	119
595.053	132
595.262	112
595.472	148
595.681	134
595.89	129
596.1	138
596.309	136
596.518	157
596.727	189
596.937	167
597.146	164
597.355	165
597.564	161
597.774	162
597.983	158
598.192	160
598.401	163
598.61	192
598.819	179
599.028	166
599.237	174
599.446	182
599.655	186
599.864	165
600.073	167
600.282	157
600.491	166
600.7	188
600.909	156
601.118	152
601.327	137
601.536	135
601.745	122
601.953	126
602.162	137
602.371	160
602.58	151
602.789	150
602.997	154
603.206	169
603.415	161
603.623	165
603.832	187
604.041	175
604.249	177
604.458	191
604.666	192
604.875	189
605.084	183
605.292	197
605.501	203
605.709	206
605.918	198
606.126	212
606.334	229
606.543	218
606.751	208
606.96	203
607.168	186
607.376	193
607.585	190
607.793	201
608.001	175
608.21	170
608.418	177
608.626	188
608.834	188
609.043	191
609.251	209
609.459	193
609.667	192
609.875	244
610.083	225
610.291	212
610.499	337
610.707	228
610.916	201
611.124	236
611.332	207
611.54	203
611.748	210
611.955	226
612.163	245
612.371	478
612.579	385
612.787	257
612.995	223
613.203	242
613.411	211
613.618	212
613.826	206
614.034	209
614.242	232
614.449	229
614.657	230
614.865	213
615.072	211
615.28	206
615.488	216
615.695	222
615.903	236
616.111	239
616.318	470
616.526	524
616.733	294
616.941	276
617.148	354
617.356	257
617.563	216
617.771	198
617.978	190
618.185	188
618.393	175
618.6	193
618.807	184
619.015	174
619.222	158
619.429	173
619.637	154
619.844	175
620.051	169
620.258	152
620.466	176
620.673	163
620.88	180
621.087	172
621.294	175
621.501	169
621.708	162
621.915	163
622.122	175
622.329	167
622.536	163
622.743	167
622.95	178
623.157	170
623.364	186
623.571	162
623.778	168
623.985	165
624.192	158
624.399	169
624.606	163
624.812	166
625.019	166
625.226	149
625.433	153
625.639	169
625.846	149
626.053	160
626.259	166
626.466	149
626.673	145
626.879	126
627.086	131
627.293	142
627.499	131
627.706	139
627.912	118
628.119	120
628.325	125
628.532	127
628.738	102
628.945	89
629.151	102
629.357	108
629.564	106
629.77	104
629.976	101
630.183	90
630.389	105
630.595	101
630.802	83
631.008	106
631.214	103
631.42	89
631.627	102
631.833	108
632.039	101
632.245	106
632.451	112
632.657	101
632.863	103
633.069	83
633.275	93
633.481	93
633.688	105
633.893	98
634.099	101
634.305	91
634.511	93
634.717	93
634.923	94
635.129	100
635.335	108
635.541	110
635.747	101
635.952	96
636.158	111
636.364	117
636.57	101
636.775	96
636.981	87
637.187	102
637.392	85
637.598	111
637.804	96
638.009	91
638.215	89
638.421	115
638.626	100
638.832	93
639.037	93
639.243	95
639.448	94
639.654	108
639.859	96
640.065	99
640.27	90
640.475	93
640.681	90
640.886	104
641.091	99
641.297	99
641.502	99
641.707	100
641.913	96
642.118	84
642.323	99
642.528	97
642.733	102
642.939	97
643.144	105
643.349	92
643.554	96
643.759	100
643.964	166
644.169	232
644.374	146
644.579	93
644.784	89
644.989	90
645.194	137
645.399	114
645.604	99
645.809	100
646.014	102
646.219	111
646.423	224
646.628	146
646.833	106
647.038	95
647.243	123
647.447	120
647.652	101
647.857	83
648.062	97
648.266	84
648.471	91
648.676	87
648.88	98
649.085	84
649.289	95
649.494	126
649.698	143
649.903	108
650.107	84
650.312	104
650.516	80
650.721	93
650.925	76
651.13	81
651.334	87
651.539	84
651.743	84
651.947	88
652.152	98
652.356	85
652.56	81
652.764	73
652.969	90
653.173	84
653.377	64
653.581	93
653.785	81
653.99	84
654.194	87
654.398	68
654.602	76
654.806	78
655.01	87
655.214	75
655.418	104
655.622	88
655.826	74
656.03	77
656.234	82
656.438	79
656.642	92
656.846	86
657.049	85
657.253	80
657.457	90
657.661	74
657.865	91
658.068	82
658.272	90
658.476	84
658.68	80
658.883	83
659.087	68
659.291	64
659.494	90
659.698	87
659.901	80
660.105	78
660.309	83
660.512	93
660.716	81
660.919	89
661.123	75
661.326	84
661.53	87
661.733	78
661.936	80
662.14	86
662.343	94
662.546	80
662.75	89
662.953	81
663.156	88
663.36	86
663.563	81
663.766	90
663.969	78
664.173	88
664.376	85
664.579	79
664.782	80
664.985	85
665.188	84
665.391	82
665.594	72
665.797	87
666	87
666.203	74
666.406	73
666.609	89
666.812	84
667.015	80
667.218	84
667.421	80
667.624	76
667.827	79
668.03	84
668.232	87
668.435	80
668.638	78
668.841	83
669.043	74
669.246	96
669.449	85
669.651	86
669.854	87
670.057	80
670.259	78
670.462	92
670.665	70
670.867	72
671.07	96
671.272	94
671.475	93
671.677	81
671.88	86
672.082	79
672.284	69
672.487	73
672.689	78
672.892	96
