Data from 18505_1_HRD10591_00018.txt Node
Date: Mon Jan 19 13:58:40 EST 2026
User: Yrep
Spectrometer: HR+D1059
Trigger mode: 1
Integration Time (sec): 1.000000E-1
Scans to average: 1
Electric dark correction enabled: true
Nonlinearity correction enabled: false
Boxcar width: 0
XAxis mode: Wavelengths
Number of Pixels in Spectrum: 2048
>>>>>Begin Spectral Data<<<<<
223.165	-7.88
223.4	-7.88
223.635	-7.88
223.869	-26.88
224.104	-31.88
224.338	-4.88
224.573	-24.88
224.808	-3.88
225.042	-13.88
225.277	-12.88
225.511	4.12
225.746	10.12
225.98	11.12
226.215	11.12
226.449	11.12
226.683	26.12
226.918	25.12
227.152	28.12
227.387	34.12
227.621	42.12
227.856	53.12
228.09	55.12
228.324	64.12
228.559	73.12
228.793	55.12
229.027	56.12
229.262	58.12
229.496	64.12
229.73	62.12
229.964	77.12
230.199	79.12
230.433	53.12
230.667	67.12
230.901	85.12
231.136	72.12
231.37	84.12
231.604	79.12
231.838	85.12
232.072	83.12
232.306	88.12
232.541	96.12
232.775	89.12
233.009	78.12
233.243	81.12
233.477	80.12
233.711	84.12
233.945	84.12
234.179	87.12
234.413	85.12
234.647	84.12
234.881	87.12
235.115	93.12
235.349	81.12
235.583	82.12
235.817	78.12
236.051	76.12
236.285	81.12
236.519	79.12
236.753	88.12
236.987	81.12
237.221	83.12
237.455	72.12
237.689	78.12
237.922	87.12
238.156	76.12
238.39	67.12
238.624	59.12
238.858	77.12
239.091	80.12
239.325	88.12
239.559	75.12
239.793	91.12
240.027	69.12
240.26	73.12
240.494	64.12
240.728	67.12
240.961	87.12
241.195	83.12
241.429	78.12
241.662	66.12
241.896	77.12
242.13	77.12
242.363	73.12
242.597	89.12
242.83	69.12
243.064	73.12
243.298	75.12
243.531	82.12
243.765	70.12
243.998	81.12
244.232	77.12
244.465	87.12
244.699	69.12
244.932	83.12
245.166	81.12
245.399	87.12
245.633	95.12
245.866	68.12
246.099	83.12
246.333	83.12
246.566	73.12
246.8	76.12
247.033	85.12
247.266	73.12
247.5	92.12
247.733	73.12
247.966	84.12
248.2	88.12
248.433	88.12
248.666	87.12
248.899	96.12
249.133	83.12
249.366	73.12
249.599	84.12
249.832	90.12
250.066	89.12
250.299	87.12
250.532	74.12
250.765	71.12
250.998	82.12
251.231	81.12
251.465	72.12
251.698	88.12
251.931	83.12
252.164	80.12
252.397	78.12
252.63	83.12
252.863	91.12
253.096	86.12
253.329	80.12
253.562	82.12
253.795	96.12
254.028	89.12
254.261	87.12
254.494	84.12
254.727	75.12
254.96	87.12
255.193	88.12
255.426	79.12
255.659	74.12
255.892	88.12
256.124	84.12
256.357	84.12
256.59	79.12
256.823	71.12
257.056	72.12
257.289	72.12
257.521	70.12
257.754	89.12
257.987	93.12
258.22	73.12
258.452	77.12
258.685	78.12
258.918	72.12
259.151	83.12
259.383	87.12
259.616	56.12
259.849	95.12
260.081	85.12
260.314	85.12
260.547	101.12
260.779	88.12
261.012	81.12
261.244	95.12
261.477	77.12
261.71	87.12
261.942	67.12
262.175	83.12
262.407	84.12
262.64	99.12
262.872	72.12
263.105	100.12
263.337	73.12
263.57	83.12
263.802	71.12
264.035	77.12
264.267	79.12
264.499	81.12
264.732	86.12
264.964	87.12
265.197	83.12
265.429	92.12
265.661	83.12
265.894	72.12
266.126	91.12
266.358	80.12
266.591	82.12
266.823	91.12
267.055	83.12
267.287	74.12
267.52	75.12
267.752	72.12
267.984	91.12
268.216	89.12
268.448	92.12
268.681	85.12
268.913	84.12
269.145	91.12
269.377	87.12
269.609	81.12
269.841	110.12
270.073	91.12
270.306	80.12
270.538	73.12
270.77	85.12
271.002	98.12
271.234	101.12
271.466	74.12
271.698	82.12
271.93	81.12
272.162	80.12
272.394	88.12
272.626	81.12
272.858	73.12
273.09	84.12
273.322	76.12
273.553	91.12
273.785	80.12
274.017	65.12
274.249	97.12
274.481	88.12
274.713	75.12
274.945	77.12
275.176	99.12
275.408	92.12
275.64	78.12
275.872	73.12
276.104	83.12
276.335	88.12
276.567	79.12
276.799	83.12
277.031	78.12
277.262	91.12
277.494	81.12
277.726	80.12
277.957	90.12
278.189	89.12
278.421	92.12
278.652	83.12
278.884	85.12
279.115	95.12
279.347	95.12
279.579	82.12
279.81	94.12
280.042	99.12
280.273	85.12
280.505	83.12
280.736	81.12
280.968	87.12
281.199	92.12
281.431	89.12
281.662	76.12
281.894	81.12
282.125	82.12
282.356	89.12
282.588	81.12
282.819	87.12
283.051	84.12
283.282	74.12
283.513	88.12
283.745	108.12
283.976	98.12
284.207	85.12
284.439	83.12
284.67	91.12
284.901	91.12
285.132	86.12
285.364	89.12
285.595	93.12
285.826	91.12
286.057	73.12
286.288	91.12
286.52	82.12
286.751	81.12
286.982	95.12
287.213	84.12
287.444	81.12
287.675	87.12
287.906	90.12
288.138	77.12
288.369	99.12
288.6	88.12
288.831	82.12
289.062	116.12
289.293	86.12
289.524	89.12
289.755	80.12
289.986	88.12
290.217	102.12
290.448	92.12
290.679	81.12
290.91	87.12
291.141	84.12
291.371	71.12
291.602	84.12
291.833	100.12
292.064	92.12
292.295	84.12
292.526	83.12
292.757	80.12
292.987	89.12
293.218	100.12
293.449	93.12
293.68	96.12
293.91	81.12
294.141	82.12
294.372	93.12
294.603	91.12
294.833	73.12
295.064	91.12
295.295	91.12
295.525	91.12
295.756	78.12
295.987	86.12
296.217	84.12
296.448	89.12
296.679	87.12
296.909	83.12
297.14	87.12
297.37	93.12
297.601	86.12
297.831	85.12
298.062	82.12
298.292	77.12
298.523	80.12
298.753	92.12
298.984	86.12
299.214	75.12
299.445	79.12
299.675	81.12
299.905	89.12
300.136	89.12
300.366	104.12
300.597	82.12
300.827	91.12
301.057	92.12
301.288	87.12
301.518	90.12
301.748	72.12
301.979	111.12
302.209	108.12
302.439	97.12
302.669	75.12
302.9	89.12
303.13	73.12
303.36	75.12
303.59	90.12
303.82	89.12
304.051	96.12
304.281	93.12
304.511	89.12
304.741	81.12
304.971	85.12
305.201	80.12
305.431	77.12
305.661	98.12
305.891	87.12
306.121	87.12
306.352	98.12
306.582	88.12
306.812	89.12
307.042	84.12
307.272	77.12
307.502	93.12
307.731	81.12
307.961	108.12
308.191	83.12
308.421	101.12
308.651	96.12
308.881	80.12
309.111	85.12
309.341	92.12
309.571	92.12
309.8	80.12
310.03	92.12
310.26	96.12
310.49	85.12
310.72	96.12
310.949	85.12
311.179	100.12
311.409	96.12
311.639	90.12
311.868	90.12
312.098	93.12
312.328	95.12
312.557	93.12
312.787	74.12
313.017	93.12
313.246	89.12
313.476	73.12
313.706	87.12
313.935	75.12
314.165	90.12
314.394	92.12
314.624	91.12
314.853	95.12
315.083	82.12
315.312	93.12
315.542	80.12
315.771	90.12
316.001	88.12
316.23	91.12
316.46	82.12
316.689	89.12
316.919	93.12
317.148	93.12
317.377	104.12
317.607	87.12
317.836	95.12
318.065	99.12
318.295	92.12
318.524	81.12
318.753	92.12
318.983	76.12
319.212	91.12
319.441	81.12
319.67	90.12
319.9	93.12
320.129	85.12
320.358	89.12
320.587	84.12
320.816	95.12
321.046	93.12
321.275	85.12
321.504	83.12
321.733	99.12
321.962	89.12
322.191	91.12
322.42	98.12
322.649	98.12
322.878	99.12
323.108	82.12
323.337	81.12
323.566	88.12
323.795	92.12
324.024	82.12
324.253	85.12
324.482	84.12
324.71	95.12
324.939	92.12
325.168	83.12
325.397	104.12
325.626	91.12
325.855	77.12
326.084	79.12
326.313	79.12
326.542	82.12
326.77	87.12
326.999	82.12
327.228	85.12
327.457	98.12
327.686	80.12
327.914	80.12
328.143	81.12
328.372	86.12
328.6	81.12
328.829	89.12
329.058	79.12
329.287	86.12
329.515	92.12
329.744	97.12
329.972	91.12
330.201	78.12
330.43	86.12
330.658	84.12
330.887	84.12
331.115	104.12
331.344	83.12
331.572	79.12
331.801	81.12
332.03	80.12
332.258	102.12
332.486	93.12
332.715	84.12
332.943	75.12
333.172	91.12
333.4	88.12
333.629	85.12
333.857	83.12
334.085	96.12
334.314	77.12
334.542	77.12
334.771	92.12
334.999	104.12
335.227	93.12
335.455	93.12
335.684	88.12
335.912	87.12
336.14	101.12
336.369	93.12
336.597	83.12
336.825	87.12
337.053	84.12
337.281	93.12
337.51	95.12
337.738	83.12
337.966	83.12
338.194	75.12
338.422	100.12
338.65	70.12
338.878	89.12
339.106	87.12
339.334	101.12
339.562	79.12
339.79	88.12
340.018	73.12
340.246	82.12
340.474	103.12
340.702	81.12
340.93	76.12
341.158	89.12
341.386	91.12
341.614	74.12
341.842	94.12
342.07	88.12
342.298	87.12
342.526	87.12
342.754	82.12
342.981	82.12
343.209	86.12
343.437	88.12
343.665	67.12
343.893	81.12
344.12	89.12
344.348	84.12
344.576	95.12
344.804	95.12
345.031	88.12
345.259	96.12
345.487	89.12
345.714	88.12
345.942	84.12
346.17	87.12
346.397	93.12
346.625	92.12
346.853	93.12
347.08	93.12
347.308	71.12
347.535	86.12
347.763	95.12
347.99	83.12
348.218	80.12
348.445	77.12
348.673	111.12
348.9	95.12
349.128	84.12
349.355	88.12
349.583	87.12
349.81	96.12
350.037	101.12
350.265	100.12
350.492	78.12
350.72	79.12
350.947	73.12
351.174	74.12
351.402	91.12
351.629	74.12
351.856	74.12
352.083	92.12
352.311	88.12
352.538	100.12
352.765	96.12
352.992	91.12
353.22	90.12
353.447	68.12
353.674	90.12
353.901	79.12
354.128	89.12
354.355	87.12
354.583	92.12
354.81	86.12
355.037	89.12
355.264	82.12
355.491	98.12
355.718	89.12
355.945	82.12
356.172	84.12
356.399	74.12
356.626	77.12
356.853	88.12
357.08	88.12
357.307	87.12
357.534	85.12
357.761	90.12
357.988	103.12
358.215	80.12
358.441	81.12
358.668	88.12
358.895	94.12
359.122	89.12
359.349	91.12
359.576	89.12
359.802	74.12
360.029	87.12
360.256	93.12
360.483	84.12
360.709	98.12
360.936	102.12
361.163	79.12
361.39	85.12
361.616	96.12
361.843	84.12
362.07	101.12
362.296	88.12
362.523	94.12
362.749	92.12
362.976	99.12
363.203	102.12
363.429	86.12
363.656	77.12
363.882	89.12
364.109	89.12
364.335	113.12
364.562	108.12
364.788	90.12
365.015	99.12
365.241	90.12
365.468	94.12
365.694	82.12
365.92	67.12
366.147	78.12
366.373	89.12
366.599	82.12
366.826	85.12
367.052	79.12
367.278	94.12
367.505	82.12
367.731	85.12
367.957	83.12
368.184	84.12
368.41	84.12
368.636	99.12
368.862	88.12
369.089	87.12
369.315	90.12
369.541	96.12
369.767	84.12
369.993	79.12
370.219	86.12
370.445	81.12
370.672	75.12
370.898	83.12
371.124	87.12
371.35	82.12
371.576	91.12
371.802	92.12
372.028	96.12
372.254	87.12
372.48	84.12
372.706	89.12
372.932	91.12
373.158	83.12
373.384	92.12
373.61	101.12
373.835	96.12
374.061	96.12
374.287	91.12
374.513	99.12
374.739	88.12
374.965	84.12
375.191	92.12
375.416	104.12
375.642	91.12
375.868	91.12
376.094	91.12
376.319	89.12
376.545	85.12
376.771	93.12
376.997	89.12
377.222	93.12
377.448	86.12
377.674	95.12
377.899	82.12
378.125	88.12
378.35	78.12
378.576	81.12
378.802	88.12
379.027	80.12
379.253	96.12
379.478	94.12
379.704	88.12
379.929	88.12
380.155	76.12
380.38	91.12
380.606	89.12
380.831	88.12
381.057	89.12
381.282	96.12
381.507	77.12
381.733	100.12
381.958	82.12
382.184	93.12
382.409	82.12
382.634	95.12
382.86	101.12
383.085	97.12
383.31	93.12
383.535	89.12
383.761	101.12
383.986	92.12
384.211	80.12
384.436	98.12
384.662	83.12
384.887	96.12
385.112	91.12
385.337	88.12
385.562	81.12
385.787	88.12
386.013	101.12
386.238	84.12
386.463	73.12
386.688	111.12
386.913	83.12
387.138	87.12
387.363	80.12
387.588	93.12
387.813	99.12
388.038	98.12
388.263	98.12
388.488	80.12
388.713	95.12
388.938	91.12
389.163	95.12
389.387	93.12
389.612	81.12
389.837	84.12
390.062	72.12
390.287	89.12
390.512	91.12
390.736	80.12
390.961	88.12
391.186	100.12
391.411	95.12
391.636	85.12
391.86	100.12
392.085	99.12
392.31	101.12
392.534	85.12
392.759	113.12
392.984	151.12
393.208	199.12
393.433	266.12
393.658	205.12
393.882	113.12
394.107	87.12
394.331	89.12
394.556	107.12
394.78	86.12
395.005	88.12
395.229	96.12
395.454	95.12
395.678	99.12
395.903	91.12
396.127	126.12
396.352	103.12
396.576	143.12
396.801	191.12
397.025	223.12
397.249	134.12
397.474	103.12
397.698	93.12
397.922	91.12
398.147	85.12
398.371	104.12
398.595	99.12
398.82	89.12
399.044	75.12
399.268	89.12
399.492	100.12
399.717	91.12
399.941	79.12
400.165	74.12
400.389	93.12
400.613	89.12
400.837	84.12
401.062	84.12
401.286	94.12
401.51	70.12
401.734	96.12
401.958	81.12
402.182	85.12
402.406	95.12
402.63	85.12
402.854	94.12
403.078	87.12
403.302	92.12
403.526	84.12
403.75	78.12
403.974	92.12
404.198	85.12
404.422	116.12
404.645	148.12
404.869	125.12
405.093	103.12
405.317	92.12
405.541	81.12
405.765	97.12
405.988	85.12
406.212	100.12
406.436	90.12
406.66	80.12
406.883	73.12
407.107	90.12
407.331	108.12
407.555	91.12
407.778	90.12
408.002	103.12
408.226	77.12
408.449	71.12
408.673	87.12
408.896	84.12
409.12	96.12
409.344	92.12
409.567	80.12
409.791	98.12
410.014	84.12
410.238	80.12
410.461	90.12
410.685	99.12
410.908	83.12
411.132	91.12
411.355	97.12
411.578	105.12
411.802	91.12
412.025	87.12
412.249	84.12
412.472	88.12
412.695	82.12
412.919	83.12
413.142	92.12
413.365	86.12
413.589	77.12
413.812	93.12
414.035	96.12
414.258	74.12
414.482	76.12
414.705	82.12
414.928	87.12
415.151	84.12
415.374	89.12
415.597	93.12
415.821	101.12
416.044	85.12
416.267	93.12
416.49	73.12
416.713	73.12
416.936	90.12
417.159	75.12
417.382	88.12
417.605	95.12
417.828	87.12
418.051	88.12
418.274	95.12
418.497	90.12
418.72	73.12
418.943	79.12
419.166	77.12
419.389	85.12
419.611	92.12
419.834	99.12
420.057	83.12
420.28	85.12
420.503	97.12
420.726	87.12
420.948	85.12
421.171	83.12
421.394	87.12
421.617	112.12
421.839	103.12
422.062	108.12
422.285	144.12
422.507	216.12
422.73	316.12
422.953	292.12
423.175	167.12
423.398	123.12
423.621	107.12
423.843	94.12
424.066	97.12
424.288	96.12
424.511	85.12
424.733	87.12
424.956	86.12
425.178	91.12
425.401	85.12
425.623	86.12
425.846	76.12
426.068	82.12
426.291	97.12
426.513	64.12
426.735	77.12
426.958	85.12
427.18	75.12
427.402	83.12
427.625	71.12
427.847	93.12
428.069	93.12
428.292	114.12
428.514	129.12
428.736	123.12
428.958	121.12
429.181	129.12
429.403	96.12
429.625	93.12
429.847	116.12
430.069	163.12
430.292	155.12
430.514	162.12
430.736	97.12
430.958	133.12
431.18	95.12
431.402	103.12
431.624	109.12
431.846	140.12
432.068	108.12
432.29	91.12
432.512	96.12
432.734	79.12
432.956	87.12
433.178	84.12
433.4	89.12
433.622	83.12
433.844	76.12
434.066	96.12
434.287	89.12
434.509	75.12
434.731	70.12
434.953	86.12
435.175	80.12
435.397	87.12
435.618	85.12
435.84	87.12
436.062	84.12
436.284	89.12
436.505	76.12
436.727	92.12
436.949	85.12
437.17	97.12
437.392	94.12
437.614	89.12
437.835	83.12
438.057	85.12
438.278	96.12
438.5	78.12
438.721	102.12
438.943	83.12
439.165	97.12
439.386	85.12
439.608	91.12
439.829	73.12
440.05	78.12
440.272	84.12
440.493	98.12
440.715	97.12
440.936	91.12
441.158	93.12
441.379	90.12
441.6	90.12
441.822	77.12
442.043	77.12
442.264	94.12
442.486	120.12
442.707	143.12
442.928	104.12
443.149	104.12
443.371	136.12
443.592	211.12
443.813	191.12
444.034	100.12
444.255	90.12
444.476	79.12
444.698	91.12
444.919	98.12
445.14	172.12
445.361	195.12
445.582	257.12
445.803	207.12
446.024	118.12
446.245	95.12
446.466	73.12
446.687	84.12
446.908	87.12
447.129	71.12
447.35	90.12
447.571	88.12
447.792	81.12
448.013	79.12
448.234	90.12
448.455	72.12
448.675	79.12
448.896	84.12
449.117	87.12
449.338	79.12
449.559	95.12
449.779	78.12
450	77.12
450.221	76.12
450.442	97.12
450.662	89.12
450.883	78.12
451.104	86.12
451.324	86.12
451.545	83.12
451.766	78.12
451.986	90.12
452.207	92.12
452.428	95.12
452.648	98.12
452.869	98.12
453.089	82.12
453.31	77.12
453.53	88.12
453.751	83.12
453.971	102.12
454.192	92.12
454.412	84.12
454.633	79.12
454.853	81.12
455.073	83.12
455.294	96.12
455.514	78.12
455.734	85.12
455.955	83.12
456.175	90.12
456.395	99.12
456.616	67.12
456.836	85.12
457.056	80.12
457.276	88.12
457.497	80.12
457.717	82.12
457.937	101.12
458.157	108.12
458.377	106.12
458.598	115.12
458.818	104.12
459.038	91.12
459.258	94.12
459.478	63.12
459.698	83.12
459.918	81.12
460.138	91.12
460.358	84.12
460.578	103.12
460.798	112.12
461.018	114.12
461.238	89.12
461.458	89.12
461.678	82.12
461.898	89.12
462.118	96.12
462.338	83.12
462.558	77.12
462.777	79.12
462.997	73.12
463.217	80.12
463.437	95.12
463.657	69.12
463.876	85.12
464.096	73.12
464.316	83.12
464.536	80.12
464.755	97.12
464.975	92.12
465.195	84.12
465.414	89.12
465.634	89.12
465.854	94.12
466.073	78.12
466.293	87.12
466.512	89.12
466.732	79.12
466.951	78.12
467.171	97.12
467.391	95.12
467.61	84.12
467.829	91.12
468.049	83.12
468.268	88.12
468.488	85.12
468.707	93.12
468.927	87.12
469.146	81.12
469.365	84.12
469.585	84.12
469.804	101.12
470.023	86.12
470.243	95.12
470.462	102.12
470.681	92.12
470.901	80.12
471.12	78.12
471.339	79.12
471.558	78.12
471.777	74.12
471.997	90.12
472.216	87.12
472.435	93.12
472.654	83.12
472.873	74.12
473.092	84.12
473.311	88.12
473.53	93.12
473.749	90.12
473.968	91.12
474.187	95.12
474.406	100.12
474.625	92.12
474.844	71.12
475.063	98.12
475.282	85.12
475.501	63.12
475.72	80.12
475.939	95.12
476.158	92.12
476.377	99.12
476.596	97.12
476.814	71.12
477.033	84.12
477.252	84.12
477.471	96.12
477.69	77.12
477.908	78.12
478.127	93.12
478.346	83.12
478.564	86.12
478.783	76.12
479.002	86.12
479.22	84.12
479.439	79.12
479.658	99.12
479.876	88.12
480.095	84.12
480.313	83.12
480.532	76.12
480.751	75.12
480.969	89.12
481.188	96.12
481.406	87.12
481.624	84.12
481.843	81.12
482.061	88.12
482.28	73.12
482.498	77.12
482.717	76.12
482.935	97.12
483.153	87.12
483.372	83.12
483.59	86.12
483.808	88.12
484.027	100.12
484.245	99.12
484.463	95.12
484.681	87.12
484.9	73.12
485.118	94.12
485.336	80.12
485.554	85.12
485.772	76.12
485.99	75.12
486.209	87.12
486.427	99.12
486.645	82.12
486.863	89.12
487.081	83.12
487.299	83.12
487.517	98.12
487.735	113.12
487.953	140.12
488.171	134.12
488.389	103.12
488.607	90.12
488.825	88.12
489.043	71.12
489.261	85.12
489.479	88.12
489.696	94.12
489.914	88.12
490.132	95.12
490.35	98.12
490.568	77.12
490.786	89.12
491.003	95.12
491.221	84.12
491.439	81.12
491.657	85.12
491.874	90.12
492.092	82.12
492.31	99.12
492.527	93.12
492.745	95.12
492.963	87.12
493.18	91.12
493.398	85.12
493.615	87.12
493.833	77.12
494.05	87.12
494.268	80.12
494.485	92.12
494.703	94.12
494.92	87.12
495.138	95.12
495.355	82.12
495.573	91.12
495.79	86.12
496.008	107.12
496.225	78.12
496.442	90.12
496.66	82.12
496.877	84.12
497.094	106.12
497.312	89.12
497.529	83.12
497.746	99.12
497.963	92.12
498.181	95.12
498.398	86.12
498.615	87.12
498.832	106.12
499.049	93.12
499.267	91.12
499.484	87.12
499.701	85.12
499.918	97.12
500.135	75.12
500.352	89.12
500.569	79.12
500.786	88.12
501.003	84.12
501.22	88.12
501.437	81.12
501.654	93.12
501.871	77.12
502.088	79.12
502.305	91.12
502.522	83.12
502.739	76.12
502.956	93.12
503.172	90.12
503.389	74.12
503.606	92.12
503.823	91.12
504.04	113.12
504.256	111.12
504.473	99.12
504.69	91.12
504.907	103.12
505.123	88.12
505.34	80.12
505.557	92.12
505.773	85.12
505.99	84.12
506.207	103.12
506.423	91.12
506.64	104.12
506.856	91.12
507.073	92.12
507.289	100.12
507.506	88.12
507.722	88.12
507.939	77.12
508.155	95.12
508.372	93.12
508.588	75.12
508.805	84.12
509.021	95.12
509.238	92.12
509.454	91.12
509.67	77.12
509.887	84.12
510.103	92.12
510.319	85.12
510.536	80.12
510.752	103.12
510.968	90.12
511.184	93.12
511.401	104.12
511.617	93.12
511.833	72.12
512.049	70.12
512.265	86.12
512.481	100.12
512.698	77.12
512.914	88.12
513.13	76.12
513.346	87.12
513.562	97.12
513.778	100.12
513.994	88.12
514.21	89.12
514.426	81.12
514.642	89.12
514.858	89.12
515.074	88.12
515.29	85.12
515.506	92.12
515.721	91.12
515.937	93.12
516.153	81.12
516.369	88.12
516.585	98.12
516.801	77.12
517.016	83.12
517.232	104.12
517.448	114.12
517.664	99.12
517.879	89.12
518.095	86.12
518.311	92.12
518.527	102.12
518.742	106.12
518.958	122.12
519.173	127.12
519.389	103.12
519.605	92.12
519.82	94.12
520.036	71.12
520.251	91.12
520.467	97.12
520.682	78.12
520.898	85.12
521.113	86.12
521.329	81.12
521.544	102.12
521.76	99.12
521.975	93.12
522.19	90.12
522.406	99.12
522.621	89.12
522.836	77.12
523.052	93.12
523.267	93.12
523.482	83.12
523.698	99.12
523.913	93.12
524.128	83.12
524.343	91.12
524.559	81.12
524.774	89.12
524.989	97.12
525.204	80.12
525.419	82.12
525.634	81.12
525.849	99.12
526.064	114.12
526.28	177.12
526.495	254.12
526.71	280.12
526.925	200.12
527.14	246.12
527.355	219.12
527.57	113.12
527.785	106.12
527.999	87.12
528.214	93.12
528.429	88.12
528.644	91.12
528.859	88.12
529.074	84.12
529.289	82.12
529.503	91.12
529.718	95.12
529.933	88.12
530.148	93.12
530.363	72.12
530.577	98.12
530.792	86.12
531.007	85.12
531.221	93.12
531.436	93.12
531.651	88.12
531.865	85.12
532.08	89.12
532.295	99.12
532.509	85.12
532.724	96.12
532.938	98.12
533.153	107.12
533.367	86.12
533.582	89.12
533.796	85.12
534.011	99.12
534.225	97.12
534.44	101.12
534.654	84.12
534.868	106.12
535.083	142.12
535.297	121.12
535.511	90.12
535.726	91.12
535.94	90.12
536.154	97.12
536.369	85.12
536.583	93.12
536.797	92.12
537.011	95.12
537.225	101.12
537.44	101.12
537.654	95.12
537.868	96.12
538.082	80.12
538.296	95.12
538.51	100.12
538.724	89.12
538.938	97.12
539.153	93.12
539.367	91.12
539.581	97.12
539.795	88.12
540.009	92.12
540.222	109.12
540.436	99.12
540.65	85.12
540.864	89.12
541.078	90.12
541.292	92.12
541.506	88.12
541.72	84.12
541.934	92.12
542.147	99.12
542.361	83.12
542.575	97.12
542.789	91.12
543.002	85.12
543.216	86.12
543.43	87.12
543.644	94.12
543.857	83.12
544.071	92.12
544.285	93.12
544.498	96.12
544.712	95.12
544.925	96.12
545.139	81.12
545.352	85.12
545.566	97.12
545.779	88.12
545.993	91.12
546.206	88.12
546.42	99.12
546.633	100.12
546.847	104.12
547.06	99.12
547.274	91.12
547.487	102.12
547.7	120.12
547.914	129.12
548.127	120.12
548.34	121.12
548.554	123.12
548.767	127.12
548.98	125.12
549.193	110.12
549.407	113.12
549.62	121.12
549.833	117.12
550.046	140.12
550.259	138.12
550.473	127.12
550.686	129.12
550.899	129.12
551.112	150.12
551.325	159.12
551.538	157.12
551.751	164.12
551.964	141.12
552.177	138.12
552.39	139.12
552.603	134.12
552.816	133.12
553.029	139.12
553.242	143.12
553.455	137.12
553.667	160.12
553.88	141.12
554.093	138.12
554.306	133.12
554.519	141.12
554.732	139.12
554.944	141.12
555.157	114.12
555.37	130.12
555.583	128.12
555.795	115.12
556.008	118.12
556.221	123.12
556.433	110.12
556.646	115.12
556.859	95.12
557.071	108.12
557.284	113.12
557.496	111.12
557.709	105.12
557.921	101.12
558.134	122.12
558.346	135.12
558.559	131.12
558.771	146.12
558.984	256.12
559.196	307.12
559.409	165.12
559.621	252.12
559.833	197.12
560.046	242.12
560.258	184.12
560.47	184.12
560.683	123.12
560.895	93.12
561.107	104.12
561.32	99.12
561.532	89.12
561.744	95.12
561.956	86.12
562.168	99.12
562.381	94.12
562.593	98.12
562.805	83.12
563.017	97.12
563.229	76.12
563.441	85.12
563.653	90.12
563.865	100.12
564.077	91.12
564.289	100.12
564.501	106.12
564.713	89.12
564.925	95.12
565.137	88.12
565.349	95.12
565.561	75.12
565.773	101.12
565.985	107.12
566.197	84.12
566.408	78.12
566.62	91.12
566.832	92.12
567.044	97.12
567.255	97.12
567.467	85.12
567.679	95.12
567.891	73.12
568.102	85.12
568.314	93.12
568.526	89.12
568.737	92.12
568.949	90.12
569.161	89.12
569.372	95.12
569.584	75.12
569.795	102.12
570.007	100.12
570.218	84.12
570.43	92.12
570.641	93.12
570.853	90.12
571.064	87.12
571.276	76.12
571.487	95.12
571.698	88.12
571.91	81.12
572.121	87.12
572.333	95.12
572.544	95.12
572.755	90.12
572.966	84.12
573.178	81.12
573.389	92.12
573.6	106.12
573.811	86.12
574.023	84.12
574.234	83.12
574.445	88.12
574.656	74.12
574.867	93.12
575.078	91.12
575.289	70.12
575.501	88.12
575.712	77.12
575.923	96.12
576.134	83.12
576.345	95.12
576.556	90.12
576.767	94.12
576.978	88.12
577.188	99.12
577.399	87.12
577.61	93.12
577.821	104.12
578.032	94.12
578.243	88.12
578.454	97.12
578.665	100.12
578.875	98.12
579.086	90.12
579.297	87.12
579.508	99.12
579.718	92.12
579.929	94.12
580.14	89.12
580.35	109.12
580.561	103.12
580.772	94.12
580.982	87.12
581.193	103.12
581.403	77.12
581.614	95.12
581.825	83.12
582.035	87.12
582.246	95.12
582.456	81.12
582.667	90.12
582.877	85.12
583.087	92.12
583.298	106.12
583.508	115.12
583.719	109.12
583.929	105.12
584.139	92.12
584.35	95.12
584.56	90.12
584.77	94.12
584.981	84.12
585.191	88.12
585.401	109.12
585.611	96.12
585.821	141.12
586.032	182.12
586.242	111.12
586.452	95.12
586.662	93.12
586.872	92.12
587.082	94.12
587.292	94.12
587.502	108.12
587.713	105.12
587.923	89.12
588.133	103.12
588.343	100.12
588.553	116.12
588.762	134.12
588.972	211.12
589.182	435.12
589.392	300.12
589.602	218.12
589.812	372.12
590.022	216.12
590.232	108.12
590.441	120.12
590.651	106.12
590.861	103.12
591.071	104.12
591.281	101.12
591.49	87.12
591.7	87.12
591.91	97.12
592.119	89.12
592.329	91.12
592.539	82.12
592.748	101.12
592.958	106.12
593.167	87.12
593.377	93.12
593.587	117.12
593.796	104.12
594.006	99.12
594.215	106.12
594.424	103.12
594.634	102.12
594.843	96.12
595.053	104.12
595.262	108.12
595.472	113.12
595.681	110.12
595.89	96.12
596.1	111.12
596.309	105.12
596.518	121.12
596.727	108.12
596.937	112.12
597.146	121.12
597.355	124.12
597.564	127.12
597.774	123.12
597.983	123.12
598.192	114.12
598.401	126.12
598.61	128.12
598.819	128.12
599.028	111.12
599.237	107.12
599.446	111.12
599.655	111.12
599.864	116.12
600.073	136.12
600.282	113.12
600.491	121.12
600.7	118.12
600.909	121.12
601.118	121.12
601.327	116.12
601.536	107.12
601.745	115.12
601.953	103.12
602.162	108.12
602.371	110.12
602.58	105.12
602.789	107.12
602.997	103.12
603.206	114.12
603.415	115.12
603.623	116.12
603.832	123.12
604.041	101.12
604.249	128.12
604.458	120.12
604.666	112.12
604.875	124.12
605.084	135.12
605.292	127.12
605.501	131.12
605.709	134.12
605.918	133.12
606.126	123.12
606.334	138.12
606.543	145.12
606.751	142.12
606.96	131.12
607.168	120.12
607.376	115.12
607.585	145.12
607.793	131.12
608.001	127.12
608.21	116.12
608.418	128.12
608.626	147.12
608.834	138.12
609.043	138.12
609.251	131.12
609.459	120.12
609.667	141.12
609.875	153.12
610.083	142.12
610.291	159.12
610.499	208.12
610.707	157.12
610.916	133.12
611.124	135.12
611.332	148.12
611.54	139.12
611.748	133.12
611.955	149.12
612.163	165.12
612.371	283.12
612.579	235.12
612.787	168.12
612.995	149.12
613.203	149.12
613.411	144.12
613.618	144.12
613.826	144.12
614.034	151.12
614.242	145.12
614.449	152.12
614.657	151.12
614.865	144.12
615.072	132.12
615.28	128.12
615.488	161.12
615.695	139.12
615.903	153.12
616.111	165.12
616.318	268.12
616.526	328.12
616.733	202.12
616.941	186.12
617.148	194.12
617.356	156.12
617.563	135.12
617.771	129.12
617.978	127.12
618.185	139.12
618.393	129.12
618.6	125.12
618.807	119.12
619.015	120.12
619.222	121.12
619.429	128.12
619.637	124.12
619.844	116.12
620.051	122.12
620.258	111.12
620.466	109.12
620.673	131.12
620.88	128.12
621.087	125.12
621.294	116.12
621.501	129.12
621.708	133.12
621.915	131.12
622.122	121.12
622.329	120.12
622.536	114.12
622.743	123.12
622.95	139.12
623.157	132.12
623.364	129.12
623.571	141.12
623.778	153.12
623.985	141.12
624.192	131.12
624.399	149.12
624.606	141.12
624.812	143.12
625.019	125.12
625.226	143.12
625.433	136.12
625.639	126.12
625.846	142.12
626.053	130.12
626.259	114.12
626.466	139.12
626.673	124.12
626.879	121.12
627.086	129.12
627.293	128.12
627.499	121.12
627.706	107.12
627.912	114.12
628.119	117.12
628.325	104.12
628.532	99.12
628.738	90.12
628.945	95.12
629.151	104.12
629.357	106.12
629.564	90.12
629.77	98.12
629.976	98.12
630.183	92.12
630.389	78.12
630.595	103.12
630.802	92.12
631.008	85.12
631.214	98.12
631.42	96.12
631.627	103.12
631.833	89.12
632.039	82.12
632.245	84.12
632.451	92.12
632.657	83.12
632.863	82.12
633.069	96.12
633.275	94.12
633.481	88.12
633.688	96.12
633.893	87.12
634.099	83.12
634.305	93.12
634.511	102.12
634.717	105.12
634.923	100.12
635.129	86.12
635.335	96.12
635.541	100.12
635.747	84.12
635.952	100.12
636.158	107.12
636.364	112.12
636.57	101.12
636.775	106.12
636.981	111.12
637.187	102.12
637.392	101.12
637.598	85.12
637.804	92.12
638.009	90.12
638.215	85.12
638.421	93.12
638.626	113.12
638.832	96.12
639.037	91.12
639.243	86.12
639.448	71.12
639.654	110.12
639.859	84.12
640.065	76.12
640.27	96.12
640.475	99.12
640.681	86.12
640.886	82.12
641.091	90.12
641.297	96.12
641.502	80.12
641.707	92.12
641.913	83.12
642.118	89.12
642.323	95.12
642.528	84.12
642.733	79.12
642.939	115.12
643.144	85.12
643.349	103.12
643.554	98.12
643.759	95.12
643.964	117.12
644.169	163.12
644.374	93.12
644.579	105.12
644.784	105.12
644.989	92.12
645.194	112.12
645.399	90.12
645.604	85.12
645.809	97.12
646.014	95.12
646.219	103.12
646.423	161.12
646.628	120.12
646.833	89.12
647.038	104.12
647.243	109.12
647.447	97.12
647.652	96.12
647.857	102.12
648.062	95.12
648.266	98.12
648.471	70.12
648.676	77.12
648.88	85.12
649.085	82.12
649.289	89.12
649.494	109.12
649.698	115.12
649.903	97.12
650.107	100.12
650.312	110.12
650.516	105.12
650.721	85.12
650.925	89.12
651.13	80.12
651.334	103.12
651.539	83.12
651.743	90.12
651.947	95.12
652.152	92.12
652.356	101.12
652.56	88.12
652.764	86.12
652.969	85.12
653.173	83.12
653.377	81.12
653.581	77.12
653.785	83.12
653.99	79.12
654.194	80.12
654.398	97.12
654.602	77.12
654.806	91.12
655.01	83.12
655.214	90.12
655.418	84.12
655.622	91.12
655.826	91.12
656.03	83.12
656.234	98.12
656.438	84.12
656.642	90.12
656.846	77.12
657.049	92.12
657.253	85.12
657.457	99.12
657.661	96.12
657.865	91.12
658.068	74.12
658.272	88.12
658.476	74.12
658.68	83.12
658.883	89.12
659.087	83.12
659.291	85.12
659.494	89.12
659.698	87.12
659.901	101.12
660.105	79.12
660.309	77.12
660.512	104.12
660.716	93.12
660.919	75.12
661.123	111.12
661.326	81.12
661.53	85.12
661.733	87.12
661.936	91.12
662.14	84.12
662.343	79.12
662.546	80.12
662.75	90.12
662.953	92.12
663.156	77.12
663.36	93.12
663.563	93.12
663.766	87.12
663.969	80.12
664.173	77.12
664.376	87.12
664.579	75.12
664.782	96.12
664.985	90.12
665.188	75.12
665.391	97.12
665.594	77.12
665.797	78.12
666	81.12
666.203	87.12
666.406	87.12
666.609	84.12
666.812	76.12
667.015	76.12
667.218	105.12
667.421	77.12
667.624	92.12
667.827	91.12
668.03	91.12
668.232	75.12
668.435	73.12
668.638	91.12
668.841	79.12
669.043	81.12
669.246	70.12
669.449	81.12
669.651	73.12
669.854	93.12
670.057	74.12
670.259	85.12
670.462	96.12
670.665	84.12
670.867	81.12
671.07	95.12
671.272	95.12
671.475	92.12
671.677	77.12
671.88	65.12
672.082	96.12
672.284	81.12
672.487	99.12
672.689	85.12
672.892	86.12
