Data from 18505_1_HRD10591_00046.txt Node
Date: Mon Jan 19 13:58:54 EST 2026
User: Yrep
Spectrometer: HR+D1059
Trigger mode: 1
Integration Time (sec): 1.000000E-1
Scans to average: 1
Electric dark correction enabled: true
Nonlinearity correction enabled: false
Boxcar width: 0
XAxis mode: Wavelengths
Number of Pixels in Spectrum: 2048
>>>>>Begin Spectral Data<<<<<
223.165	-6.88
223.4	-6.88
223.635	-6.88
223.869	-25.88
224.104	-11.88
224.338	-4.88
224.573	-9.88
224.808	-9.88
225.042	2.12
225.277	-15.88
225.511	-7.88
225.746	4.12
225.98	7.12
226.215	4.12
226.449	6.12
226.683	19.12
226.918	19.12
227.152	31.12
227.387	35.12
227.621	26.12
227.856	58.12
228.09	54.12
228.324	33.12
228.559	66.12
228.793	58.12
229.027	55.12
229.262	84.12
229.496	72.12
229.73	75.12
229.964	82.12
230.199	78.12
230.433	69.12
230.667	76.12
230.901	74.12
231.136	77.12
231.37	90.12
231.604	100.12
231.838	92.12
232.072	85.12
232.306	91.12
232.541	77.12
232.775	71.12
233.009	91.12
233.243	96.12
233.477	94.12
233.711	76.12
233.945	85.12
234.179	77.12
234.413	77.12
234.647	95.12
234.881	89.12
235.115	81.12
235.349	74.12
235.583	69.12
235.817	82.12
236.051	84.12
236.285	85.12
236.519	83.12
236.753	82.12
236.987	92.12
237.221	88.12
237.455	72.12
237.689	83.12
237.922	68.12
238.156	83.12
238.39	91.12
238.624	66.12
238.858	82.12
239.091	83.12
239.325	80.12
239.559	75.12
239.793	70.12
240.027	81.12
240.26	68.12
240.494	79.12
240.728	86.12
240.961	72.12
241.195	84.12
241.429	84.12
241.662	77.12
241.896	84.12
242.13	79.12
242.363	75.12
242.597	88.12
242.83	72.12
243.064	75.12
243.298	67.12
243.531	82.12
243.765	77.12
243.998	66.12
244.232	74.12
244.465	79.12
244.699	82.12
244.932	74.12
245.166	80.12
245.399	73.12
245.633	82.12
245.866	70.12
246.099	88.12
246.333	79.12
246.566	90.12
246.8	75.12
247.033	74.12
247.266	74.12
247.5	70.12
247.733	75.12
247.966	69.12
248.2	78.12
248.433	62.12
248.666	82.12
248.899	76.12
249.133	89.12
249.366	76.12
249.599	66.12
249.832	72.12
250.066	78.12
250.299	78.12
250.532	76.12
250.765	86.12
250.998	86.12
251.231	90.12
251.465	98.12
251.698	74.12
251.931	88.12
252.164	78.12
252.397	75.12
252.63	84.12
252.863	86.12
253.096	76.12
253.329	76.12
253.562	71.12
253.795	82.12
254.028	66.12
254.261	78.12
254.494	68.12
254.727	83.12
254.96	79.12
255.193	74.12
255.426	84.12
255.659	90.12
255.892	86.12
256.124	83.12
256.357	91.12
256.59	92.12
256.823	75.12
257.056	91.12
257.289	84.12
257.521	82.12
257.754	83.12
257.987	76.12
258.22	83.12
258.452	74.12
258.685	80.12
258.918	80.12
259.151	81.12
259.383	89.12
259.616	80.12
259.849	94.12
260.081	81.12
260.314	78.12
260.547	78.12
260.779	86.12
261.012	83.12
261.244	82.12
261.477	88.12
261.71	80.12
261.942	85.12
262.175	85.12
262.407	76.12
262.64	84.12
262.872	68.12
263.105	92.12
263.337	87.12
263.57	88.12
263.802	74.12
264.035	90.12
264.267	88.12
264.499	81.12
264.732	94.12
264.964	76.12
265.197	84.12
265.429	77.12
265.661	89.12
265.894	88.12
266.126	89.12
266.358	85.12
266.591	88.12
266.823	69.12
267.055	78.12
267.287	92.12
267.52	82.12
267.752	79.12
267.984	78.12
268.216	86.12
268.448	99.12
268.681	81.12
268.913	88.12
269.145	83.12
269.377	88.12
269.609	80.12
269.841	82.12
270.073	91.12
270.306	80.12
270.538	81.12
270.77	67.12
271.002	81.12
271.234	102.12
271.466	90.12
271.698	82.12
271.93	84.12
272.162	83.12
272.394	98.12
272.626	82.12
272.858	87.12
273.09	73.12
273.322	80.12
273.553	97.12
273.785	87.12
274.017	89.12
274.249	95.12
274.481	76.12
274.713	88.12
274.945	84.12
275.176	90.12
275.408	90.12
275.64	88.12
275.872	88.12
276.104	89.12
276.335	86.12
276.567	76.12
276.799	98.12
277.031	67.12
277.262	94.12
277.494	102.12
277.726	94.12
277.957	90.12
278.189	97.12
278.421	98.12
278.652	100.12
278.884	84.12
279.115	113.12
279.347	87.12
279.579	86.12
279.81	92.12
280.042	82.12
280.273	86.12
280.505	92.12
280.736	91.12
280.968	94.12
281.199	102.12
281.431	95.12
281.662	98.12
281.894	83.12
282.125	85.12
282.356	99.12
282.588	88.12
282.819	90.12
283.051	81.12
283.282	78.12
283.513	98.12
283.745	88.12
283.976	90.12
284.207	82.12
284.439	82.12
284.67	83.12
284.901	84.12
285.132	92.12
285.364	98.12
285.595	92.12
285.826	87.12
286.057	88.12
286.288	84.12
286.52	90.12
286.751	90.12
286.982	80.12
287.213	89.12
287.444	97.12
287.675	81.12
287.906	79.12
288.138	85.12
288.369	84.12
288.6	84.12
288.831	71.12
289.062	89.12
289.293	97.12
289.524	90.12
289.755	77.12
289.986	96.12
290.217	88.12
290.448	70.12
290.679	80.12
290.91	89.12
291.141	80.12
291.371	83.12
291.602	75.12
291.833	77.12
292.064	88.12
292.295	71.12
292.526	91.12
292.757	86.12
292.987	91.12
293.218	89.12
293.449	92.12
293.68	88.12
293.91	83.12
294.141	58.12
294.372	79.12
294.603	88.12
294.833	79.12
295.064	87.12
295.295	84.12
295.525	75.12
295.756	88.12
295.987	75.12
296.217	80.12
296.448	103.12
296.679	82.12
296.909	99.12
297.14	86.12
297.37	98.12
297.601	94.12
297.831	86.12
298.062	84.12
298.292	87.12
298.523	82.12
298.753	82.12
298.984	88.12
299.214	87.12
299.445	76.12
299.675	96.12
299.905	103.12
300.136	84.12
300.366	88.12
300.597	89.12
300.827	102.12
301.057	79.12
301.288	84.12
301.518	71.12
301.748	86.12
301.979	106.12
302.209	108.12
302.439	96.12
302.669	84.12
302.9	84.12
303.13	83.12
303.36	94.12
303.59	83.12
303.82	80.12
304.051	89.12
304.281	96.12
304.511	103.12
304.741	94.12
304.971	80.12
305.201	72.12
305.431	102.12
305.661	102.12
305.891	98.12
306.121	104.12
306.352	90.12
306.582	75.12
306.812	83.12
307.042	87.12
307.272	81.12
307.502	87.12
307.731	89.12
307.961	95.12
308.191	87.12
308.421	90.12
308.651	79.12
308.881	78.12
309.111	83.12
309.341	88.12
309.571	97.12
309.8	95.12
310.03	94.12
310.26	91.12
310.49	71.12
310.72	93.12
310.949	82.12
311.179	88.12
311.409	90.12
311.639	93.12
311.868	90.12
312.098	96.12
312.328	92.12
312.557	89.12
312.787	80.12
313.017	79.12
313.246	82.12
313.476	78.12
313.706	108.12
313.935	95.12
314.165	96.12
314.394	90.12
314.624	84.12
314.853	87.12
315.083	90.12
315.312	86.12
315.542	77.12
315.771	81.12
316.001	104.12
316.23	82.12
316.46	84.12
316.689	81.12
316.919	94.12
317.148	96.12
317.377	84.12
317.607	96.12
317.836	90.12
318.065	80.12
318.295	95.12
318.524	82.12
318.753	81.12
318.983	84.12
319.212	84.12
319.441	71.12
319.67	103.12
319.9	85.12
320.129	92.12
320.358	78.12
320.587	74.12
320.816	92.12
321.046	94.12
321.275	88.12
321.504	99.12
321.733	88.12
321.962	77.12
322.191	84.12
322.42	89.12
322.649	84.12
322.878	88.12
323.108	78.12
323.337	83.12
323.566	86.12
323.795	74.12
324.024	80.12
324.253	91.12
324.482	89.12
324.71	84.12
324.939	93.12
325.168	86.12
325.397	80.12
325.626	99.12
325.855	88.12
326.084	87.12
326.313	92.12
326.542	97.12
326.77	86.12
326.999	86.12
327.228	85.12
327.457	84.12
327.686	95.12
327.914	73.12
328.143	88.12
328.372	86.12
328.6	85.12
328.829	91.12
329.058	92.12
329.287	74.12
329.515	89.12
329.744	88.12
329.972	99.12
330.201	100.12
330.43	92.12
330.658	90.12
330.887	87.12
331.115	87.12
331.344	100.12
331.572	81.12
331.801	76.12
332.03	86.12
332.258	88.12
332.486	82.12
332.715	83.12
332.943	92.12
333.172	95.12
333.4	88.12
333.629	89.12
333.857	70.12
334.085	93.12
334.314	86.12
334.542	89.12
334.771	93.12
334.999	93.12
335.227	83.12
335.455	93.12
335.684	88.12
335.912	94.12
336.14	87.12
336.369	88.12
336.597	80.12
336.825	82.12
337.053	83.12
337.281	68.12
337.51	85.12
337.738	88.12
337.966	77.12
338.194	99.12
338.422	74.12
338.65	103.12
338.878	84.12
339.106	87.12
339.334	100.12
339.562	77.12
339.79	78.12
340.018	96.12
340.246	86.12
340.474	86.12
340.702	79.12
340.93	96.12
341.158	94.12
341.386	84.12
341.614	94.12
341.842	86.12
342.07	87.12
342.298	82.12
342.526	75.12
342.754	75.12
342.981	86.12
343.209	80.12
343.437	96.12
343.665	89.12
343.893	104.12
344.12	88.12
344.348	85.12
344.576	77.12
344.804	80.12
345.031	88.12
345.259	90.12
345.487	70.12
345.714	93.12
345.942	80.12
346.17	74.12
346.397	88.12
346.625	83.12
346.853	89.12
347.08	82.12
347.308	78.12
347.535	63.12
347.763	76.12
347.99	83.12
348.218	86.12
348.445	91.12
348.673	71.12
348.9	74.12
349.128	99.12
349.355	82.12
349.583	85.12
349.81	87.12
350.037	72.12
350.265	75.12
350.492	75.12
350.72	88.12
350.947	97.12
351.174	92.12
351.402	97.12
351.629	86.12
351.856	82.12
352.083	77.12
352.311	92.12
352.538	96.12
352.765	97.12
352.992	97.12
353.22	85.12
353.447	85.12
353.674	75.12
353.901	83.12
354.128	90.12
354.355	88.12
354.583	91.12
354.81	90.12
355.037	88.12
355.264	88.12
355.491	91.12
355.718	87.12
355.945	79.12
356.172	91.12
356.399	74.12
356.626	94.12
356.853	86.12
357.08	95.12
357.307	80.12
357.534	86.12
357.761	80.12
357.988	88.12
358.215	85.12
358.441	82.12
358.668	74.12
358.895	72.12
359.122	59.12
359.349	88.12
359.576	86.12
359.802	84.12
360.029	82.12
360.256	87.12
360.483	83.12
360.709	87.12
360.936	85.12
361.163	81.12
361.39	89.12
361.616	87.12
361.843	70.12
362.07	91.12
362.296	90.12
362.523	83.12
362.749	95.12
362.976	85.12
363.203	101.12
363.429	88.12
363.656	74.12
363.882	68.12
364.109	100.12
364.335	94.12
364.562	84.12
364.788	96.12
365.015	93.12
365.241	75.12
365.468	91.12
365.694	92.12
365.92	82.12
366.147	80.12
366.373	92.12
366.599	74.12
366.826	87.12
367.052	84.12
367.278	78.12
367.505	84.12
367.731	80.12
367.957	77.12
368.184	92.12
368.41	76.12
368.636	91.12
368.862	90.12
369.089	79.12
369.315	66.12
369.541	82.12
369.767	82.12
369.993	96.12
370.219	84.12
370.445	75.12
370.672	76.12
370.898	74.12
371.124	86.12
371.35	86.12
371.576	90.12
371.802	81.12
372.028	79.12
372.254	115.12
372.48	75.12
372.706	85.12
372.932	94.12
373.158	67.12
373.384	92.12
373.61	87.12
373.835	93.12
374.061	88.12
374.287	79.12
374.513	82.12
374.739	84.12
374.965	96.12
375.191	95.12
375.416	81.12
375.642	85.12
375.868	84.12
376.094	87.12
376.319	99.12
376.545	85.12
376.771	71.12
376.997	77.12
377.222	63.12
377.448	83.12
377.674	73.12
377.899	99.12
378.125	92.12
378.35	86.12
378.576	78.12
378.802	85.12
379.027	82.12
379.253	81.12
379.478	87.12
379.704	81.12
379.929	80.12
380.155	84.12
380.38	95.12
380.606	87.12
380.831	76.12
381.057	92.12
381.282	64.12
381.507	86.12
381.733	82.12
381.958	77.12
382.184	78.12
382.409	78.12
382.634	82.12
382.86	82.12
383.085	73.12
383.31	96.12
383.535	73.12
383.761	72.12
383.986	88.12
384.211	82.12
384.436	87.12
384.662	80.12
384.887	86.12
385.112	76.12
385.337	85.12
385.562	67.12
385.787	77.12
386.013	79.12
386.238	69.12
386.463	87.12
386.688	87.12
386.913	98.12
387.138	79.12
387.363	82.12
387.588	89.12
387.813	107.12
388.038	82.12
388.263	80.12
388.488	80.12
388.713	72.12
388.938	87.12
389.163	79.12
389.387	78.12
389.612	82.12
389.837	77.12
390.062	75.12
390.287	79.12
390.512	84.12
390.736	76.12
390.961	76.12
391.186	93.12
391.411	75.12
391.636	80.12
391.86	89.12
392.085	82.12
392.31	80.12
392.534	92.12
392.759	99.12
392.984	96.12
393.208	136.12
393.433	174.12
393.658	146.12
393.882	94.12
394.107	71.12
394.331	85.12
394.556	90.12
394.78	90.12
395.005	75.12
395.229	84.12
395.454	88.12
395.678	86.12
395.903	77.12
396.127	90.12
396.352	90.12
396.576	103.12
396.801	132.12
397.025	148.12
397.249	111.12
397.474	100.12
397.698	94.12
397.922	85.12
398.147	84.12
398.371	93.12
398.595	84.12
398.82	89.12
399.044	81.12
399.268	85.12
399.492	91.12
399.717	84.12
399.941	77.12
400.165	90.12
400.389	70.12
400.613	76.12
400.837	88.12
401.062	85.12
401.286	73.12
401.51	89.12
401.734	76.12
401.958	86.12
402.182	90.12
402.406	86.12
402.63	73.12
402.854	84.12
403.078	73.12
403.302	83.12
403.526	96.12
403.75	76.12
403.974	72.12
404.198	82.12
404.422	96.12
404.645	104.12
404.869	92.12
405.093	76.12
405.317	79.12
405.541	90.12
405.765	98.12
405.988	91.12
406.212	89.12
406.436	85.12
406.66	88.12
406.883	86.12
407.107	85.12
407.331	86.12
407.555	94.12
407.778	94.12
408.002	98.12
408.226	84.12
408.449	77.12
408.673	82.12
408.896	95.12
409.12	98.12
409.344	92.12
409.567	86.12
409.791	96.12
410.014	78.12
410.238	78.12
410.461	84.12
410.685	73.12
410.908	70.12
411.132	86.12
411.355	63.12
411.578	89.12
411.802	95.12
412.025	71.12
412.249	67.12
412.472	84.12
412.695	88.12
412.919	83.12
413.142	81.12
413.365	84.12
413.589	88.12
413.812	95.12
414.035	86.12
414.258	72.12
414.482	82.12
414.705	94.12
414.928	92.12
415.151	97.12
415.374	78.12
415.597	82.12
415.821	82.12
416.044	70.12
416.267	88.12
416.49	98.12
416.713	82.12
416.936	87.12
417.159	76.12
417.382	85.12
417.605	88.12
417.828	96.12
418.051	83.12
418.274	85.12
418.497	87.12
418.72	95.12
418.943	94.12
419.166	87.12
419.389	86.12
419.611	84.12
419.834	88.12
420.057	87.12
420.28	74.12
420.503	74.12
420.726	73.12
420.948	82.12
421.171	95.12
421.394	96.12
421.617	81.12
421.839	87.12
422.062	100.12
422.285	102.12
422.507	119.12
422.73	147.12
422.953	151.12
423.175	83.12
423.398	94.12
423.621	104.12
423.843	91.12
424.066	96.12
424.288	71.12
424.511	78.12
424.733	75.12
424.956	98.12
425.178	91.12
425.401	84.12
425.623	83.12
425.846	90.12
426.068	64.12
426.291	88.12
426.513	89.12
426.735	92.12
426.958	94.12
427.18	85.12
427.402	99.12
427.625	92.12
427.847	89.12
428.069	95.12
428.292	90.12
428.514	88.12
428.736	101.12
428.958	78.12
429.181	86.12
429.403	78.12
429.625	89.12
429.847	96.12
430.069	91.12
430.292	103.12
430.514	105.12
430.736	94.12
430.958	103.12
431.18	82.12
431.402	94.12
431.624	77.12
431.846	88.12
432.068	95.12
432.29	91.12
432.512	93.12
432.734	83.12
432.956	96.12
433.178	87.12
433.4	82.12
433.622	92.12
433.844	87.12
434.066	82.12
434.287	80.12
434.509	70.12
434.731	91.12
434.953	73.12
435.175	88.12
435.397	86.12
435.618	90.12
435.84	82.12
436.062	84.12
436.284	81.12
436.505	86.12
436.727	89.12
436.949	82.12
437.17	78.12
437.392	90.12
437.614	82.12
437.835	77.12
438.057	93.12
438.278	94.12
438.5	76.12
438.721	82.12
438.943	82.12
439.165	86.12
439.386	83.12
439.608	92.12
439.829	70.12
440.05	88.12
440.272	100.12
440.493	75.12
440.715	90.12
440.936	81.12
441.158	93.12
441.379	88.12
441.6	78.12
441.822	88.12
442.043	84.12
442.264	76.12
442.486	67.12
442.707	95.12
442.928	86.12
443.149	93.12
443.371	105.12
443.592	100.12
443.813	104.12
444.034	75.12
444.255	80.12
444.476	82.12
444.698	85.12
444.919	80.12
445.14	158.12
445.361	136.12
445.582	118.12
445.803	101.12
446.024	94.12
446.245	91.12
446.466	84.12
446.687	87.12
446.908	88.12
447.129	95.12
447.35	85.12
447.571	95.12
447.792	84.12
448.013	85.12
448.234	82.12
448.455	90.12
448.675	79.12
448.896	77.12
449.117	95.12
449.338	92.12
449.559	92.12
449.779	87.12
450	92.12
450.221	92.12
450.442	74.12
450.662	94.12
450.883	92.12
451.104	90.12
451.324	91.12
451.545	86.12
451.766	77.12
451.986	84.12
452.207	68.12
452.428	79.12
452.648	82.12
452.869	87.12
453.089	80.12
453.31	95.12
453.53	94.12
453.751	76.12
453.971	88.12
454.192	87.12
454.412	54.12
454.633	88.12
454.853	83.12
455.073	102.12
455.294	84.12
455.514	75.12
455.734	88.12
455.955	95.12
456.175	84.12
456.395	85.12
456.616	84.12
456.836	84.12
457.056	96.12
457.276	90.12
457.497	89.12
457.717	90.12
457.937	71.12
458.157	85.12
458.377	82.12
458.598	76.12
458.818	91.12
459.038	84.12
459.258	77.12
459.478	79.12
459.698	76.12
459.918	76.12
460.138	90.12
460.358	75.12
460.578	87.12
460.798	85.12
461.018	72.12
461.238	75.12
461.458	89.12
461.678	91.12
461.898	90.12
462.118	97.12
462.338	82.12
462.558	72.12
462.777	81.12
462.997	84.12
463.217	86.12
463.437	75.12
463.657	72.12
463.876	83.12
464.096	79.12
464.316	90.12
464.536	84.12
464.755	82.12
464.975	73.12
465.195	96.12
465.414	95.12
465.634	94.12
465.854	98.12
466.073	96.12
466.293	68.12
466.512	75.12
466.732	75.12
466.951	84.12
467.171	88.12
467.391	78.12
467.61	75.12
467.829	80.12
468.049	97.12
468.268	87.12
468.488	80.12
468.707	79.12
468.927	84.12
469.146	91.12
469.365	78.12
469.585	80.12
469.804	103.12
470.023	84.12
470.243	88.12
470.462	86.12
470.681	83.12
470.901	87.12
471.12	93.12
471.339	86.12
471.558	88.12
471.777	91.12
471.997	90.12
472.216	87.12
472.435	95.12
472.654	100.12
472.873	99.12
473.092	79.12
473.311	75.12
473.53	82.12
473.749	98.12
473.968	94.12
474.187	91.12
474.406	97.12
474.625	84.12
474.844	81.12
475.063	83.12
475.282	75.12
475.501	84.12
475.72	83.12
475.939	78.12
476.158	88.12
476.377	77.12
476.596	90.12
476.814	87.12
477.033	76.12
477.252	82.12
477.471	86.12
477.69	81.12
477.908	80.12
478.127	81.12
478.346	94.12
478.564	84.12
478.783	89.12
479.002	83.12
479.22	98.12
479.439	91.12
479.658	98.12
479.876	83.12
480.095	80.12
480.313	92.12
480.532	80.12
480.751	83.12
480.969	98.12
481.188	89.12
481.406	91.12
481.624	85.12
481.843	71.12
482.061	80.12
482.28	91.12
482.498	82.12
482.717	89.12
482.935	78.12
483.153	95.12
483.372	78.12
483.59	74.12
483.808	81.12
484.027	80.12
484.245	88.12
484.463	83.12
484.681	88.12
484.9	96.12
485.118	90.12
485.336	71.12
485.554	84.12
485.772	82.12
485.99	80.12
486.209	88.12
486.427	86.12
486.645	76.12
486.863	74.12
487.081	90.12
487.299	93.12
487.517	90.12
487.735	78.12
487.953	97.12
488.171	98.12
488.389	76.12
488.607	86.12
488.825	82.12
489.043	86.12
489.261	95.12
489.479	94.12
489.696	75.12
489.914	88.12
490.132	88.12
490.35	92.12
490.568	94.12
490.786	94.12
491.003	79.12
491.221	66.12
491.439	72.12
491.657	95.12
491.874	87.12
492.092	83.12
492.31	86.12
492.527	74.12
492.745	82.12
492.963	80.12
493.18	83.12
493.398	92.12
493.615	86.12
493.833	77.12
494.05	87.12
494.268	102.12
494.485	81.12
494.703	98.12
494.92	98.12
495.138	85.12
495.355	79.12
495.573	88.12
495.79	68.12
496.008	93.12
496.225	94.12
496.442	90.12
496.66	98.12
496.877	94.12
497.094	92.12
497.312	82.12
497.529	103.12
497.746	82.12
497.963	84.12
498.181	83.12
498.398	91.12
498.615	74.12
498.832	76.12
499.049	95.12
499.267	90.12
499.484	91.12
499.701	82.12
499.918	82.12
500.135	80.12
500.352	88.12
500.569	98.12
500.786	98.12
501.003	78.12
501.22	84.12
501.437	95.12
501.654	106.12
501.871	79.12
502.088	78.12
502.305	102.12
502.522	82.12
502.739	85.12
502.956	82.12
503.172	82.12
503.389	88.12
503.606	82.12
503.823	94.12
504.04	76.12
504.256	95.12
504.473	93.12
504.69	91.12
504.907	92.12
505.123	75.12
505.34	93.12
505.557	82.12
505.773	79.12
505.99	98.12
506.207	94.12
506.423	101.12
506.64	86.12
506.856	94.12
507.073	94.12
507.289	98.12
507.506	73.12
507.722	98.12
507.939	69.12
508.155	92.12
508.372	91.12
508.588	79.12
508.805	83.12
509.021	87.12
509.238	90.12
509.454	91.12
509.67	90.12
509.887	89.12
510.103	94.12
510.319	75.12
510.536	85.12
510.752	87.12
510.968	86.12
511.184	80.12
511.401	74.12
511.617	93.12
511.833	81.12
512.049	88.12
512.265	82.12
512.481	72.12
512.698	94.12
512.914	85.12
513.13	99.12
513.346	82.12
513.562	84.12
513.778	98.12
513.994	86.12
514.21	99.12
514.426	92.12
514.642	94.12
514.858	88.12
515.074	98.12
515.29	89.12
515.506	76.12
515.721	75.12
515.937	84.12
516.153	93.12
516.369	82.12
516.585	90.12
516.801	87.12
517.016	89.12
517.232	84.12
517.448	91.12
517.664	91.12
517.879	82.12
518.095	73.12
518.311	80.12
518.527	94.12
518.742	95.12
518.958	98.12
519.173	76.12
519.389	80.12
519.605	91.12
519.82	98.12
520.036	93.12
520.251	72.12
520.467	91.12
520.682	92.12
520.898	90.12
521.113	99.12
521.329	84.12
521.544	87.12
521.76	88.12
521.975	75.12
522.19	98.12
522.406	91.12
522.621	103.12
522.836	80.12
523.052	87.12
523.267	96.12
523.482	64.12
523.698	71.12
523.913	85.12
524.128	86.12
524.343	85.12
524.559	92.12
524.774	76.12
524.989	90.12
525.204	89.12
525.419	84.12
525.634	93.12
525.849	77.12
526.064	94.12
526.28	107.12
526.495	108.12
526.71	114.12
526.925	96.12
527.14	101.12
527.355	119.12
527.57	94.12
527.785	88.12
527.999	89.12
528.214	82.12
528.429	87.12
528.644	85.12
528.859	80.12
529.074	92.12
529.289	93.12
529.503	88.12
529.718	73.12
529.933	94.12
530.148	90.12
530.363	89.12
530.577	91.12
530.792	88.12
531.007	91.12
531.221	93.12
531.436	82.12
531.651	80.12
531.865	88.12
532.08	79.12
532.295	74.12
532.509	92.12
532.724	93.12
532.938	93.12
533.153	83.12
533.367	100.12
533.582	87.12
533.796	89.12
534.011	78.12
534.225	100.12
534.44	105.12
534.654	92.12
534.868	101.12
535.083	105.12
535.297	95.12
535.511	98.12
535.726	88.12
535.94	75.12
536.154	92.12
536.369	91.12
536.583	89.12
536.797	74.12
537.011	101.12
537.225	90.12
537.44	80.12
537.654	83.12
537.868	92.12
538.082	88.12
538.296	71.12
538.51	96.12
538.724	79.12
538.938	86.12
539.153	84.12
539.367	86.12
539.581	88.12
539.795	89.12
540.009	94.12
540.222	90.12
540.436	99.12
540.65	95.12
540.864	91.12
541.078	94.12
541.292	94.12
541.506	95.12
541.72	99.12
541.934	86.12
542.147	87.12
542.361	86.12
542.575	88.12
542.789	97.12
543.002	89.12
543.216	78.12
543.43	76.12
543.644	84.12
543.857	94.12
544.071	83.12
544.285	87.12
544.498	88.12
544.712	99.12
544.925	89.12
545.139	88.12
545.352	89.12
545.566	91.12
545.779	90.12
545.993	93.12
546.206	74.12
546.42	91.12
546.633	93.12
546.847	101.12
547.06	93.12
547.274	101.12
547.487	107.12
547.7	99.12
547.914	106.12
548.127	87.12
548.34	107.12
548.554	91.12
548.767	92.12
548.98	94.12
549.193	90.12
549.407	101.12
549.62	103.12
549.833	105.12
550.046	101.12
550.259	95.12
550.473	94.12
550.686	90.12
550.899	108.12
551.112	92.12
551.325	91.12
551.538	103.12
551.751	94.12
551.964	90.12
552.177	118.12
552.39	110.12
552.603	98.12
552.816	95.12
553.029	100.12
553.242	100.12
553.455	95.12
553.667	103.12
553.88	108.12
554.093	101.12
554.306	104.12
554.519	101.12
554.732	96.12
554.944	95.12
555.157	98.12
555.37	102.12
555.583	111.12
555.795	98.12
556.008	101.12
556.221	94.12
556.433	96.12
556.646	100.12
556.859	95.12
557.071	98.12
557.284	83.12
557.496	91.12
557.709	97.12
557.921	91.12
558.134	98.12
558.346	103.12
558.559	95.12
558.771	101.12
558.984	109.12
559.196	142.12
559.409	96.12
559.621	131.12
559.833	117.12
560.046	114.12
560.258	108.12
560.47	107.12
560.683	95.12
560.895	84.12
561.107	83.12
561.32	92.12
561.532	87.12
561.744	97.12
561.956	86.12
562.168	99.12
562.381	110.12
562.593	88.12
562.805	90.12
563.017	94.12
563.229	87.12
563.441	100.12
563.653	89.12
563.865	82.12
564.077	83.12
564.289	78.12
564.501	86.12
564.713	98.12
564.925	89.12
565.137	89.12
565.349	79.12
565.561	90.12
565.773	100.12
565.985	80.12
566.197	97.12
566.408	89.12
566.62	76.12
566.832	83.12
567.044	72.12
567.255	88.12
567.467	76.12
567.679	97.12
567.891	69.12
568.102	94.12
568.314	94.12
568.526	95.12
568.737	87.12
568.949	84.12
569.161	75.12
569.372	95.12
569.584	101.12
569.795	86.12
570.007	86.12
570.218	90.12
570.43	89.12
570.641	100.12
570.853	101.12
571.064	101.12
571.276	95.12
571.487	82.12
571.698	82.12
571.91	86.12
572.121	82.12
572.333	90.12
572.544	76.12
572.755	84.12
572.966	80.12
573.178	99.12
573.389	73.12
573.6	81.12
573.811	90.12
574.023	73.12
574.234	88.12
574.445	76.12
574.656	88.12
574.867	87.12
575.078	87.12
575.289	100.12
575.501	91.12
575.712	91.12
575.923	100.12
576.134	82.12
576.345	81.12
576.556	97.12
576.767	90.12
576.978	87.12
577.188	89.12
577.399	86.12
577.61	103.12
577.821	95.12
578.032	76.12
578.243	90.12
578.454	76.12
578.665	79.12
578.875	85.12
579.086	73.12
579.297	88.12
579.508	88.12
579.718	86.12
579.929	86.12
580.14	81.12
580.35	83.12
580.561	94.12
580.772	96.12
580.982	96.12
581.193	79.12
581.403	98.12
581.614	105.12
581.825	93.12
582.035	83.12
582.246	104.12
582.456	88.12
582.667	83.12
582.877	93.12
583.087	78.12
583.298	87.12
583.508	91.12
583.719	99.12
583.929	105.12
584.139	92.12
584.35	84.12
584.56	75.12
584.77	95.12
584.981	82.12
585.191	87.12
585.401	87.12
585.611	74.12
585.821	92.12
586.032	104.12
586.242	84.12
586.452	90.12
586.662	80.12
586.872	92.12
587.082	95.12
587.292	82.12
587.502	90.12
587.713	94.12
587.923	88.12
588.133	83.12
588.343	101.12
588.553	99.12
588.762	94.12
588.972	120.12
589.182	190.12
589.392	132.12
589.602	112.12
589.812	182.12
590.022	115.12
590.232	100.12
590.441	96.12
590.651	82.12
590.861	102.12
591.071	98.12
591.281	89.12
591.49	75.12
591.7	76.12
591.91	80.12
592.119	95.12
592.329	86.12
592.539	89.12
592.748	85.12
592.958	81.12
593.167	96.12
593.377	97.12
593.587	102.12
593.796	86.12
594.006	84.12
594.215	76.12
594.424	87.12
594.634	91.12
594.843	87.12
595.053	89.12
595.262	96.12
595.472	92.12
595.681	92.12
595.89	80.12
596.1	92.12
596.309	99.12
596.518	103.12
596.727	97.12
596.937	98.12
597.146	96.12
597.355	84.12
597.564	96.12
597.774	102.12
597.983	89.12
598.192	98.12
598.401	89.12
598.61	96.12
598.819	110.12
599.028	92.12
599.237	85.12
599.446	92.12
599.655	88.12
599.864	100.12
600.073	94.12
600.282	100.12
600.491	87.12
600.7	98.12
600.909	101.12
601.118	90.12
601.327	89.12
601.536	98.12
601.745	90.12
601.953	74.12
602.162	91.12
602.371	94.12
602.58	81.12
602.789	84.12
602.997	83.12
603.206	106.12
603.415	89.12
603.623	92.12
603.832	86.12
604.041	92.12
604.249	99.12
604.458	101.12
604.666	90.12
604.875	91.12
605.084	92.12
605.292	98.12
605.501	94.12
605.709	107.12
605.918	101.12
606.126	105.12
606.334	97.12
606.543	90.12
606.751	97.12
606.96	106.12
607.168	98.12
607.376	107.12
607.585	111.12
607.793	89.12
608.001	90.12
608.21	115.12
608.418	94.12
608.626	106.12
608.834	103.12
609.043	100.12
609.251	92.12
609.459	103.12
609.667	126.12
609.875	114.12
610.083	91.12
610.291	107.12
610.499	118.12
610.707	98.12
610.916	96.12
611.124	95.12
611.332	90.12
611.54	80.12
611.748	90.12
611.955	107.12
612.163	114.12
612.371	124.12
612.579	119.12
612.787	104.12
612.995	102.12
613.203	104.12
613.411	98.12
613.618	95.12
613.826	113.12
614.034	107.12
614.242	110.12
614.449	107.12
614.657	84.12
614.865	110.12
615.072	103.12
615.28	90.12
615.488	95.12
615.695	111.12
615.903	114.12
616.111	112.12
616.318	134.12
616.526	144.12
616.733	105.12
616.941	113.12
617.148	116.12
617.356	108.12
617.563	94.12
617.771	94.12
617.978	91.12
618.185	100.12
618.393	86.12
618.6	98.12
618.807	103.12
619.015	86.12
619.222	83.12
619.429	90.12
619.637	105.12
619.844	96.12
620.051	98.12
620.258	105.12
620.466	98.12
620.673	93.12
620.88	89.12
621.087	90.12
621.294	92.12
621.501	94.12
621.708	90.12
621.915	87.12
622.122	77.12
622.329	97.12
622.536	91.12
622.743	98.12
622.95	101.12
623.157	100.12
623.364	93.12
623.571	100.12
623.778	92.12
623.985	99.12
624.192	100.12
624.399	85.12
624.606	107.12
624.812	93.12
625.019	105.12
625.226	111.12
625.433	101.12
625.639	102.12
625.846	98.12
626.053	90.12
626.259	91.12
626.466	101.12
626.673	86.12
626.879	94.12
627.086	89.12
627.293	99.12
627.499	82.12
627.706	110.12
627.912	93.12
628.119	94.12
628.325	81.12
628.532	94.12
628.738	94.12
628.945	90.12
629.151	87.12
629.357	74.12
629.564	91.12
629.77	88.12
629.976	93.12
630.183	91.12
630.389	104.12
630.595	84.12
630.802	90.12
631.008	94.12
631.214	75.12
631.42	87.12
631.627	88.12
631.833	87.12
632.039	97.12
632.245	84.12
632.451	93.12
632.657	89.12
632.863	94.12
633.069	82.12
633.275	90.12
633.481	76.12
633.688	78.12
633.893	80.12
634.099	107.12
634.305	94.12
634.511	78.12
634.717	69.12
634.923	92.12
635.129	80.12
635.335	75.12
635.541	75.12
635.747	88.12
635.952	82.12
636.158	77.12
636.364	82.12
636.57	91.12
636.775	78.12
636.981	95.12
637.187	80.12
637.392	90.12
637.598	82.12
637.804	102.12
638.009	98.12
638.215	90.12
638.421	77.12
638.626	71.12
638.832	82.12
639.037	82.12
639.243	79.12
639.448	95.12
639.654	90.12
639.859	81.12
640.065	83.12
640.27	86.12
640.475	97.12
640.681	92.12
640.886	86.12
641.091	92.12
641.297	93.12
641.502	96.12
641.707	90.12
641.913	90.12
642.118	96.12
642.323	90.12
642.528	76.12
642.733	89.12
642.939	87.12
643.144	85.12
643.349	98.12
643.554	84.12
643.759	95.12
643.964	107.12
644.169	120.12
644.374	90.12
644.579	80.12
644.784	81.12
644.989	99.12
645.194	104.12
645.399	84.12
645.604	91.12
645.809	97.12
646.014	86.12
646.219	84.12
646.423	98.12
646.628	107.12
646.833	95.12
647.038	87.12
647.243	79.12
647.447	78.12
647.652	90.12
647.857	100.12
648.062	95.12
648.266	95.12
648.471	89.12
648.676	103.12
648.88	92.12
649.085	89.12
649.289	85.12
649.494	92.12
649.698	96.12
649.903	87.12
650.107	88.12
650.312	96.12
650.516	85.12
650.721	80.12
650.925	90.12
651.13	82.12
651.334	95.12
651.539	83.12
651.743	91.12
651.947	76.12
652.152	76.12
652.356	91.12
652.56	90.12
652.764	75.12
652.969	80.12
653.173	91.12
653.377	90.12
653.581	79.12
653.785	83.12
653.99	88.12
654.194	98.12
654.398	92.12
654.602	71.12
654.806	74.12
655.01	89.12
655.214	77.12
655.418	93.12
655.622	91.12
655.826	76.12
656.03	88.12
656.234	92.12
656.438	75.12
656.642	84.12
656.846	82.12
657.049	77.12
657.253	65.12
657.457	96.12
657.661	90.12
657.865	82.12
658.068	80.12
658.272	94.12
658.476	92.12
658.68	88.12
658.883	89.12
659.087	78.12
659.291	91.12
659.494	82.12
659.698	82.12
659.901	78.12
660.105	83.12
660.309	88.12
660.512	80.12
660.716	77.12
660.919	79.12
661.123	88.12
661.326	78.12
661.53	88.12
661.733	89.12
661.936	84.12
662.14	84.12
662.343	94.12
662.546	76.12
662.75	82.12
662.953	86.12
663.156	93.12
663.36	89.12
663.563	96.12
663.766	68.12
663.969	86.12
664.173	86.12
664.376	82.12
664.579	83.12
664.782	96.12
664.985	91.12
665.188	87.12
665.391	97.12
665.594	75.12
665.797	79.12
666	90.12
666.203	72.12
666.406	85.12
666.609	94.12
666.812	99.12
667.015	71.12
667.218	95.12
667.421	98.12
667.624	75.12
667.827	69.12
668.03	90.12
668.232	78.12
668.435	91.12
668.638	76.12
668.841	85.12
669.043	72.12
669.246	84.12
669.449	74.12
669.651	75.12
669.854	100.12
670.057	79.12
670.259	84.12
670.462	75.12
670.665	88.12
670.867	92.12
671.07	76.12
671.272	84.12
671.475	96.12
671.677	81.12
671.88	79.12
672.082	90.12
672.284	76.12
672.487	81.12
672.689	90.12
672.892	83.12
