Data from Circ_1985_H10_HRD10591_00036.txt Node
Date: Wed Jan 03 12:19:29 EST 2024
User: Yrep
Spectrometer: HR+D1059
Trigger mode: 1
Integration Time (sec): 1.000000E-1
Scans to average: 1
Electric dark correction enabled: true
Nonlinearity correction enabled: false
Boxcar width: 0
XAxis mode: Wavelengths
Number of Pixels in Spectrum: 2048
>>>>>Begin Spectral Data<<<<<
223.165	-22.5
223.4	-22.5
223.635	-22.5
223.869	-16.5
224.104	-23.5
224.338	-6.5
224.573	-12.5
224.808	-9.5
225.042	-15.5
225.277	-7.5
225.511	6.5
225.746	10.5
225.98	10.5
226.215	8.5
226.449	9.5
226.683	20.5
226.918	27.5
227.152	20.5
227.387	44.5
227.621	24.5
227.856	34.5
228.09	46.5
228.324	48.5
228.559	54.5
228.793	67.5
229.027	59.5
229.262	67.5
229.496	73.5
229.73	76.5
229.964	85.5
230.199	84.5
230.433	78.5
230.667	75.5
230.901	67.5
231.136	63.5
231.37	65.5
231.604	72.5
231.838	78.5
232.072	69.5
232.306	83.5
232.541	71.5
232.775	72.5
233.009	77.5
233.243	73.5
233.477	81.5
233.711	74.5
233.945	81.5
234.179	55.5
234.413	66.5
234.647	77.5
234.881	83.5
235.115	88.5
235.349	82.5
235.583	84.5
235.817	76.5
236.051	76.5
236.285	73.5
236.519	78.5
236.753	75.5
236.987	83.5
237.221	60.5
237.455	95.5
237.689	78.5
237.922	85.5
238.156	62.5
238.39	69.5
238.624	73.5
238.858	78.5
239.091	65.5
239.325	77.5
239.559	82.5
239.793	81.5
240.027	84.5
240.26	79.5
240.494	73.5
240.728	69.5
240.961	78.5
241.195	64.5
241.429	86.5
241.662	71.5
241.896	81.5
242.13	73.5
242.363	78.5
242.597	64.5
242.83	73.5
243.064	66.5
243.298	77.5
243.531	70.5
243.765	71.5
243.998	78.5
244.232	80.5
244.465	85.5
244.699	71.5
244.932	88.5
245.166	80.5
245.399	85.5
245.633	70.5
245.866	74.5
246.099	73.5
246.333	82.5
246.566	77.5
246.8	91.5
247.033	78.5
247.266	81.5
247.5	81.5
247.733	83.5
247.966	79.5
248.2	83.5
248.433	76.5
248.666	76.5
248.899	72.5
249.133	82.5
249.366	104.5
249.599	92.5
249.832	89.5
250.066	87.5
250.299	80.5
250.532	89.5
250.765	81.5
250.998	83.5
251.231	90.5
251.465	79.5
251.698	70.5
251.931	86.5
252.164	65.5
252.397	77.5
252.63	70.5
252.863	74.5
253.096	79.5
253.329	78.5
253.562	64.5
253.795	88.5
254.028	91.5
254.261	73.5
254.494	75.5
254.727	86.5
254.96	90.5
255.193	83.5
255.426	77.5
255.659	88.5
255.892	87.5
256.124	78.5
256.357	72.5
256.59	74.5
256.823	85.5
257.056	56.5
257.289	76.5
257.521	82.5
257.754	79.5
257.987	75.5
258.22	77.5
258.452	84.5
258.685	63.5
258.918	77.5
259.151	72.5
259.383	85.5
259.616	94.5
259.849	85.5
260.081	81.5
260.314	91.5
260.547	87.5
260.779	85.5
261.012	79.5
261.244	102.5
261.477	80.5
261.71	104.5
261.942	112.5
262.175	107.5
262.407	77.5
262.64	73.5
262.872	74.5
263.105	74.5
263.337	101.5
263.57	85.5
263.802	97.5
264.035	85.5
264.267	92.5
264.499	94.5
264.732	66.5
264.964	81.5
265.197	85.5
265.429	82.5
265.661	83.5
265.894	72.5
266.126	79.5
266.358	93.5
266.591	91.5
266.823	81.5
267.055	85.5
267.287	83.5
267.52	85.5
267.752	94.5
267.984	83.5
268.216	83.5
268.448	77.5
268.681	86.5
268.913	79.5
269.145	72.5
269.377	85.5
269.609	80.5
269.841	92.5
270.073	74.5
270.306	81.5
270.538	84.5
270.77	82.5
271.002	95.5
271.234	71.5
271.466	77.5
271.698	74.5
271.93	81.5
272.162	87.5
272.394	69.5
272.626	94.5
272.858	89.5
273.09	79.5
273.322	80.5
273.553	81.5
273.785	80.5
274.017	84.5
274.249	78.5
274.481	66.5
274.713	73.5
274.945	90.5
275.176	97.5
275.408	82.5
275.64	85.5
275.872	87.5
276.104	87.5
276.335	98.5
276.567	96.5
276.799	96.5
277.031	88.5
277.262	80.5
277.494	90.5
277.726	77.5
277.957	79.5
278.189	83.5
278.421	89.5
278.652	93.5
278.884	93.5
279.115	64.5
279.347	78.5
279.579	78.5
279.81	82.5
280.042	79.5
280.273	81.5
280.505	83.5
280.736	78.5
280.968	87.5
281.199	77.5
281.431	80.5
281.662	86.5
281.894	84.5
282.125	105.5
282.356	90.5
282.588	102.5
282.819	94.5
283.051	91.5
283.282	85.5
283.513	66.5
283.745	84.5
283.976	72.5
284.207	88.5
284.439	90.5
284.67	92.5
284.901	83.5
285.132	90.5
285.364	87.5
285.595	82.5
285.826	87.5
286.057	75.5
286.288	73.5
286.52	100.5
286.751	85.5
286.982	90.5
287.213	84.5
287.444	101.5
287.675	78.5
287.906	92.5
288.138	79.5
288.369	86.5
288.6	72.5
288.831	87.5
289.062	85.5
289.293	74.5
289.524	89.5
289.755	91.5
289.986	73.5
290.217	71.5
290.448	82.5
290.679	74.5
290.91	72.5
291.141	81.5
291.371	83.5
291.602	82.5
291.833	95.5
292.064	90.5
292.295	80.5
292.526	81.5
292.757	91.5
292.987	94.5
293.218	72.5
293.449	74.5
293.68	95.5
293.91	88.5
294.141	92.5
294.372	78.5
294.603	101.5
294.833	85.5
295.064	88.5
295.295	86.5
295.525	92.5
295.756	110.5
295.987	102.5
296.217	107.5
296.448	113.5
296.679	91.5
296.909	84.5
297.14	92.5
297.37	101.5
297.601	75.5
297.831	68.5
298.062	86.5
298.292	87.5
298.523	91.5
298.753	90.5
298.984	86.5
299.214	96.5
299.445	82.5
299.675	80.5
299.905	85.5
300.136	87.5
300.366	80.5
300.597	73.5
300.827	105.5
301.057	85.5
301.288	101.5
301.518	91.5
301.748	78.5
301.979	101.5
302.209	109.5
302.439	97.5
302.669	108.5
302.9	76.5
303.13	89.5
303.36	83.5
303.59	98.5
303.82	104.5
304.051	98.5
304.281	83.5
304.511	73.5
304.741	87.5
304.971	84.5
305.201	94.5
305.431	66.5
305.661	95.5
305.891	87.5
306.121	93.5
306.352	95.5
306.582	99.5
306.812	88.5
307.042	94.5
307.272	83.5
307.502	91.5
307.731	87.5
307.961	85.5
308.191	75.5
308.421	79.5
308.651	107.5
308.881	90.5
309.111	103.5
309.341	83.5
309.571	85.5
309.8	87.5
310.03	90.5
310.26	99.5
310.49	90.5
310.72	107.5
310.949	99.5
311.179	102.5
311.409	90.5
311.639	100.5
311.868	82.5
312.098	87.5
312.328	99.5
312.557	93.5
312.787	101.5
313.017	92.5
313.246	97.5
313.476	78.5
313.706	90.5
313.935	89.5
314.165	96.5
314.394	89.5
314.624	92.5
314.853	93.5
315.083	101.5
315.312	100.5
315.542	90.5
315.771	88.5
316.001	73.5
316.23	93.5
316.46	88.5
316.689	75.5
316.919	90.5
317.148	88.5
317.377	91.5
317.607	95.5
317.836	79.5
318.065	91.5
318.295	89.5
318.524	81.5
318.753	86.5
318.983	101.5
319.212	86.5
319.441	96.5
319.67	100.5
319.9	88.5
320.129	94.5
320.358	84.5
320.587	102.5
320.816	102.5
321.046	90.5
321.275	102.5
321.504	90.5
321.733	91.5
321.962	97.5
322.191	109.5
322.42	89.5
322.649	98.5
322.878	102.5
323.108	117.5
323.337	118.5
323.566	118.5
323.795	133.5
324.024	170.5
324.253	325.5
324.482	690.5
324.71	1429.5
324.939	1877.5
325.168	672.5
325.397	204.5
325.626	136.5
325.855	122.5
326.084	130.5
326.313	109.5
326.542	149.5
326.77	198.5
326.999	413.5
327.228	811.5
327.457	1455.5
327.686	1201.5
327.914	318.5
328.143	164.5
328.372	129.5
328.6	105.5
328.829	104.5
329.058	118.5
329.287	113.5
329.515	110.5
329.744	91.5
329.972	97.5
330.201	111.5
330.43	114.5
330.658	112.5
330.887	127.5
331.115	113.5
331.344	101.5
331.572	102.5
331.801	93.5
332.03	106.5
332.258	91.5
332.486	84.5
332.715	93.5
332.943	97.5
333.172	109.5
333.4	101.5
333.629	105.5
333.857	104.5
334.085	108.5
334.314	107.5
334.542	107.5
334.771	106.5
334.999	98.5
335.227	92.5
335.455	90.5
335.684	97.5
335.912	107.5
336.14	99.5
336.369	80.5
336.597	93.5
336.825	81.5
337.053	83.5
337.281	91.5
337.51	99.5
337.738	100.5
337.966	82.5
338.194	89.5
338.422	85.5
338.65	85.5
338.878	97.5
339.106	95.5
339.334	94.5
339.562	94.5
339.79	90.5
340.018	75.5
340.246	85.5
340.474	87.5
340.702	96.5
340.93	86.5
341.158	103.5
341.386	88.5
341.614	97.5
341.842	85.5
342.07	71.5
342.298	91.5
342.526	85.5
342.754	87.5
342.981	91.5
343.209	105.5
343.437	108.5
343.665	99.5
343.893	85.5
344.12	103.5
344.348	103.5
344.576	91.5
344.804	90.5
345.031	79.5
345.259	97.5
345.487	93.5
345.714	98.5
345.942	93.5
346.17	87.5
346.397	88.5
346.625	93.5
346.853	93.5
347.08	82.5
347.308	77.5
347.535	92.5
347.763	90.5
347.99	86.5
348.218	103.5
348.445	84.5
348.673	85.5
348.9	85.5
349.128	92.5
349.355	104.5
349.583	90.5
349.81	85.5
350.037	94.5
350.265	94.5
350.492	87.5
350.72	98.5
350.947	101.5
351.174	92.5
351.402	111.5
351.629	102.5
351.856	104.5
352.083	101.5
352.311	111.5
352.538	115.5
352.765	112.5
352.992	114.5
353.22	104.5
353.447	103.5
353.674	100.5
353.901	101.5
354.128	95.5
354.355	106.5
354.583	106.5
354.81	113.5
355.037	106.5
355.264	106.5
355.491	96.5
355.718	104.5
355.945	74.5
356.172	98.5
356.399	90.5
356.626	96.5
356.853	91.5
357.08	102.5
357.307	95.5
357.534	91.5
357.761	96.5
357.988	100.5
358.215	103.5
358.441	107.5
358.668	101.5
358.895	100.5
359.122	95.5
359.349	90.5
359.576	95.5
359.802	97.5
360.029	98.5
360.256	110.5
360.483	97.5
360.709	70.5
360.936	94.5
361.163	98.5
361.39	86.5
361.616	90.5
361.843	86.5
362.07	86.5
362.296	89.5
362.523	85.5
362.749	80.5
362.976	101.5
363.203	90.5
363.429	96.5
363.656	90.5
363.882	74.5
364.109	84.5
364.335	84.5
364.562	93.5
364.788	83.5
365.015	93.5
365.241	85.5
365.468	93.5
365.694	104.5
365.92	94.5
366.147	85.5
366.373	73.5
366.599	81.5
366.826	79.5
367.052	80.5
367.278	83.5
367.505	90.5
367.731	75.5
367.957	86.5
368.184	71.5
368.41	101.5
368.636	106.5
368.862	100.5
369.089	91.5
369.315	97.5
369.541	79.5
369.767	83.5
369.993	102.5
370.219	91.5
370.445	95.5
370.672	102.5
370.898	79.5
371.124	93.5
371.35	90.5
371.576	92.5
371.802	81.5
372.028	95.5
372.254	97.5
372.48	73.5
372.706	88.5
372.932	86.5
373.158	95.5
373.384	91.5
373.61	91.5
373.835	90.5
374.061	92.5
374.287	93.5
374.513	91.5
374.739	80.5
374.965	89.5
375.191	96.5
375.416	97.5
375.642	100.5
375.868	100.5
376.094	90.5
376.319	94.5
376.545	83.5
376.771	96.5
376.997	102.5
377.222	77.5
377.448	97.5
377.674	94.5
377.899	81.5
378.125	84.5
378.35	84.5
378.576	97.5
378.802	87.5
379.027	89.5
379.253	95.5
379.478	89.5
379.704	80.5
379.929	99.5
380.155	98.5
380.38	109.5
380.606	89.5
380.831	106.5
381.057	105.5
381.282	97.5
381.507	99.5
381.733	89.5
381.958	99.5
382.184	87.5
382.409	105.5
382.634	111.5
382.86	84.5
383.085	92.5
383.31	107.5
383.535	93.5
383.761	89.5
383.986	98.5
384.211	97.5
384.436	102.5
384.662	102.5
384.887	108.5
385.112	99.5
385.337	97.5
385.562	96.5
385.787	95.5
386.013	100.5
386.238	114.5
386.463	96.5
386.688	103.5
386.913	108.5
387.138	104.5
387.363	90.5
387.588	106.5
387.813	106.5
388.038	119.5
388.263	121.5
388.488	103.5
388.713	90.5
388.938	94.5
389.163	93.5
389.387	82.5
389.612	99.5
389.837	87.5
390.062	80.5
390.287	85.5
390.512	86.5
390.736	82.5
390.961	97.5
391.186	101.5
391.411	89.5
391.636	90.5
391.86	91.5
392.085	99.5
392.31	89.5
392.534	91.5
392.759	98.5
392.984	83.5
393.208	88.5
393.433	119.5
393.658	117.5
393.882	88.5
394.107	88.5
394.331	106.5
394.556	91.5
394.78	114.5
395.005	99.5
395.229	81.5
395.454	73.5
395.678	90.5
395.903	108.5
396.127	89.5
396.352	82.5
396.576	104.5
396.801	97.5
397.025	88.5
397.249	91.5
397.474	102.5
397.698	93.5
397.922	72.5
398.147	100.5
398.371	77.5
398.595	91.5
398.82	82.5
399.044	83.5
399.268	82.5
399.492	87.5
399.717	86.5
399.941	90.5
400.165	87.5
400.389	88.5
400.613	101.5
400.837	89.5
401.062	102.5
401.286	89.5
401.51	88.5
401.734	89.5
401.958	92.5
402.182	107.5
402.406	120.5
402.63	126.5
402.854	101.5
403.078	83.5
403.302	91.5
403.526	99.5
403.75	83.5
403.974	96.5
404.198	79.5
404.422	99.5
404.645	95.5
404.869	95.5
405.093	98.5
405.317	103.5
405.541	101.5
405.765	85.5
405.988	101.5
406.212	161.5
406.436	171.5
406.66	114.5
406.883	96.5
407.107	91.5
407.331	95.5
407.555	86.5
407.778	84.5
408.002	87.5
408.226	92.5
408.449	91.5
408.673	93.5
408.896	95.5
409.12	94.5
409.344	95.5
409.567	82.5
409.791	86.5
410.014	85.5
410.238	83.5
410.461	79.5
410.685	80.5
410.908	96.5
411.132	96.5
411.355	94.5
411.578	92.5
411.802	87.5
412.025	90.5
412.249	90.5
412.472	95.5
412.695	83.5
412.919	97.5
413.142	101.5
413.365	73.5
413.589	85.5
413.812	85.5
414.035	87.5
414.258	86.5
414.482	94.5
414.705	81.5
414.928	101.5
415.151	105.5
415.374	91.5
415.597	94.5
415.821	81.5
416.044	91.5
416.267	105.5
416.49	96.5
416.713	90.5
416.936	112.5
417.159	83.5
417.382	90.5
417.605	89.5
417.828	88.5
418.051	87.5
418.274	93.5
418.497	82.5
418.72	85.5
418.943	96.5
419.166	98.5
419.389	84.5
419.611	110.5
419.834	98.5
420.057	80.5
420.28	81.5
420.503	98.5
420.726	88.5
420.948	90.5
421.171	95.5
421.394	84.5
421.617	96.5
421.839	84.5
422.062	82.5
422.285	103.5
422.507	99.5
422.73	116.5
422.953	102.5
423.175	87.5
423.398	97.5
423.621	87.5
423.843	81.5
424.066	79.5
424.288	105.5
424.511	81.5
424.733	91.5
424.956	107.5
425.178	100.5
425.401	90.5
425.623	91.5
425.846	87.5
426.068	79.5
426.291	102.5
426.513	88.5
426.735	92.5
426.958	91.5
427.18	115.5
427.402	110.5
427.625	139.5
427.847	107.5
428.069	102.5
428.292	85.5
428.514	94.5
428.736	78.5
428.958	80.5
429.181	86.5
429.403	77.5
429.625	88.5
429.847	88.5
430.069	84.5
430.292	94.5
430.514	93.5
430.736	78.5
430.958	105.5
431.18	95.5
431.402	93.5
431.624	83.5
431.846	86.5
432.068	85.5
432.29	91.5
432.512	102.5
432.734	88.5
432.956	91.5
433.178	106.5
433.4	93.5
433.622	88.5
433.844	96.5
434.066	68.5
434.287	95.5
434.509	88.5
434.731	87.5
434.953	102.5
435.175	90.5
435.397	72.5
435.618	98.5
435.84	89.5
436.062	114.5
436.284	118.5
436.505	105.5
436.727	101.5
436.949	105.5
437.17	89.5
437.392	87.5
437.614	102.5
437.835	103.5
438.057	96.5
438.278	104.5
438.5	104.5
438.721	100.5
438.943	105.5
439.165	93.5
439.386	99.5
439.608	93.5
439.829	87.5
440.05	127.5
440.272	120.5
440.493	94.5
440.715	86.5
440.936	89.5
441.158	84.5
441.379	87.5
441.6	79.5
441.822	96.5
442.043	92.5
442.264	97.5
442.486	72.5
442.707	86.5
442.928	85.5
443.149	107.5
443.371	120.5
443.592	104.5
443.813	95.5
444.034	90.5
444.255	83.5
444.476	100.5
444.698	85.5
444.919	88.5
445.14	118.5
445.361	103.5
445.582	98.5
445.803	128.5
446.024	113.5
446.245	124.5
446.466	114.5
446.687	92.5
446.908	79.5
447.129	97.5
447.35	84.5
447.571	81.5
447.792	81.5
448.013	97.5
448.234	92.5
448.455	91.5
448.675	111.5
448.896	113.5
449.117	95.5
449.338	106.5
449.559	101.5
449.779	121.5
450	88.5
450.221	89.5
450.442	90.5
450.662	95.5
450.883	98.5
451.104	81.5
451.324	89.5
451.545	87.5
451.766	96.5
451.986	89.5
452.207	88.5
452.428	101.5
452.648	95.5
452.869	92.5
453.089	94.5
453.31	97.5
453.53	92.5
453.751	71.5
453.971	86.5
454.192	94.5
454.412	77.5
454.633	71.5
454.853	88.5
455.073	72.5
455.294	92.5
455.514	96.5
455.734	82.5
455.955	78.5
456.175	91.5
456.395	89.5
456.616	85.5
456.836	77.5
457.056	74.5
457.276	86.5
457.497	79.5
457.717	81.5
457.937	80.5
458.157	88.5
458.377	85.5
458.598	81.5
458.818	127.5
459.038	151.5
459.258	108.5
459.478	67.5
459.698	87.5
459.918	81.5
460.138	83.5
460.358	84.5
460.578	88.5
460.798	78.5
461.018	97.5
461.238	85.5
461.458	89.5
461.678	90.5
461.898	81.5
462.118	86.5
462.338	80.5
462.558	94.5
462.777	84.5
462.997	90.5
463.217	92.5
463.437	75.5
463.657	74.5
463.876	79.5
464.096	80.5
464.316	80.5
464.536	98.5
464.755	95.5
464.975	94.5
465.195	133.5
465.414	122.5
465.634	86.5
465.854	84.5
466.073	79.5
466.293	86.5
466.512	89.5
466.732	77.5
466.951	86.5
467.171	93.5
467.391	89.5
467.61	96.5
467.829	98.5
468.049	107.5
468.268	94.5
468.488	87.5
468.707	87.5
468.927	62.5
469.146	89.5
469.365	71.5
469.585	79.5
469.804	90.5
470.023	89.5
470.243	85.5
470.462	94.5
470.681	99.5
470.901	93.5
471.12	80.5
471.339	90.5
471.558	85.5
471.777	87.5
471.997	91.5
472.216	104.5
472.435	121.5
472.654	104.5
472.873	77.5
473.092	87.5
473.311	78.5
473.53	80.5
473.749	93.5
473.968	89.5
474.187	106.5
474.406	88.5
474.625	83.5
474.844	93.5
475.063	73.5
475.282	96.5
475.501	80.5
475.72	87.5
475.939	75.5
476.158	85.5
476.377	79.5
476.596	95.5
476.814	86.5
477.033	100.5
477.252	110.5
477.471	81.5
477.69	82.5
477.908	99.5
478.127	79.5
478.346	79.5
478.564	71.5
478.783	105.5
479.002	98.5
479.22	92.5
479.439	111.5
479.658	95.5
479.876	77.5
480.095	90.5
480.313	81.5
480.532	85.5
480.751	89.5
480.969	90.5
481.188	146.5
481.406	132.5
481.624	101.5
481.843	70.5
482.061	88.5
482.28	81.5
482.498	87.5
482.717	93.5
482.935	96.5
483.153	92.5
483.372	83.5
483.59	93.5
483.808	94.5
484.027	79.5
484.245	91.5
484.463	85.5
484.681	93.5
484.9	87.5
485.118	107.5
485.336	76.5
485.554	107.5
485.772	101.5
485.99	90.5
486.209	116.5
486.427	113.5
486.645	103.5
486.863	103.5
487.081	97.5
487.299	91.5
487.517	87.5
487.735	96.5
487.953	89.5
488.171	88.5
488.389	104.5
488.607	76.5
488.825	89.5
489.043	105.5
489.261	81.5
489.479	84.5
489.696	81.5
489.914	67.5
490.132	84.5
490.35	77.5
490.568	90.5
490.786	84.5
491.003	70.5
491.221	93.5
491.439	87.5
491.657	84.5
491.874	89.5
492.092	82.5
492.31	98.5
492.527	103.5
492.745	93.5
492.963	90.5
493.18	93.5
493.398	81.5
493.615	85.5
493.833	79.5
494.05	93.5
494.268	90.5
494.485	88.5
494.703	81.5
494.92	79.5
495.138	87.5
495.355	88.5
495.573	87.5
495.79	88.5
496.008	93.5
496.225	90.5
496.442	104.5
496.66	87.5
496.877	76.5
497.094	94.5
497.312	85.5
497.529	81.5
497.746	73.5
497.963	82.5
498.181	68.5
498.398	90.5
498.615	93.5
498.832	93.5
499.049	87.5
499.267	92.5
499.484	88.5
499.701	105.5
499.918	94.5
500.135	81.5
500.352	101.5
500.569	89.5
500.786	93.5
501.003	90.5
501.22	85.5
501.437	98.5
501.654	99.5
501.871	101.5
502.088	91.5
502.305	93.5
502.522	89.5
502.739	95.5
502.956	89.5
503.172	88.5
503.389	98.5
503.606	98.5
503.823	98.5
504.04	80.5
504.256	92.5
504.473	92.5
504.69	88.5
504.907	84.5
505.123	71.5
505.34	89.5
505.557	96.5
505.773	88.5
505.99	72.5
506.207	95.5
506.423	68.5
506.64	87.5
506.856	81.5
507.073	76.5
507.289	89.5
507.506	84.5
507.722	94.5
507.939	98.5
508.155	89.5
508.372	84.5
508.588	81.5
508.805	85.5
509.021	81.5
509.238	89.5
509.454	90.5
509.67	101.5
509.887	109.5
510.103	104.5
510.319	168.5
510.536	561.5
510.752	1717.5
510.968	499.5
511.184	143.5
511.401	99.5
511.617	104.5
511.833	88.5
512.049	83.5
512.265	101.5
512.481	96.5
512.698	95.5
512.914	103.5
513.13	89.5
513.346	89.5
513.562	97.5
513.778	95.5
513.994	93.5
514.21	92.5
514.426	109.5
514.642	112.5
514.858	106.5
515.074	134.5
515.29	308.5
515.506	989.5
515.721	353.5
515.937	121.5
516.153	94.5
516.369	99.5
516.585	99.5
516.801	95.5
517.016	97.5
517.232	97.5
517.448	80.5
517.664	87.5
517.879	89.5
518.095	89.5
518.311	91.5
518.527	78.5
518.742	93.5
518.958	87.5
519.173	98.5
519.389	87.5
519.605	82.5
519.82	79.5
520.036	88.5
520.251	94.5
520.467	102.5
520.682	88.5
520.898	101.5
521.113	100.5
521.329	121.5
521.544	164.5
521.76	386.5
521.975	1663.5
522.19	959.5
522.406	241.5
522.621	105.5
522.836	106.5
523.052	77.5
523.267	86.5
523.482	91.5
523.698	98.5
523.913	109.5
524.128	106.5
524.343	95.5
524.559	77.5
524.774	94.5
524.989	87.5
525.204	108.5
525.419	88.5
525.634	77.5
525.849	89.5
526.064	87.5
526.28	85.5
526.495	103.5
526.71	88.5
526.925	91.5
527.14	81.5
527.355	87.5
527.57	85.5
527.785	84.5
527.999	81.5
528.214	105.5
528.429	91.5
528.644	72.5
528.859	89.5
529.074	89.5
529.289	117.5
529.503	137.5
529.718	89.5
529.933	87.5
530.148	105.5
530.363	91.5
530.577	81.5
530.792	82.5
531.007	97.5
531.221	89.5
531.436	74.5
531.651	93.5
531.865	74.5
532.08	83.5
532.295	94.5
532.509	87.5
532.724	92.5
532.938	86.5
533.153	83.5
533.367	75.5
533.582	97.5
533.796	100.5
534.011	89.5
534.225	104.5
534.44	102.5
534.654	100.5
534.868	92.5
535.083	97.5
535.297	96.5
535.511	104.5
535.726	80.5
535.94	102.5
536.154	99.5
536.369	89.5
536.583	76.5
536.797	94.5
537.011	93.5
537.225	79.5
537.44	79.5
537.654	91.5
537.868	90.5
538.082	92.5
538.296	96.5
538.51	86.5
538.724	82.5
538.938	81.5
539.153	89.5
539.367	90.5
539.581	88.5
539.795	90.5
540.009	100.5
540.222	86.5
540.436	82.5
540.65	79.5
540.864	75.5
541.078	86.5
541.292	93.5
541.506	89.5
541.72	88.5
541.934	84.5
542.147	85.5
542.361	94.5
542.575	102.5
542.789	67.5
543.002	74.5
543.216	104.5
543.43	91.5
543.644	86.5
543.857	97.5
544.071	92.5
544.285	87.5
544.498	90.5
544.712	87.5
544.925	91.5
545.139	72.5
545.352	84.5
545.566	89.5
545.779	90.5
545.993	85.5
546.206	83.5
546.42	91.5
546.633	80.5
546.847	93.5
547.06	77.5
547.274	98.5
547.487	88.5
547.7	87.5
547.914	88.5
548.127	80.5
548.34	66.5
548.554	95.5
548.767	85.5
548.98	68.5
549.193	86.5
549.407	93.5
549.62	96.5
549.833	82.5
550.046	79.5
550.259	91.5
550.473	93.5
550.686	85.5
550.899	94.5
551.112	77.5
551.325	72.5
551.538	95.5
551.751	78.5
551.964	96.5
552.177	77.5
552.39	78.5
552.603	77.5
552.816	87.5
553.029	82.5
553.242	100.5
553.455	96.5
553.667	98.5
553.88	97.5
554.093	109.5
554.306	88.5
554.519	95.5
554.732	78.5
554.944	99.5
555.157	85.5
555.37	87.5
555.583	92.5
555.795	91.5
556.008	87.5
556.221	80.5
556.433	77.5
556.646	105.5
556.859	91.5
557.071	85.5
557.284	74.5
557.496	85.5
557.709	95.5
557.921	85.5
558.134	83.5
558.346	69.5
558.559	91.5
558.771	94.5
558.984	77.5
559.196	90.5
559.409	86.5
559.621	77.5
559.833	87.5
560.046	70.5
560.258	97.5
560.47	85.5
560.683	85.5
560.895	102.5
561.107	105.5
561.32	70.5
561.532	81.5
561.744	92.5
561.956	92.5
562.168	93.5
562.381	95.5
562.593	94.5
562.805	95.5
563.017	82.5
563.229	97.5
563.441	86.5
563.653	67.5
563.865	69.5
564.077	98.5
564.289	95.5
564.501	91.5
564.713	84.5
564.925	94.5
565.137	87.5
565.349	90.5
565.561	85.5
565.773	85.5
565.985	107.5
566.197	77.5
566.408	97.5
566.62	85.5
566.832	91.5
567.044	86.5
567.255	78.5
567.467	90.5
567.679	91.5
567.891	89.5
568.102	104.5
568.314	75.5
568.526	97.5
568.737	85.5
568.949	87.5
569.161	84.5
569.372	78.5
569.584	97.5
569.795	104.5
570.007	97.5
570.218	193.5
570.43	97.5
570.641	88.5
570.853	81.5
571.064	88.5
571.276	86.5
571.487	65.5
571.698	96.5
571.91	100.5
572.121	100.5
572.333	95.5
572.544	94.5
572.755	69.5
572.966	91.5
573.178	74.5
573.389	86.5
573.6	66.5
573.811	102.5
574.023	105.5
574.234	95.5
574.445	103.5
574.656	95.5
574.867	97.5
575.078	87.5
575.289	80.5
575.501	81.5
575.712	89.5
575.923	80.5
576.134	74.5
576.345	86.5
576.556	84.5
576.767	87.5
576.978	81.5
577.188	95.5
577.399	96.5
577.61	97.5
577.821	102.5
578.032	102.5
578.243	216.5
578.454	535.5
578.665	167.5
578.875	103.5
579.086	86.5
579.297	83.5
579.508	86.5
579.718	93.5
579.929	86.5
580.14	91.5
580.35	72.5
580.561	89.5
580.772	79.5
580.982	94.5
581.193	84.5
581.403	92.5
581.614	84.5
581.825	77.5
582.035	90.5
582.246	81.5
582.456	90.5
582.667	93.5
582.877	91.5
583.087	71.5
583.298	101.5
583.508	90.5
583.719	81.5
583.929	87.5
584.139	89.5
584.35	82.5
584.56	93.5
584.77	88.5
584.981	92.5
585.191	84.5
585.401	81.5
585.611	89.5
585.821	86.5
586.032	89.5
586.242	89.5
586.452	84.5
586.662	65.5
586.872	87.5
587.082	81.5
587.292	91.5
587.502	89.5
587.713	95.5
587.923	83.5
588.133	87.5
588.343	80.5
588.553	88.5
588.762	98.5
588.972	123.5
589.182	121.5
589.392	92.5
589.602	99.5
589.812	105.5
590.022	96.5
590.232	83.5
590.441	73.5
590.651	83.5
590.861	81.5
591.071	87.5
591.281	98.5
591.49	85.5
591.7	91.5
591.91	79.5
592.119	89.5
592.329	100.5
592.539	104.5
592.748	86.5
592.958	84.5
593.167	84.5
593.377	76.5
593.587	98.5
593.796	87.5
594.006	84.5
594.215	74.5
594.424	89.5
594.634	93.5
594.843	87.5
595.053	78.5
595.262	82.5
595.472	95.5
595.681	77.5
595.89	75.5
596.1	81.5
596.309	100.5
596.518	77.5
596.727	95.5
596.937	74.5
597.146	77.5
597.355	85.5
597.564	82.5
597.774	97.5
597.983	81.5
598.192	70.5
598.401	85.5
598.61	98.5
598.819	85.5
599.028	71.5
599.237	90.5
599.446	87.5
599.655	101.5
599.864	77.5
600.073	82.5
600.282	81.5
600.491	94.5
600.7	87.5
600.909	87.5
601.118	93.5
601.327	94.5
601.536	91.5
601.745	99.5
601.953	75.5
602.162	92.5
602.371	90.5
602.58	83.5
602.789	87.5
602.997	90.5
603.206	102.5
603.415	82.5
603.623	85.5
603.832	98.5
604.041	89.5
604.249	84.5
604.458	95.5
604.666	67.5
604.875	93.5
605.084	93.5
605.292	88.5
605.501	85.5
605.709	92.5
605.918	89.5
606.126	73.5
606.334	85.5
606.543	72.5
606.751	91.5
606.96	86.5
607.168	87.5
607.376	98.5
607.585	93.5
607.793	93.5
608.001	87.5
608.21	95.5
608.418	85.5
608.626	86.5
608.834	96.5
609.043	85.5
609.251	72.5
609.459	80.5
609.667	83.5
609.875	89.5
610.083	84.5
610.291	92.5
610.499	86.5
610.707	78.5
610.916	73.5
611.124	88.5
611.332	89.5
611.54	84.5
611.748	89.5
611.955	90.5
612.163	89.5
612.371	73.5
612.579	92.5
612.787	78.5
612.995	86.5
613.203	78.5
613.411	68.5
613.618	79.5
613.826	90.5
614.034	85.5
614.242	96.5
614.449	85.5
614.657	87.5
614.865	70.5
615.072	81.5
615.28	77.5
615.488	79.5
615.695	86.5
615.903	95.5
616.111	101.5
616.318	81.5
616.526	83.5
616.733	96.5
616.941	87.5
617.148	93.5
617.356	99.5
617.563	95.5
617.771	95.5
617.978	85.5
618.185	95.5
618.393	88.5
618.6	88.5
618.807	90.5
619.015	83.5
619.222	84.5
619.429	67.5
619.637	99.5
619.844	81.5
620.051	72.5
620.258	81.5
620.466	84.5
620.673	80.5
620.88	73.5
621.087	95.5
621.294	74.5
621.501	77.5
621.708	82.5
621.915	79.5
622.122	77.5
622.329	64.5
622.536	83.5
622.743	67.5
622.95	92.5
623.157	91.5
623.364	89.5
623.571	65.5
623.778	98.5
623.985	89.5
624.192	84.5
624.399	90.5
624.606	93.5
624.812	93.5
625.019	102.5
625.226	90.5
625.433	92.5
625.639	87.5
625.846	71.5
626.053	86.5
626.259	87.5
626.466	83.5
626.673	84.5
626.879	79.5
627.086	82.5
627.293	99.5
627.499	71.5
627.706	89.5
627.912	89.5
628.119	74.5
628.325	88.5
628.532	87.5
628.738	87.5
628.945	81.5
629.151	88.5
629.357	90.5
629.564	82.5
629.77	86.5
629.976	81.5
630.183	81.5
630.389	69.5
630.595	83.5
630.802	69.5
631.008	85.5
631.214	90.5
631.42	82.5
631.627	96.5
631.833	84.5
632.039	82.5
632.245	78.5
632.451	87.5
632.657	85.5
632.863	78.5
633.069	83.5
633.275	88.5
633.481	74.5
633.688	86.5
633.893	83.5
634.099	74.5
634.305	77.5
634.511	83.5
634.717	78.5
634.923	75.5
635.129	85.5
635.335	84.5
635.541	97.5
635.747	86.5
635.952	69.5
636.158	77.5
636.364	77.5
636.57	89.5
636.775	93.5
636.981	85.5
637.187	88.5
637.392	67.5
637.598	82.5
637.804	79.5
638.009	74.5
638.215	87.5
638.421	93.5
638.626	70.5
638.832	81.5
639.037	85.5
639.243	88.5
639.448	94.5
639.654	89.5
639.859	91.5
640.065	80.5
640.27	97.5
640.475	87.5
640.681	94.5
640.886	94.5
641.091	82.5
641.297	69.5
641.502	89.5
641.707	83.5
641.913	82.5
642.118	86.5
642.323	78.5
642.528	87.5
642.733	90.5
642.939	84.5
643.144	95.5
643.349	87.5
643.554	85.5
643.759	79.5
643.964	81.5
644.169	81.5
644.374	84.5
644.579	81.5
644.784	74.5
644.989	78.5
645.194	91.5
645.399	79.5
645.604	88.5
645.809	91.5
646.014	81.5
646.219	85.5
646.423	85.5
646.628	89.5
646.833	88.5
647.038	91.5
647.243	87.5
647.447	81.5
647.652	78.5
647.857	87.5
648.062	83.5
648.266	85.5
648.471	85.5
648.676	85.5
648.88	88.5
649.085	93.5
649.289	87.5
649.494	99.5
649.698	139.5
649.903	105.5
650.107	85.5
650.312	88.5
650.516	95.5
650.721	82.5
650.925	73.5
651.13	90.5
651.334	82.5
651.539	74.5
651.743	87.5
651.947	73.5
652.152	94.5
652.356	83.5
652.56	94.5
652.764	82.5
652.969	87.5
653.173	93.5
653.377	75.5
653.581	88.5
653.785	82.5
653.99	81.5
654.194	91.5
654.398	72.5
654.602	88.5
654.806	94.5
655.01	97.5
655.214	103.5
655.418	105.5
655.622	93.5
655.826	84.5
656.03	98.5
656.234	100.5
656.438	81.5
656.642	97.5
656.846	105.5
657.049	94.5
657.253	83.5
657.457	74.5
657.661	80.5
657.865	79.5
658.068	88.5
658.272	80.5
658.476	88.5
658.68	98.5
658.883	88.5
659.087	83.5
659.291	81.5
659.494	79.5
659.698	86.5
659.901	91.5
660.105	77.5
660.309	86.5
660.512	85.5
660.716	73.5
660.919	79.5
661.123	84.5
661.326	87.5
661.53	82.5
661.733	79.5
661.936	73.5
662.14	77.5
662.343	102.5
662.546	81.5
662.75	82.5
662.953	89.5
663.156	79.5
663.36	83.5
663.563	83.5
663.766	66.5
663.969	85.5
664.173	71.5
664.376	80.5
664.579	69.5
664.782	84.5
664.985	82.5
665.188	85.5
665.391	74.5
665.594	77.5
665.797	95.5
666	93.5
666.203	78.5
666.406	80.5
666.609	81.5
666.812	69.5
667.015	88.5
667.218	81.5
667.421	79.5
667.624	85.5
667.827	82.5
668.03	80.5
668.232	79.5
668.435	75.5
668.638	81.5
668.841	77.5
669.043	77.5
669.246	85.5
669.449	66.5
669.651	77.5
669.854	89.5
670.057	70.5
670.259	80.5
670.462	88.5
670.665	62.5
670.867	91.5
671.07	73.5
671.272	66.5
671.475	93.5
671.677	74.5
671.88	83.5
672.082	67.5
672.284	80.5
672.487	83.5
672.689	80.5
672.892	79.5
