Data from Circ_1985_H10_HRD10591_00076.txt Node
Date: Wed Jan 03 12:19:37 EST 2024
User: Yrep
Spectrometer: HR+D1059
Trigger mode: 1
Integration Time (sec): 1.000000E-1
Scans to average: 1
Electric dark correction enabled: true
Nonlinearity correction enabled: false
Boxcar width: 0
XAxis mode: Wavelengths
Number of Pixels in Spectrum: 2048
>>>>>Begin Spectral Data<<<<<
223.165	-19.56
223.4	-19.56
223.635	-19.56
223.869	-18.56
224.104	-22.56
224.338	-12.56
224.573	-0.56
224.808	-22.56
225.042	-9.56
225.277	-16.56
225.511	5.44
225.746	8.44
225.98	8.44
226.215	2.44
226.449	28.44
226.683	12.44
226.918	25.44
227.152	31.44
227.387	37.44
227.621	44.44
227.856	44.44
228.09	51.44
228.324	50.44
228.559	61.44
228.793	56.44
229.027	56.44
229.262	76.44
229.496	75.44
229.73	74.44
229.964	69.44
230.199	74.44
230.433	66.44
230.667	82.44
230.901	81.44
231.136	67.44
231.37	94.44
231.604	82.44
231.838	68.44
232.072	78.44
232.306	84.44
232.541	80.44
232.775	84.44
233.009	92.44
233.243	88.44
233.477	73.44
233.711	78.44
233.945	81.44
234.179	72.44
234.413	92.44
234.647	84.44
234.881	73.44
235.115	74.44
235.349	90.44
235.583	72.44
235.817	79.44
236.051	91.44
236.285	80.44
236.519	76.44
236.753	83.44
236.987	75.44
237.221	77.44
237.455	104.44
237.689	79.44
237.922	68.44
238.156	90.44
238.39	64.44
238.624	79.44
238.858	79.44
239.091	65.44
239.325	75.44
239.559	87.44
239.793	71.44
240.027	89.44
240.26	63.44
240.494	67.44
240.728	83.44
240.961	74.44
241.195	72.44
241.429	79.44
241.662	73.44
241.896	77.44
242.13	79.44
242.363	81.44
242.597	85.44
242.83	80.44
243.064	76.44
243.298	70.44
243.531	67.44
243.765	77.44
243.998	75.44
244.232	78.44
244.465	89.44
244.699	85.44
244.932	72.44
245.166	75.44
245.399	86.44
245.633	84.44
245.866	78.44
246.099	74.44
246.333	82.44
246.566	88.44
246.8	82.44
247.033	85.44
247.266	75.44
247.5	69.44
247.733	80.44
247.966	79.44
248.2	80.44
248.433	86.44
248.666	90.44
248.899	74.44
249.133	74.44
249.366	99.44
249.599	87.44
249.832	82.44
250.066	90.44
250.299	81.44
250.532	72.44
250.765	84.44
250.998	83.44
251.231	94.44
251.465	77.44
251.698	82.44
251.931	76.44
252.164	82.44
252.397	93.44
252.63	82.44
252.863	83.44
253.096	89.44
253.329	80.44
253.562	88.44
253.795	80.44
254.028	79.44
254.261	83.44
254.494	82.44
254.727	84.44
254.96	84.44
255.193	72.44
255.426	68.44
255.659	81.44
255.892	79.44
256.124	72.44
256.357	74.44
256.59	85.44
256.823	83.44
257.056	70.44
257.289	87.44
257.521	87.44
257.754	84.44
257.987	91.44
258.22	87.44
258.452	79.44
258.685	88.44
258.918	81.44
259.151	90.44
259.383	85.44
259.616	68.44
259.849	65.44
260.081	93.44
260.314	95.44
260.547	79.44
260.779	77.44
261.012	92.44
261.244	85.44
261.477	82.44
261.71	94.44
261.942	96.44
262.175	119.44
262.407	79.44
262.64	65.44
262.872	81.44
263.105	90.44
263.337	91.44
263.57	97.44
263.802	80.44
264.035	91.44
264.267	91.44
264.499	78.44
264.732	88.44
264.964	87.44
265.197	84.44
265.429	80.44
265.661	91.44
265.894	79.44
266.126	92.44
266.358	81.44
266.591	93.44
266.823	81.44
267.055	88.44
267.287	94.44
267.52	85.44
267.752	90.44
267.984	92.44
268.216	76.44
268.448	74.44
268.681	81.44
268.913	79.44
269.145	100.44
269.377	76.44
269.609	66.44
269.841	95.44
270.073	89.44
270.306	87.44
270.538	84.44
270.77	79.44
271.002	87.44
271.234	79.44
271.466	99.44
271.698	90.44
271.93	109.44
272.162	86.44
272.394	77.44
272.626	83.44
272.858	81.44
273.09	91.44
273.322	73.44
273.553	77.44
273.785	81.44
274.017	101.44
274.249	94.44
274.481	91.44
274.713	90.44
274.945	96.44
275.176	90.44
275.408	81.44
275.64	87.44
275.872	84.44
276.104	88.44
276.335	88.44
276.567	104.44
276.799	99.44
277.031	97.44
277.262	94.44
277.494	107.44
277.726	87.44
277.957	72.44
278.189	72.44
278.421	87.44
278.652	75.44
278.884	91.44
279.115	87.44
279.347	89.44
279.579	77.44
279.81	73.44
280.042	84.44
280.273	86.44
280.505	95.44
280.736	87.44
280.968	88.44
281.199	82.44
281.431	97.44
281.662	82.44
281.894	75.44
282.125	89.44
282.356	102.44
282.588	137.44
282.819	114.44
283.051	96.44
283.282	95.44
283.513	97.44
283.745	81.44
283.976	84.44
284.207	87.44
284.439	100.44
284.67	87.44
284.901	87.44
285.132	83.44
285.364	82.44
285.595	83.44
285.826	71.44
286.057	94.44
286.288	99.44
286.52	80.44
286.751	76.44
286.982	73.44
287.213	85.44
287.444	83.44
287.675	92.44
287.906	84.44
288.138	80.44
288.369	88.44
288.6	74.44
288.831	84.44
289.062	95.44
289.293	71.44
289.524	91.44
289.755	87.44
289.986	79.44
290.217	82.44
290.448	93.44
290.679	69.44
290.91	87.44
291.141	103.44
291.371	86.44
291.602	76.44
291.833	81.44
292.064	94.44
292.295	84.44
292.526	92.44
292.757	98.44
292.987	92.44
293.218	80.44
293.449	88.44
293.68	87.44
293.91	96.44
294.141	99.44
294.372	95.44
294.603	83.44
294.833	73.44
295.064	80.44
295.295	70.44
295.525	93.44
295.756	103.44
295.987	111.44
296.217	131.44
296.448	114.44
296.679	94.44
296.909	99.44
297.14	80.44
297.37	90.44
297.601	89.44
297.831	96.44
298.062	82.44
298.292	88.44
298.523	80.44
298.753	103.44
298.984	79.44
299.214	93.44
299.445	106.44
299.675	93.44
299.905	91.44
300.136	96.44
300.366	82.44
300.597	83.44
300.827	103.44
301.057	97.44
301.288	112.44
301.518	97.44
301.748	75.44
301.979	103.44
302.209	78.44
302.439	86.44
302.669	105.44
302.9	80.44
303.13	99.44
303.36	91.44
303.59	116.44
303.82	113.44
304.051	86.44
304.281	87.44
304.511	85.44
304.741	85.44
304.971	92.44
305.201	95.44
305.431	87.44
305.661	100.44
305.891	69.44
306.121	84.44
306.352	111.44
306.582	112.44
306.812	92.44
307.042	85.44
307.272	87.44
307.502	99.44
307.731	92.44
307.961	84.44
308.191	83.44
308.421	91.44
308.651	89.44
308.881	88.44
309.111	82.44
309.341	93.44
309.571	104.44
309.8	107.44
310.03	85.44
310.26	112.44
310.49	107.44
310.72	91.44
310.949	90.44
311.179	97.44
311.409	91.44
311.639	84.44
311.868	96.44
312.098	86.44
312.328	104.44
312.557	90.44
312.787	102.44
313.017	114.44
313.246	85.44
313.476	93.44
313.706	92.44
313.935	98.44
314.165	87.44
314.394	97.44
314.624	104.44
314.853	95.44
315.083	93.44
315.312	95.44
315.542	92.44
315.771	94.44
316.001	95.44
316.23	99.44
316.46	91.44
316.689	81.44
316.919	92.44
317.148	88.44
317.377	90.44
317.607	91.44
317.836	91.44
318.065	93.44
318.295	93.44
318.524	88.44
318.753	112.44
318.983	92.44
319.212	99.44
319.441	112.44
319.67	106.44
319.9	88.44
320.129	98.44
320.358	102.44
320.587	99.44
320.816	94.44
321.046	112.44
321.275	94.44
321.504	107.44
321.733	100.44
321.962	93.44
322.191	95.44
322.42	103.44
322.649	111.44
322.878	88.44
323.108	93.44
323.337	105.44
323.566	124.44
323.795	154.44
324.024	193.44
324.253	365.44
324.482	759.44
324.71	1585.44
324.939	2121.44
325.168	763.44
325.397	239.44
325.626	137.44
325.855	121.44
326.084	115.44
326.313	140.44
326.542	153.44
326.77	218.44
326.999	456.44
327.228	921.44
327.457	1645.44
327.686	1324.44
327.914	348.44
328.143	166.44
328.372	167.44
328.6	116.44
328.829	124.44
329.058	113.44
329.287	117.44
329.515	98.44
329.744	110.44
329.972	114.44
330.201	129.44
330.43	157.44
330.658	134.44
330.887	109.44
331.115	113.44
331.344	91.44
331.572	86.44
331.801	102.44
332.03	109.44
332.258	92.44
332.486	87.44
332.715	96.44
332.943	90.44
333.172	100.44
333.4	94.44
333.629	103.44
333.857	117.44
334.085	111.44
334.314	119.44
334.542	150.44
334.771	166.44
334.999	114.44
335.227	103.44
335.455	99.44
335.684	111.44
335.912	101.44
336.14	107.44
336.369	86.44
336.597	93.44
336.825	97.44
337.053	107.44
337.281	74.44
337.51	96.44
337.738	103.44
337.966	93.44
338.194	99.44
338.422	96.44
338.65	85.44
338.878	87.44
339.106	87.44
339.334	94.44
339.562	91.44
339.79	79.44
340.018	96.44
340.246	99.44
340.474	99.44
340.702	99.44
340.93	93.44
341.158	91.44
341.386	97.44
341.614	79.44
341.842	91.44
342.07	81.44
342.298	85.44
342.526	101.44
342.754	96.44
342.981	90.44
343.209	82.44
343.437	101.44
343.665	89.44
343.893	93.44
344.12	103.44
344.348	87.44
344.576	93.44
344.804	81.44
345.031	103.44
345.259	92.44
345.487	89.44
345.714	87.44
345.942	86.44
346.17	105.44
346.397	100.44
346.625	97.44
346.853	90.44
347.08	84.44
347.308	94.44
347.535	106.44
347.763	101.44
347.99	92.44
348.218	94.44
348.445	111.44
348.673	95.44
348.9	88.44
349.128	91.44
349.355	78.44
349.583	78.44
349.81	90.44
350.037	103.44
350.265	102.44
350.492	109.44
350.72	83.44
350.947	90.44
351.174	106.44
351.402	99.44
351.629	104.44
351.856	97.44
352.083	98.44
352.311	101.44
352.538	108.44
352.765	88.44
352.992	94.44
353.22	103.44
353.447	95.44
353.674	93.44
353.901	108.44
354.128	87.44
354.355	117.44
354.583	104.44
354.81	99.44
355.037	89.44
355.264	114.44
355.491	91.44
355.718	79.44
355.945	96.44
356.172	109.44
356.399	104.44
356.626	88.44
356.853	94.44
357.08	87.44
357.307	96.44
357.534	86.44
357.761	91.44
357.988	110.44
358.215	89.44
358.441	80.44
358.668	85.44
358.895	89.44
359.122	88.44
359.349	82.44
359.576	83.44
359.802	101.44
360.029	98.44
360.256	97.44
360.483	100.44
360.709	96.44
360.936	88.44
361.163	85.44
361.39	91.44
361.616	82.44
361.843	100.44
362.07	93.44
362.296	91.44
362.523	89.44
362.749	83.44
362.976	87.44
363.203	96.44
363.429	86.44
363.656	82.44
363.882	93.44
364.109	98.44
364.335	92.44
364.562	84.44
364.788	88.44
365.015	92.44
365.241	94.44
365.468	102.44
365.694	97.44
365.92	97.44
366.147	85.44
366.373	103.44
366.599	85.44
366.826	97.44
367.052	82.44
367.278	83.44
367.505	91.44
367.731	86.44
367.957	87.44
368.184	97.44
368.41	91.44
368.636	108.44
368.862	107.44
369.089	103.44
369.315	99.44
369.541	85.44
369.767	108.44
369.993	100.44
370.219	85.44
370.445	92.44
370.672	79.44
370.898	89.44
371.124	86.44
371.35	84.44
371.576	89.44
371.802	104.44
372.028	104.44
372.254	85.44
372.48	80.44
372.706	96.44
372.932	69.44
373.158	96.44
373.384	86.44
373.61	85.44
373.835	93.44
374.061	87.44
374.287	86.44
374.513	87.44
374.739	87.44
374.965	71.44
375.191	79.44
375.416	92.44
375.642	99.44
375.868	98.44
376.094	109.44
376.319	90.44
376.545	92.44
376.771	95.44
376.997	79.44
377.222	83.44
377.448	81.44
377.674	92.44
377.899	86.44
378.125	97.44
378.35	99.44
378.576	85.44
378.802	85.44
379.027	106.44
379.253	75.44
379.478	105.44
379.704	96.44
379.929	89.44
380.155	88.44
380.38	80.44
380.606	113.44
380.831	89.44
381.057	98.44
381.282	93.44
381.507	92.44
381.733	95.44
381.958	86.44
382.184	91.44
382.409	96.44
382.634	99.44
382.86	95.44
383.085	96.44
383.31	94.44
383.535	89.44
383.761	101.44
383.986	110.44
384.211	99.44
384.436	100.44
384.662	102.44
384.887	98.44
385.112	94.44
385.337	101.44
385.562	104.44
385.787	101.44
386.013	112.44
386.238	101.44
386.463	101.44
386.688	108.44
386.913	112.44
387.138	98.44
387.363	102.44
387.588	104.44
387.813	90.44
388.038	102.44
388.263	111.44
388.488	106.44
388.713	96.44
388.938	95.44
389.163	93.44
389.387	98.44
389.612	95.44
389.837	96.44
390.062	99.44
390.287	77.44
390.512	75.44
390.736	88.44
390.961	104.44
391.186	89.44
391.411	96.44
391.636	93.44
391.86	83.44
392.085	76.44
392.31	79.44
392.534	90.44
392.759	93.44
392.984	85.44
393.208	90.44
393.433	109.44
393.658	89.44
393.882	87.44
394.107	84.44
394.331	104.44
394.556	93.44
394.78	99.44
395.005	89.44
395.229	83.44
395.454	92.44
395.678	84.44
395.903	81.44
396.127	98.44
396.352	97.44
396.576	104.44
396.801	72.44
397.025	88.44
397.249	86.44
397.474	85.44
397.698	75.44
397.922	95.44
398.147	83.44
398.371	84.44
398.595	83.44
398.82	100.44
399.044	92.44
399.268	93.44
399.492	99.44
399.717	83.44
399.941	87.44
400.165	95.44
400.389	91.44
400.613	92.44
400.837	102.44
401.062	82.44
401.286	90.44
401.51	92.44
401.734	83.44
401.958	105.44
402.182	122.44
402.406	128.44
402.63	105.44
402.854	115.44
403.078	87.44
403.302	85.44
403.526	69.44
403.75	90.44
403.974	93.44
404.198	80.44
404.422	80.44
404.645	94.44
404.869	94.44
405.093	96.44
405.317	105.44
405.541	95.44
405.765	88.44
405.988	102.44
406.212	145.44
406.436	182.44
406.66	133.44
406.883	85.44
407.107	89.44
407.331	95.44
407.555	94.44
407.778	103.44
408.002	86.44
408.226	83.44
408.449	83.44
408.673	98.44
408.896	87.44
409.12	81.44
409.344	88.44
409.567	95.44
409.791	95.44
410.014	112.44
410.238	103.44
410.461	79.44
410.685	93.44
410.908	101.44
411.132	116.44
411.355	103.44
411.578	76.44
411.802	68.44
412.025	79.44
412.249	79.44
412.472	91.44
412.695	109.44
412.919	88.44
413.142	87.44
413.365	75.44
413.589	76.44
413.812	82.44
414.035	89.44
414.258	89.44
414.482	82.44
414.705	79.44
414.928	89.44
415.151	84.44
415.374	95.44
415.597	105.44
415.821	83.44
416.044	88.44
416.267	88.44
416.49	93.44
416.713	85.44
416.936	70.44
417.159	89.44
417.382	86.44
417.605	86.44
417.828	107.44
418.051	88.44
418.274	90.44
418.497	86.44
418.72	88.44
418.943	87.44
419.166	88.44
419.389	96.44
419.611	100.44
419.834	86.44
420.057	115.44
420.28	93.44
420.503	98.44
420.726	95.44
420.948	81.44
421.171	92.44
421.394	93.44
421.617	76.44
421.839	73.44
422.062	77.44
422.285	89.44
422.507	97.44
422.73	87.44
422.953	105.44
423.175	92.44
423.398	92.44
423.621	91.44
423.843	87.44
424.066	81.44
424.288	80.44
424.511	93.44
424.733	100.44
424.956	86.44
425.178	88.44
425.401	85.44
425.623	99.44
425.846	80.44
426.068	101.44
426.291	85.44
426.513	80.44
426.735	92.44
426.958	98.44
427.18	106.44
427.402	124.44
427.625	146.44
427.847	132.44
428.069	118.44
428.292	95.44
428.514	78.44
428.736	80.44
428.958	93.44
429.181	90.44
429.403	76.44
429.625	83.44
429.847	85.44
430.069	100.44
430.292	96.44
430.514	79.44
430.736	74.44
430.958	78.44
431.18	91.44
431.402	82.44
431.624	85.44
431.846	73.44
432.068	90.44
432.29	94.44
432.512	75.44
432.734	88.44
432.956	96.44
433.178	96.44
433.4	97.44
433.622	88.44
433.844	87.44
434.066	89.44
434.287	100.44
434.509	89.44
434.731	95.44
434.953	93.44
435.175	82.44
435.397	76.44
435.618	100.44
435.84	107.44
436.062	114.44
436.284	113.44
436.505	86.44
436.727	108.44
436.949	101.44
437.17	91.44
437.392	84.44
437.614	89.44
437.835	91.44
438.057	114.44
438.278	105.44
438.5	106.44
438.721	125.44
438.943	106.44
439.165	96.44
439.386	105.44
439.608	87.44
439.829	100.44
440.05	107.44
440.272	120.44
440.493	85.44
440.715	79.44
440.936	99.44
441.158	104.44
441.379	86.44
441.6	95.44
441.822	91.44
442.043	100.44
442.264	105.44
442.486	109.44
442.707	107.44
442.928	97.44
443.149	119.44
443.371	117.44
443.592	95.44
443.813	96.44
444.034	100.44
444.255	84.44
444.476	88.44
444.698	86.44
444.919	90.44
445.14	129.44
445.361	121.44
445.582	107.44
445.803	142.44
446.024	121.44
446.245	124.44
446.466	105.44
446.687	106.44
446.908	91.44
447.129	95.44
447.35	87.44
447.571	95.44
447.792	95.44
448.013	92.44
448.234	103.44
448.455	101.44
448.675	105.44
448.896	112.44
449.117	111.44
449.338	101.44
449.559	135.44
449.779	129.44
450	95.44
450.221	99.44
450.442	94.44
450.662	97.44
450.883	87.44
451.104	106.44
451.324	82.44
451.545	82.44
451.766	102.44
451.986	81.44
452.207	86.44
452.428	87.44
452.648	92.44
452.869	112.44
453.089	103.44
453.31	113.44
453.53	79.44
453.751	102.44
453.971	88.44
454.192	102.44
454.412	97.44
454.633	85.44
454.853	82.44
455.073	90.44
455.294	85.44
455.514	92.44
455.734	102.44
455.955	87.44
456.175	93.44
456.395	97.44
456.616	101.44
456.836	79.44
457.056	93.44
457.276	88.44
457.497	93.44
457.717	98.44
457.937	83.44
458.157	80.44
458.377	87.44
458.598	106.44
458.818	129.44
459.038	159.44
459.258	111.44
459.478	97.44
459.698	99.44
459.918	91.44
460.138	80.44
460.358	90.44
460.578	95.44
460.798	89.44
461.018	87.44
461.238	105.44
461.458	81.44
461.678	76.44
461.898	88.44
462.118	87.44
462.338	86.44
462.558	99.44
462.777	92.44
462.997	84.44
463.217	84.44
463.437	75.44
463.657	90.44
463.876	94.44
464.096	90.44
464.316	99.44
464.536	105.44
464.755	99.44
464.975	97.44
465.195	136.44
465.414	129.44
465.634	84.44
465.854	94.44
466.073	81.44
466.293	99.44
466.512	91.44
466.732	90.44
466.951	92.44
467.171	79.44
467.391	95.44
467.61	92.44
467.829	106.44
468.049	99.44
468.268	104.44
468.488	95.44
468.707	99.44
468.927	88.44
469.146	93.44
469.365	88.44
469.585	90.44
469.804	84.44
470.023	97.44
470.243	85.44
470.462	87.44
470.681	99.44
470.901	99.44
471.12	83.44
471.339	81.44
471.558	76.44
471.777	90.44
471.997	73.44
472.216	122.44
472.435	150.44
472.654	108.44
472.873	95.44
473.092	76.44
473.311	88.44
473.53	79.44
473.749	76.44
473.968	78.44
474.187	108.44
474.406	100.44
474.625	74.44
474.844	89.44
475.063	89.44
475.282	76.44
475.501	75.44
475.72	92.44
475.939	89.44
476.158	74.44
476.377	90.44
476.596	89.44
476.814	97.44
477.033	102.44
477.252	89.44
477.471	75.44
477.69	89.44
477.908	98.44
478.127	99.44
478.346	99.44
478.564	88.44
478.783	87.44
479.002	86.44
479.22	96.44
479.439	91.44
479.658	91.44
479.876	99.44
480.095	89.44
480.313	94.44
480.532	90.44
480.751	81.44
480.969	122.44
481.188	281.44
481.406	197.44
481.624	109.44
481.843	99.44
482.061	95.44
482.28	85.44
482.498	88.44
482.717	73.44
482.935	87.44
483.153	86.44
483.372	96.44
483.59	99.44
483.808	100.44
484.027	87.44
484.245	87.44
484.463	92.44
484.681	93.44
484.9	95.44
485.118	94.44
485.336	93.44
485.554	96.44
485.772	107.44
485.99	98.44
486.209	107.44
486.427	98.44
486.645	103.44
486.863	111.44
487.081	104.44
487.299	100.44
487.517	94.44
487.735	97.44
487.953	102.44
488.171	91.44
488.389	88.44
488.607	95.44
488.825	98.44
489.043	100.44
489.261	87.44
489.479	75.44
489.696	82.44
489.914	95.44
490.132	85.44
490.35	102.44
490.568	88.44
490.786	90.44
491.003	84.44
491.221	101.44
491.439	94.44
491.657	89.44
491.874	86.44
492.092	83.44
492.31	95.44
492.527	88.44
492.745	87.44
492.963	98.44
493.18	83.44
493.398	99.44
493.615	98.44
493.833	94.44
494.05	84.44
494.268	92.44
494.485	83.44
494.703	85.44
494.92	88.44
495.138	69.44
495.355	82.44
495.573	98.44
495.79	97.44
496.008	110.44
496.225	95.44
496.442	92.44
496.66	95.44
496.877	90.44
497.094	99.44
497.312	97.44
497.529	89.44
497.746	93.44
497.963	92.44
498.181	101.44
498.398	94.44
498.615	103.44
498.832	93.44
499.049	97.44
499.267	90.44
499.484	100.44
499.701	79.44
499.918	89.44
500.135	72.44
500.352	92.44
500.569	80.44
500.786	90.44
501.003	87.44
501.22	100.44
501.437	95.44
501.654	97.44
501.871	93.44
502.088	92.44
502.305	79.44
502.522	80.44
502.739	98.44
502.956	94.44
503.172	87.44
503.389	72.44
503.606	80.44
503.823	98.44
504.04	91.44
504.256	82.44
504.473	73.44
504.69	90.44
504.907	79.44
505.123	98.44
505.34	94.44
505.557	88.44
505.773	85.44
505.99	103.44
506.207	94.44
506.423	85.44
506.64	96.44
506.856	91.44
507.073	87.44
507.289	97.44
507.506	112.44
507.722	97.44
507.939	102.44
508.155	90.44
508.372	84.44
508.588	99.44
508.805	95.44
509.021	96.44
509.238	95.44
509.454	98.44
509.67	100.44
509.887	104.44
510.103	124.44
510.319	204.44
510.536	660.44
510.752	1968.44
510.968	541.44
511.184	133.44
511.401	108.44
511.617	98.44
511.833	100.44
512.049	104.44
512.265	99.44
512.481	93.44
512.698	90.44
512.914	85.44
513.13	84.44
513.346	87.44
513.562	95.44
513.778	89.44
513.994	100.44
514.21	106.44
514.426	114.44
514.642	125.44
514.858	105.44
515.074	135.44
515.29	369.44
515.506	1158.44
515.721	436.44
515.937	134.44
516.153	117.44
516.369	100.44
516.585	95.44
516.801	99.44
517.016	79.44
517.232	101.44
517.448	84.44
517.664	81.44
517.879	107.44
518.095	84.44
518.311	106.44
518.527	90.44
518.742	94.44
518.958	84.44
519.173	102.44
519.389	100.44
519.605	98.44
519.82	89.44
520.036	92.44
520.251	115.44
520.467	111.44
520.682	112.44
520.898	97.44
521.113	117.44
521.329	111.44
521.544	191.44
521.76	448.44
521.975	1925.44
522.19	1131.44
522.406	264.44
522.621	124.44
522.836	106.44
523.052	97.44
523.267	103.44
523.482	95.44
523.698	101.44
523.913	118.44
524.128	94.44
524.343	94.44
524.559	93.44
524.774	97.44
524.989	101.44
525.204	96.44
525.419	94.44
525.634	100.44
525.849	88.44
526.064	82.44
526.28	90.44
526.495	68.44
526.71	76.44
526.925	109.44
527.14	89.44
527.355	91.44
527.57	95.44
527.785	91.44
527.999	88.44
528.214	111.44
528.429	103.44
528.644	92.44
528.859	96.44
529.074	101.44
529.289	109.44
529.503	163.44
529.718	109.44
529.933	89.44
530.148	99.44
530.363	99.44
530.577	96.44
530.792	89.44
531.007	100.44
531.221	92.44
531.436	87.44
531.651	89.44
531.865	103.44
532.08	80.44
532.295	96.44
532.509	89.44
532.724	82.44
532.938	95.44
533.153	94.44
533.367	94.44
533.582	91.44
533.796	89.44
534.011	87.44
534.225	95.44
534.44	87.44
534.654	93.44
534.868	84.44
535.083	92.44
535.297	85.44
535.511	99.44
535.726	97.44
535.94	109.44
536.154	97.44
536.369	115.44
536.583	83.44
536.797	77.44
537.011	85.44
537.225	73.44
537.44	95.44
537.654	76.44
537.868	83.44
538.082	93.44
538.296	83.44
538.51	79.44
538.724	77.44
538.938	83.44
539.153	91.44
539.367	103.44
539.581	89.44
539.795	90.44
540.009	96.44
540.222	89.44
540.436	90.44
540.65	97.44
540.864	101.44
541.078	89.44
541.292	105.44
541.506	91.44
541.72	87.44
541.934	81.44
542.147	72.44
542.361	88.44
542.575	95.44
542.789	91.44
543.002	92.44
543.216	101.44
543.43	84.44
543.644	85.44
543.857	95.44
544.071	73.44
544.285	92.44
544.498	89.44
544.712	92.44
544.925	91.44
545.139	93.44
545.352	77.44
545.566	77.44
545.779	78.44
545.993	98.44
546.206	88.44
546.42	93.44
546.633	99.44
546.847	87.44
547.06	97.44
547.274	94.44
547.487	90.44
547.7	102.44
547.914	102.44
548.127	87.44
548.34	90.44
548.554	102.44
548.767	109.44
548.98	93.44
549.193	76.44
549.407	80.44
549.62	97.44
549.833	99.44
550.046	81.44
550.259	89.44
550.473	76.44
550.686	75.44
550.899	96.44
551.112	87.44
551.325	96.44
551.538	74.44
551.751	89.44
551.964	95.44
552.177	105.44
552.39	86.44
552.603	88.44
552.816	92.44
553.029	101.44
553.242	87.44
553.455	93.44
553.667	109.44
553.88	98.44
554.093	89.44
554.306	91.44
554.519	80.44
554.732	88.44
554.944	83.44
555.157	87.44
555.37	89.44
555.583	90.44
555.795	81.44
556.008	77.44
556.221	101.44
556.433	106.44
556.646	98.44
556.859	108.44
557.071	101.44
557.284	81.44
557.496	99.44
557.709	87.44
557.921	93.44
558.134	83.44
558.346	87.44
558.559	89.44
558.771	93.44
558.984	88.44
559.196	98.44
559.409	85.44
559.621	77.44
559.833	96.44
560.046	108.44
560.258	90.44
560.47	99.44
560.683	92.44
560.895	85.44
561.107	81.44
561.32	99.44
561.532	96.44
561.744	84.44
561.956	93.44
562.168	79.44
562.381	87.44
562.593	82.44
562.805	86.44
563.017	86.44
563.229	97.44
563.441	90.44
563.653	91.44
563.865	87.44
564.077	102.44
564.289	82.44
564.501	80.44
564.713	88.44
564.925	94.44
565.137	107.44
565.349	99.44
565.561	76.44
565.773	82.44
565.985	88.44
566.197	84.44
566.408	95.44
566.62	83.44
566.832	89.44
567.044	91.44
567.255	102.44
567.467	74.44
567.679	91.44
567.891	75.44
568.102	90.44
568.314	89.44
568.526	78.44
568.737	92.44
568.949	86.44
569.161	85.44
569.372	73.44
569.584	95.44
569.795	84.44
570.007	105.44
570.218	215.44
570.43	116.44
570.641	89.44
570.853	85.44
571.064	95.44
571.276	96.44
571.487	85.44
571.698	87.44
571.91	61.44
572.121	71.44
572.333	87.44
572.544	99.44
572.755	75.44
572.966	100.44
573.178	92.44
573.389	99.44
573.6	90.44
573.811	95.44
574.023	77.44
574.234	81.44
574.445	83.44
574.656	93.44
574.867	84.44
575.078	94.44
575.289	89.44
575.501	84.44
575.712	91.44
575.923	101.44
576.134	81.44
576.345	82.44
576.556	83.44
576.767	89.44
576.978	99.44
577.188	88.44
577.399	98.44
577.61	89.44
577.821	103.44
578.032	103.44
578.243	242.44
578.454	624.44
578.665	191.44
578.875	85.44
579.086	85.44
579.297	96.44
579.508	76.44
579.718	99.44
579.929	88.44
580.14	77.44
580.35	91.44
580.561	93.44
580.772	103.44
580.982	82.44
581.193	91.44
581.403	95.44
581.614	77.44
581.825	75.44
582.035	84.44
582.246	81.44
582.456	91.44
582.667	102.44
582.877	81.44
583.087	96.44
583.298	87.44
583.508	91.44
583.719	101.44
583.929	94.44
584.139	92.44
584.35	92.44
584.56	105.44
584.77	100.44
584.981	85.44
585.191	84.44
585.401	84.44
585.611	96.44
585.821	100.44
586.032	87.44
586.242	96.44
586.452	87.44
586.662	93.44
586.872	79.44
587.082	84.44
587.292	93.44
587.502	91.44
587.713	82.44
587.923	76.44
588.133	80.44
588.343	85.44
588.553	94.44
588.762	87.44
588.972	91.44
589.182	110.44
589.392	94.44
589.602	92.44
589.812	96.44
590.022	98.44
590.232	101.44
590.441	83.44
590.651	99.44
590.861	89.44
591.071	83.44
591.281	86.44
591.49	79.44
591.7	78.44
591.91	79.44
592.119	76.44
592.329	83.44
592.539	103.44
592.748	89.44
592.958	92.44
593.167	74.44
593.377	83.44
593.587	97.44
593.796	90.44
594.006	80.44
594.215	75.44
594.424	88.44
594.634	86.44
594.843	88.44
595.053	73.44
595.262	77.44
595.472	84.44
595.681	84.44
595.89	93.44
596.1	81.44
596.309	73.44
596.518	89.44
596.727	79.44
596.937	81.44
597.146	89.44
597.355	92.44
597.564	84.44
597.774	87.44
597.983	84.44
598.192	81.44
598.401	91.44
598.61	89.44
598.819	90.44
599.028	99.44
599.237	90.44
599.446	74.44
599.655	79.44
599.864	83.44
600.073	90.44
600.282	85.44
600.491	85.44
600.7	84.44
600.909	92.44
601.118	92.44
601.327	89.44
601.536	93.44
601.745	87.44
601.953	98.44
602.162	94.44
602.371	81.44
602.58	75.44
602.789	81.44
602.997	92.44
603.206	77.44
603.415	87.44
603.623	95.44
603.832	97.44
604.041	86.44
604.249	89.44
604.458	87.44
604.666	96.44
604.875	91.44
605.084	74.44
605.292	93.44
605.501	91.44
605.709	86.44
605.918	94.44
606.126	86.44
606.334	91.44
606.543	91.44
606.751	82.44
606.96	85.44
607.168	83.44
607.376	96.44
607.585	92.44
607.793	89.44
608.001	94.44
608.21	84.44
608.418	83.44
608.626	77.44
608.834	80.44
609.043	81.44
609.251	93.44
609.459	84.44
609.667	83.44
609.875	82.44
610.083	89.44
610.291	89.44
610.499	89.44
610.707	81.44
610.916	81.44
611.124	80.44
611.332	84.44
611.54	88.44
611.748	89.44
611.955	82.44
612.163	82.44
612.371	92.44
612.579	93.44
612.787	91.44
612.995	79.44
613.203	80.44
613.411	72.44
613.618	79.44
613.826	79.44
614.034	86.44
614.242	66.44
614.449	70.44
614.657	82.44
614.865	98.44
615.072	92.44
615.28	76.44
615.488	88.44
615.695	99.44
615.903	103.44
616.111	95.44
616.318	98.44
616.526	109.44
616.733	91.44
616.941	98.44
617.148	89.44
617.356	96.44
617.563	80.44
617.771	80.44
617.978	84.44
618.185	73.44
618.393	91.44
618.6	75.44
618.807	101.44
619.015	89.44
619.222	98.44
619.429	87.44
619.637	87.44
619.844	81.44
620.051	84.44
620.258	75.44
620.466	83.44
620.673	71.44
620.88	74.44
621.087	79.44
621.294	76.44
621.501	89.44
621.708	72.44
621.915	84.44
622.122	83.44
622.329	91.44
622.536	90.44
622.743	88.44
622.95	89.44
623.157	91.44
623.364	90.44
623.571	94.44
623.778	91.44
623.985	84.44
624.192	98.44
624.399	92.44
624.606	87.44
624.812	70.44
625.019	100.44
625.226	79.44
625.433	86.44
625.639	81.44
625.846	97.44
626.053	96.44
626.259	80.44
626.466	85.44
626.673	84.44
626.879	72.44
627.086	96.44
627.293	81.44
627.499	96.44
627.706	84.44
627.912	82.44
628.119	88.44
628.325	97.44
628.532	83.44
628.738	87.44
628.945	108.44
629.151	94.44
629.357	84.44
629.564	78.44
629.77	84.44
629.976	85.44
630.183	87.44
630.389	89.44
630.595	78.44
630.802	81.44
631.008	99.44
631.214	99.44
631.42	74.44
631.627	99.44
631.833	84.44
632.039	74.44
632.245	75.44
632.451	70.44
632.657	72.44
632.863	93.44
633.069	105.44
633.275	70.44
633.481	83.44
633.688	87.44
633.893	83.44
634.099	89.44
634.305	99.44
634.511	75.44
634.717	92.44
634.923	73.44
635.129	84.44
635.335	81.44
635.541	81.44
635.747	84.44
635.952	95.44
636.158	83.44
636.364	96.44
636.57	83.44
636.775	81.44
636.981	96.44
637.187	88.44
637.392	70.44
637.598	88.44
637.804	85.44
638.009	81.44
638.215	81.44
638.421	92.44
638.626	94.44
638.832	98.44
639.037	83.44
639.243	86.44
639.448	87.44
639.654	83.44
639.859	82.44
640.065	81.44
640.27	97.44
640.475	87.44
640.681	103.44
640.886	80.44
641.091	95.44
641.297	95.44
641.502	89.44
641.707	100.44
641.913	99.44
642.118	77.44
642.323	87.44
642.528	93.44
642.733	92.44
642.939	77.44
643.144	94.44
643.349	91.44
643.554	83.44
643.759	71.44
643.964	77.44
644.169	75.44
644.374	75.44
644.579	103.44
644.784	90.44
644.989	97.44
645.194	89.44
645.399	85.44
645.604	88.44
645.809	85.44
646.014	101.44
646.219	98.44
646.423	78.44
646.628	86.44
646.833	85.44
647.038	75.44
647.243	76.44
647.447	102.44
647.652	85.44
647.857	98.44
648.062	95.44
648.266	93.44
648.471	91.44
648.676	79.44
648.88	91.44
649.085	99.44
649.289	79.44
649.494	108.44
649.698	134.44
649.903	99.44
650.107	92.44
650.312	93.44
650.516	88.44
650.721	73.44
650.925	91.44
651.13	95.44
651.334	89.44
651.539	83.44
651.743	92.44
651.947	83.44
652.152	92.44
652.356	87.44
652.56	79.44
652.764	78.44
652.969	84.44
653.173	82.44
653.377	74.44
653.581	91.44
653.785	92.44
653.99	91.44
654.194	92.44
654.398	75.44
654.602	89.44
654.806	100.44
655.01	115.44
655.214	91.44
655.418	88.44
655.622	85.44
655.826	85.44
656.03	82.44
656.234	90.44
656.438	92.44
656.642	103.44
656.846	97.44
657.049	85.44
657.253	89.44
657.457	84.44
657.661	92.44
657.865	85.44
658.068	76.44
658.272	90.44
658.476	83.44
658.68	81.44
658.883	86.44
659.087	77.44
659.291	81.44
659.494	76.44
659.698	79.44
659.901	82.44
660.105	86.44
660.309	84.44
660.512	81.44
660.716	91.44
660.919	81.44
661.123	98.44
661.326	99.44
661.53	84.44
661.733	91.44
661.936	79.44
662.14	76.44
662.343	76.44
662.546	100.44
662.75	83.44
662.953	97.44
663.156	72.44
663.36	90.44
663.563	78.44
663.766	65.44
663.969	72.44
664.173	83.44
664.376	81.44
664.579	85.44
664.782	83.44
664.985	80.44
665.188	98.44
665.391	92.44
665.594	82.44
665.797	83.44
666	81.44
666.203	87.44
666.406	85.44
666.609	89.44
666.812	81.44
667.015	72.44
667.218	89.44
667.421	87.44
667.624	79.44
667.827	87.44
668.03	81.44
668.232	85.44
668.435	83.44
668.638	74.44
668.841	83.44
669.043	76.44
669.246	77.44
669.449	92.44
669.651	84.44
669.854	82.44
670.057	82.44
670.259	69.44
670.462	94.44
670.665	79.44
670.867	83.44
671.07	96.44
671.272	89.44
671.475	92.44
671.677	80.44
671.88	87.44
672.082	71.44
672.284	80.44
672.487	83.44
672.689	77.44
672.892	93.44
