Data from 10100_3_HRD10591_00036.txt Node
Date: Mon Jan 19 14:02:40 EST 2026
User: Yrep
Spectrometer: HR+D1059
Trigger mode: 1
Integration Time (sec): 1.000000E-1
Scans to average: 1
Electric dark correction enabled: true
Nonlinearity correction enabled: false
Boxcar width: 0
XAxis mode: Wavelengths
Number of Pixels in Spectrum: 2048
>>>>>Begin Spectral Data<<<<<
223.165	-9.19
223.4	-9.19
223.635	-9.19
223.869	-15.19
224.104	-14.19
224.338	-14.19
224.573	-4.19
224.808	-8.19
225.042	-11.19
225.277	-6.19
225.511	-6.19
225.746	2.81
225.98	-2.19
226.215	16.81
226.449	9.81
226.683	6.81
226.918	25.81
227.152	28.81
227.387	37.81
227.621	30.81
227.856	38.81
228.09	40.81
228.324	48.81
228.559	54.81
228.793	58.81
229.027	71.81
229.262	54.81
229.496	66.81
229.73	58.81
229.964	78.81
230.199	65.81
230.433	67.81
230.667	72.81
230.901	65.81
231.136	92.81
231.37	86.81
231.604	87.81
231.838	76.81
232.072	88.81
232.306	74.81
232.541	88.81
232.775	91.81
233.009	91.81
233.243	76.81
233.477	75.81
233.711	88.81
233.945	80.81
234.179	81.81
234.413	86.81
234.647	85.81
234.881	87.81
235.115	83.81
235.349	82.81
235.583	84.81
235.817	83.81
236.051	86.81
236.285	71.81
236.519	72.81
236.753	84.81
236.987	76.81
237.221	73.81
237.455	74.81
237.689	80.81
237.922	74.81
238.156	88.81
238.39	78.81
238.624	69.81
238.858	72.81
239.091	83.81
239.325	66.81
239.559	78.81
239.793	90.81
240.027	72.81
240.26	80.81
240.494	89.81
240.728	61.81
240.961	82.81
241.195	75.81
241.429	79.81
241.662	70.81
241.896	70.81
242.13	75.81
242.363	80.81
242.597	91.81
242.83	81.81
243.064	78.81
243.298	66.81
243.531	67.81
243.765	84.81
243.998	79.81
244.232	78.81
244.465	73.81
244.699	83.81
244.932	85.81
245.166	77.81
245.399	78.81
245.633	77.81
245.866	72.81
246.099	68.81
246.333	78.81
246.566	75.81
246.8	80.81
247.033	80.81
247.266	70.81
247.5	75.81
247.733	74.81
247.966	79.81
248.2	70.81
248.433	79.81
248.666	73.81
248.899	81.81
249.133	76.81
249.366	74.81
249.599	86.81
249.832	64.81
250.066	84.81
250.299	64.81
250.532	81.81
250.765	78.81
250.998	73.81
251.231	82.81
251.465	90.81
251.698	74.81
251.931	88.81
252.164	69.81
252.397	73.81
252.63	87.81
252.863	82.81
253.096	81.81
253.329	80.81
253.562	72.81
253.795	69.81
254.028	71.81
254.261	79.81
254.494	92.81
254.727	77.81
254.96	80.81
255.193	86.81
255.426	87.81
255.659	80.81
255.892	85.81
256.124	84.81
256.357	63.81
256.59	62.81
256.823	76.81
257.056	84.81
257.289	80.81
257.521	84.81
257.754	72.81
257.987	89.81
258.22	71.81
258.452	88.81
258.685	79.81
258.918	87.81
259.151	75.81
259.383	78.81
259.616	84.81
259.849	86.81
260.081	73.81
260.314	78.81
260.547	72.81
260.779	80.81
261.012	92.81
261.244	87.81
261.477	94.81
261.71	79.81
261.942	77.81
262.175	91.81
262.407	80.81
262.64	68.81
262.872	72.81
263.105	81.81
263.337	86.81
263.57	88.81
263.802	80.81
264.035	80.81
264.267	84.81
264.499	93.81
264.732	87.81
264.964	87.81
265.197	98.81
265.429	94.81
265.661	90.81
265.894	84.81
266.126	89.81
266.358	77.81
266.591	83.81
266.823	76.81
267.055	76.81
267.287	80.81
267.52	84.81
267.752	94.81
267.984	83.81
268.216	70.81
268.448	92.81
268.681	92.81
268.913	84.81
269.145	82.81
269.377	86.81
269.609	78.81
269.841	66.81
270.073	85.81
270.306	88.81
270.538	88.81
270.77	79.81
271.002	80.81
271.234	88.81
271.466	83.81
271.698	73.81
271.93	93.81
272.162	86.81
272.394	87.81
272.626	80.81
272.858	78.81
273.09	69.81
273.322	79.81
273.553	80.81
273.785	81.81
274.017	81.81
274.249	80.81
274.481	84.81
274.713	85.81
274.945	75.81
275.176	86.81
275.408	72.81
275.64	100.81
275.872	80.81
276.104	75.81
276.335	82.81
276.567	87.81
276.799	73.81
277.031	92.81
277.262	78.81
277.494	83.81
277.726	74.81
277.957	83.81
278.189	82.81
278.421	96.81
278.652	97.81
278.884	104.81
279.115	82.81
279.347	95.81
279.579	80.81
279.81	84.81
280.042	76.81
280.273	90.81
280.505	94.81
280.736	79.81
280.968	81.81
281.199	86.81
281.431	78.81
281.662	83.81
281.894	94.81
282.125	66.81
282.356	79.81
282.588	83.81
282.819	80.81
283.051	80.81
283.282	90.81
283.513	90.81
283.745	86.81
283.976	89.81
284.207	74.81
284.439	80.81
284.67	94.81
284.901	86.81
285.132	77.81
285.364	81.81
285.595	78.81
285.826	93.81
286.057	74.81
286.288	88.81
286.52	113.81
286.751	88.81
286.982	86.81
287.213	92.81
287.444	95.81
287.675	88.81
287.906	95.81
288.138	85.81
288.369	84.81
288.6	74.81
288.831	96.81
289.062	97.81
289.293	95.81
289.524	81.81
289.755	88.81
289.986	75.81
290.217	72.81
290.448	85.81
290.679	84.81
290.91	88.81
291.141	95.81
291.371	103.81
291.602	81.81
291.833	82.81
292.064	82.81
292.295	80.81
292.526	84.81
292.757	94.81
292.987	89.81
293.218	78.81
293.449	76.81
293.68	97.81
293.91	89.81
294.141	73.81
294.372	75.81
294.603	86.81
294.833	66.81
295.064	68.81
295.295	65.81
295.525	74.81
295.756	84.81
295.987	73.81
296.217	100.81
296.448	80.81
296.679	71.81
296.909	94.81
297.14	81.81
297.37	89.81
297.601	87.81
297.831	84.81
298.062	93.81
298.292	89.81
298.523	82.81
298.753	72.81
298.984	68.81
299.214	87.81
299.445	82.81
299.675	96.81
299.905	86.81
300.136	87.81
300.366	78.81
300.597	77.81
300.827	77.81
301.057	94.81
301.288	74.81
301.518	101.81
301.748	72.81
301.979	95.81
302.209	74.81
302.439	77.81
302.669	78.81
302.9	84.81
303.13	79.81
303.36	75.81
303.59	82.81
303.82	92.81
304.051	88.81
304.281	72.81
304.511	87.81
304.741	89.81
304.971	93.81
305.201	88.81
305.431	82.81
305.661	81.81
305.891	89.81
306.121	103.81
306.352	98.81
306.582	97.81
306.812	74.81
307.042	80.81
307.272	88.81
307.502	80.81
307.731	80.81
307.961	94.81
308.191	98.81
308.421	90.81
308.651	89.81
308.881	95.81
309.111	94.81
309.341	86.81
309.571	92.81
309.8	74.81
310.03	96.81
310.26	90.81
310.49	81.81
310.72	77.81
310.949	88.81
311.179	95.81
311.409	83.81
311.639	88.81
311.868	90.81
312.098	70.81
312.328	89.81
312.557	93.81
312.787	82.81
313.017	98.81
313.246	87.81
313.476	82.81
313.706	84.81
313.935	94.81
314.165	92.81
314.394	84.81
314.624	88.81
314.853	93.81
315.083	83.81
315.312	87.81
315.542	80.81
315.771	92.81
316.001	73.81
316.23	82.81
316.46	70.81
316.689	83.81
316.919	83.81
317.148	95.81
317.377	84.81
317.607	93.81
317.836	90.81
318.065	85.81
318.295	87.81
318.524	92.81
318.753	80.81
318.983	95.81
319.212	87.81
319.441	78.81
319.67	80.81
319.9	73.81
320.129	93.81
320.358	84.81
320.587	94.81
320.816	84.81
321.046	82.81
321.275	89.81
321.504	82.81
321.733	89.81
321.962	78.81
322.191	79.81
322.42	86.81
322.649	84.81
322.878	92.81
323.108	89.81
323.337	84.81
323.566	88.81
323.795	89.81
324.024	86.81
324.253	80.81
324.482	82.81
324.71	88.81
324.939	82.81
325.168	84.81
325.397	89.81
325.626	86.81
325.855	83.81
326.084	89.81
326.313	88.81
326.542	83.81
326.77	84.81
326.999	76.81
327.228	87.81
327.457	87.81
327.686	83.81
327.914	94.81
328.143	80.81
328.372	78.81
328.6	78.81
328.829	80.81
329.058	82.81
329.287	84.81
329.515	93.81
329.744	88.81
329.972	84.81
330.201	87.81
330.43	82.81
330.658	78.81
330.887	91.81
331.115	82.81
331.344	74.81
331.572	88.81
331.801	83.81
332.03	80.81
332.258	83.81
332.486	75.81
332.715	88.81
332.943	85.81
333.172	85.81
333.4	85.81
333.629	89.81
333.857	70.81
334.085	81.81
334.314	80.81
334.542	75.81
334.771	83.81
334.999	91.81
335.227	98.81
335.455	79.81
335.684	85.81
335.912	89.81
336.14	86.81
336.369	89.81
336.597	74.81
336.825	96.81
337.053	97.81
337.281	81.81
337.51	90.81
337.738	93.81
337.966	78.81
338.194	75.81
338.422	78.81
338.65	88.81
338.878	79.81
339.106	79.81
339.334	90.81
339.562	76.81
339.79	76.81
340.018	80.81
340.246	82.81
340.474	82.81
340.702	87.81
340.93	86.81
341.158	82.81
341.386	80.81
341.614	84.81
341.842	96.81
342.07	77.81
342.298	78.81
342.526	75.81
342.754	82.81
342.981	84.81
343.209	75.81
343.437	99.81
343.665	94.81
343.893	98.81
344.12	91.81
344.348	95.81
344.576	82.81
344.804	83.81
345.031	86.81
345.259	92.81
345.487	97.81
345.714	81.81
345.942	74.81
346.17	102.81
346.397	77.81
346.625	72.81
346.853	98.81
347.08	94.81
347.308	90.81
347.535	85.81
347.763	81.81
347.99	80.81
348.218	79.81
348.445	85.81
348.673	89.81
348.9	94.81
349.128	73.81
349.355	80.81
349.583	101.81
349.81	86.81
350.037	82.81
350.265	84.81
350.492	90.81
350.72	76.81
350.947	92.81
351.174	79.81
351.402	88.81
351.629	85.81
351.856	86.81
352.083	73.81
352.311	83.81
352.538	74.81
352.765	68.81
352.992	96.81
353.22	92.81
353.447	79.81
353.674	73.81
353.901	87.81
354.128	94.81
354.355	86.81
354.583	74.81
354.81	75.81
355.037	83.81
355.264	82.81
355.491	78.81
355.718	76.81
355.945	77.81
356.172	81.81
356.399	82.81
356.626	98.81
356.853	88.81
357.08	88.81
357.307	71.81
357.534	72.81
357.761	89.81
357.988	97.81
358.215	89.81
358.441	91.81
358.668	73.81
358.895	93.81
359.122	73.81
359.349	82.81
359.576	80.81
359.802	83.81
360.029	86.81
360.256	100.81
360.483	76.81
360.709	91.81
360.936	86.81
361.163	81.81
361.39	76.81
361.616	81.81
361.843	73.81
362.07	80.81
362.296	90.81
362.523	91.81
362.749	92.81
362.976	82.81
363.203	81.81
363.429	85.81
363.656	80.81
363.882	90.81
364.109	89.81
364.335	68.81
364.562	89.81
364.788	80.81
365.015	84.81
365.241	80.81
365.468	87.81
365.694	77.81
365.92	82.81
366.147	78.81
366.373	87.81
366.599	80.81
366.826	89.81
367.052	79.81
367.278	91.81
367.505	96.81
367.731	101.81
367.957	81.81
368.184	80.81
368.41	89.81
368.636	92.81
368.862	76.81
369.089	76.81
369.315	96.81
369.541	83.81
369.767	88.81
369.993	74.81
370.219	89.81
370.445	94.81
370.672	76.81
370.898	71.81
371.124	90.81
371.35	82.81
371.576	86.81
371.802	84.81
372.028	78.81
372.254	85.81
372.48	87.81
372.706	80.81
372.932	84.81
373.158	81.81
373.384	80.81
373.61	70.81
373.835	84.81
374.061	74.81
374.287	90.81
374.513	78.81
374.739	86.81
374.965	74.81
375.191	78.81
375.416	98.81
375.642	79.81
375.868	80.81
376.094	80.81
376.319	77.81
376.545	80.81
376.771	88.81
376.997	69.81
377.222	83.81
377.448	89.81
377.674	62.81
377.899	82.81
378.125	67.81
378.35	94.81
378.576	88.81
378.802	90.81
379.027	72.81
379.253	75.81
379.478	93.81
379.704	77.81
379.929	81.81
380.155	72.81
380.38	89.81
380.606	92.81
380.831	93.81
381.057	74.81
381.282	86.81
381.507	96.81
381.733	86.81
381.958	84.81
382.184	84.81
382.409	88.81
382.634	79.81
382.86	68.81
383.085	86.81
383.31	82.81
383.535	82.81
383.761	89.81
383.986	72.81
384.211	85.81
384.436	73.81
384.662	83.81
384.887	87.81
385.112	75.81
385.337	81.81
385.562	86.81
385.787	81.81
386.013	74.81
386.238	73.81
386.463	78.81
386.688	93.81
386.913	75.81
387.138	74.81
387.363	88.81
387.588	84.81
387.813	91.81
388.038	64.81
388.263	72.81
388.488	77.81
388.713	83.81
388.938	93.81
389.163	92.81
389.387	89.81
389.612	78.81
389.837	74.81
390.062	70.81
390.287	76.81
390.512	88.81
390.736	97.81
390.961	81.81
391.186	76.81
391.411	83.81
391.636	82.81
391.86	79.81
392.085	60.81
392.31	90.81
392.534	66.81
392.759	85.81
392.984	86.81
393.208	115.81
393.433	109.81
393.658	75.81
393.882	74.81
394.107	86.81
394.331	85.81
394.556	79.81
394.78	95.81
395.005	79.81
395.229	91.81
395.454	82.81
395.678	87.81
395.903	76.81
396.127	75.81
396.352	82.81
396.576	82.81
396.801	79.81
397.025	95.81
397.249	96.81
397.474	81.81
397.698	81.81
397.922	94.81
398.147	86.81
398.371	80.81
398.595	80.81
398.82	83.81
399.044	72.81
399.268	76.81
399.492	89.81
399.717	74.81
399.941	83.81
400.165	82.81
400.389	88.81
400.613	74.81
400.837	78.81
401.062	68.81
401.286	88.81
401.51	90.81
401.734	72.81
401.958	87.81
402.182	87.81
402.406	96.81
402.63	73.81
402.854	84.81
403.078	82.81
403.302	81.81
403.526	80.81
403.75	95.81
403.974	69.81
404.198	92.81
404.422	84.81
404.645	78.81
404.869	84.81
405.093	91.81
405.317	89.81
405.541	85.81
405.765	87.81
405.988	93.81
406.212	73.81
406.436	81.81
406.66	89.81
406.883	69.81
407.107	96.81
407.331	71.81
407.555	89.81
407.778	92.81
408.002	86.81
408.226	68.81
408.449	70.81
408.673	75.81
408.896	84.81
409.12	76.81
409.344	81.81
409.567	84.81
409.791	84.81
410.014	83.81
410.238	85.81
410.461	85.81
410.685	87.81
410.908	68.81
411.132	95.81
411.355	81.81
411.578	83.81
411.802	76.81
412.025	90.81
412.249	89.81
412.472	78.81
412.695	81.81
412.919	71.81
413.142	79.81
413.365	79.81
413.589	93.81
413.812	72.81
414.035	80.81
414.258	94.81
414.482	73.81
414.705	96.81
414.928	82.81
415.151	80.81
415.374	84.81
415.597	83.81
415.821	76.81
416.044	80.81
416.267	81.81
416.49	65.81
416.713	68.81
416.936	87.81
417.159	65.81
417.382	72.81
417.605	78.81
417.828	90.81
418.051	88.81
418.274	78.81
418.497	79.81
418.72	94.81
418.943	95.81
419.166	88.81
419.389	80.81
419.611	81.81
419.834	80.81
420.057	82.81
420.28	91.81
420.503	92.81
420.726	94.81
420.948	83.81
421.171	79.81
421.394	86.81
421.617	83.81
421.839	78.81
422.062	88.81
422.285	94.81
422.507	103.81
422.73	122.81
422.953	126.81
423.175	102.81
423.398	84.81
423.621	89.81
423.843	76.81
424.066	93.81
424.288	93.81
424.511	92.81
424.733	90.81
424.956	75.81
425.178	85.81
425.401	80.81
425.623	82.81
425.846	84.81
426.068	82.81
426.291	82.81
426.513	64.81
426.735	78.81
426.958	80.81
427.18	85.81
427.402	83.81
427.625	80.81
427.847	80.81
428.069	92.81
428.292	87.81
428.514	81.81
428.736	62.81
428.958	77.81
429.181	79.81
429.403	81.81
429.625	71.81
429.847	87.81
430.069	100.81
430.292	106.81
430.514	91.81
430.736	90.81
430.958	94.81
431.18	81.81
431.402	74.81
431.624	74.81
431.846	72.81
432.068	87.81
432.29	72.81
432.512	63.81
432.734	72.81
432.956	81.81
433.178	80.81
433.4	76.81
433.622	88.81
433.844	94.81
434.066	74.81
434.287	78.81
434.509	86.81
434.731	93.81
434.953	84.81
435.175	74.81
435.397	81.81
435.618	86.81
435.84	80.81
436.062	80.81
436.284	75.81
436.505	80.81
436.727	87.81
436.949	68.81
437.17	82.81
437.392	86.81
437.614	77.81
437.835	81.81
438.057	84.81
438.278	90.81
438.5	85.81
438.721	96.81
438.943	99.81
439.165	92.81
439.386	63.81
439.608	80.81
439.829	80.81
440.05	80.81
440.272	84.81
440.493	73.81
440.715	77.81
440.936	72.81
441.158	66.81
441.379	86.81
441.6	84.81
441.822	82.81
442.043	88.81
442.264	75.81
442.486	98.81
442.707	82.81
442.928	82.81
443.149	84.81
443.371	85.81
443.592	95.81
443.813	90.81
444.034	96.81
444.255	79.81
444.476	90.81
444.698	70.81
444.919	89.81
445.14	145.81
445.361	105.81
445.582	103.81
445.803	92.81
446.024	88.81
446.245	75.81
446.466	95.81
446.687	90.81
446.908	70.81
447.129	72.81
447.35	75.81
447.571	73.81
447.792	82.81
448.013	84.81
448.234	82.81
448.455	89.81
448.675	96.81
448.896	77.81
449.117	78.81
449.338	80.81
449.559	71.81
449.779	83.81
450	85.81
450.221	76.81
450.442	86.81
450.662	81.81
450.883	88.81
451.104	94.81
451.324	84.81
451.545	78.81
451.766	77.81
451.986	88.81
452.207	78.81
452.428	98.81
452.648	84.81
452.869	85.81
453.089	78.81
453.31	78.81
453.53	85.81
453.751	91.81
453.971	80.81
454.192	87.81
454.412	86.81
454.633	76.81
454.853	81.81
455.073	78.81
455.294	87.81
455.514	79.81
455.734	76.81
455.955	82.81
456.175	69.81
456.395	62.81
456.616	80.81
456.836	92.81
457.056	87.81
457.276	75.81
457.497	83.81
457.717	78.81
457.937	87.81
458.157	80.81
458.377	72.81
458.598	89.81
458.818	74.81
459.038	81.81
459.258	84.81
459.478	74.81
459.698	86.81
459.918	83.81
460.138	82.81
460.358	83.81
460.578	87.81
460.798	85.81
461.018	87.81
461.238	81.81
461.458	88.81
461.678	74.81
461.898	88.81
462.118	92.81
462.338	80.81
462.558	82.81
462.777	77.81
462.997	88.81
463.217	90.81
463.437	74.81
463.657	88.81
463.876	105.81
464.096	68.81
464.316	85.81
464.536	73.81
464.755	84.81
464.975	73.81
465.195	92.81
465.414	86.81
465.634	86.81
465.854	77.81
466.073	80.81
466.293	82.81
466.512	81.81
466.732	88.81
466.951	75.81
467.171	72.81
467.391	83.81
467.61	84.81
467.829	77.81
468.049	83.81
468.268	94.81
468.488	71.81
468.707	77.81
468.927	88.81
469.146	69.81
469.365	88.81
469.585	76.81
469.804	96.81
470.023	82.81
470.243	100.81
470.462	96.81
470.681	82.81
470.901	79.81
471.12	69.81
471.339	66.81
471.558	80.81
471.777	84.81
471.997	84.81
472.216	91.81
472.435	77.81
472.654	79.81
472.873	93.81
473.092	88.81
473.311	78.81
473.53	89.81
473.749	76.81
473.968	84.81
474.187	90.81
474.406	70.81
474.625	90.81
474.844	86.81
475.063	79.81
475.282	83.81
475.501	90.81
475.72	91.81
475.939	85.81
476.158	77.81
476.377	88.81
476.596	78.81
476.814	70.81
477.033	84.81
477.252	78.81
477.471	82.81
477.69	86.81
477.908	84.81
478.127	74.81
478.346	71.81
478.564	80.81
478.783	79.81
479.002	80.81
479.22	90.81
479.439	84.81
479.658	92.81
479.876	81.81
480.095	79.81
480.313	93.81
480.532	84.81
480.751	79.81
480.969	73.81
481.188	81.81
481.406	73.81
481.624	70.81
481.843	89.81
482.061	98.81
482.28	92.81
482.498	92.81
482.717	93.81
482.935	81.81
483.153	97.81
483.372	84.81
483.59	68.81
483.808	92.81
484.027	85.81
484.245	86.81
484.463	82.81
484.681	88.81
484.9	71.81
485.118	80.81
485.336	75.81
485.554	77.81
485.772	80.81
485.99	87.81
486.209	81.81
486.427	69.81
486.645	74.81
486.863	75.81
487.081	90.81
487.299	82.81
487.517	75.81
487.735	79.81
487.953	92.81
488.171	81.81
488.389	84.81
488.607	84.81
488.825	75.81
489.043	81.81
489.261	87.81
489.479	86.81
489.696	86.81
489.914	92.81
490.132	73.81
490.35	93.81
490.568	74.81
490.786	80.81
491.003	87.81
491.221	74.81
491.439	83.81
491.657	72.81
491.874	98.81
492.092	86.81
492.31	96.81
492.527	74.81
492.745	62.81
492.963	89.81
493.18	85.81
493.398	77.81
493.615	65.81
493.833	88.81
494.05	88.81
494.268	78.81
494.485	89.81
494.703	78.81
494.92	95.81
495.138	97.81
495.355	90.81
495.573	97.81
495.79	80.81
496.008	82.81
496.225	88.81
496.442	82.81
496.66	78.81
496.877	75.81
497.094	81.81
497.312	89.81
497.529	66.81
497.746	74.81
497.963	72.81
498.181	94.81
498.398	82.81
498.615	82.81
498.832	99.81
499.049	92.81
499.267	88.81
499.484	72.81
499.701	81.81
499.918	89.81
500.135	73.81
500.352	75.81
500.569	84.81
500.786	96.81
501.003	80.81
501.22	69.81
501.437	90.81
501.654	86.81
501.871	69.81
502.088	72.81
502.305	89.81
502.522	72.81
502.739	80.81
502.956	70.81
503.172	84.81
503.389	87.81
503.606	92.81
503.823	86.81
504.04	82.81
504.256	93.81
504.473	87.81
504.69	88.81
504.907	83.81
505.123	76.81
505.34	88.81
505.557	77.81
505.773	88.81
505.99	80.81
506.207	75.81
506.423	95.81
506.64	96.81
506.856	80.81
507.073	84.81
507.289	82.81
507.506	72.81
507.722	85.81
507.939	84.81
508.155	97.81
508.372	74.81
508.588	79.81
508.805	92.81
509.021	82.81
509.238	84.81
509.454	84.81
509.67	76.81
509.887	85.81
510.103	72.81
510.319	93.81
510.536	85.81
510.752	84.81
510.968	73.81
511.184	78.81
511.401	86.81
511.617	69.81
511.833	92.81
512.049	72.81
512.265	82.81
512.481	81.81
512.698	80.81
512.914	79.81
513.13	87.81
513.346	80.81
513.562	82.81
513.778	74.81
513.994	87.81
514.21	82.81
514.426	72.81
514.642	95.81
514.858	89.81
515.074	81.81
515.29	84.81
515.506	73.81
515.721	87.81
515.937	86.81
516.153	85.81
516.369	91.81
516.585	91.81
516.801	90.81
517.016	82.81
517.232	78.81
517.448	93.81
517.664	94.81
517.879	80.81
518.095	80.81
518.311	77.81
518.527	74.81
518.742	86.81
518.958	88.81
519.173	98.81
519.389	98.81
519.605	86.81
519.82	75.81
520.036	95.81
520.251	86.81
520.467	78.81
520.682	95.81
520.898	80.81
521.113	80.81
521.329	86.81
521.544	82.81
521.76	66.81
521.975	75.81
522.19	80.81
522.406	81.81
522.621	95.81
522.836	89.81
523.052	77.81
523.267	85.81
523.482	96.81
523.698	85.81
523.913	94.81
524.128	85.81
524.343	78.81
524.559	94.81
524.774	84.81
524.989	74.81
525.204	90.81
525.419	96.81
525.634	101.81
525.849	94.81
526.064	88.81
526.28	94.81
526.495	90.81
526.71	101.81
526.925	94.81
527.14	87.81
527.355	92.81
527.57	88.81
527.785	93.81
527.999	86.81
528.214	91.81
528.429	87.81
528.644	84.81
528.859	76.81
529.074	71.81
529.289	84.81
529.503	79.81
529.718	72.81
529.933	87.81
530.148	80.81
530.363	85.81
530.577	70.81
530.792	90.81
531.007	80.81
531.221	84.81
531.436	80.81
531.651	84.81
531.865	84.81
532.08	86.81
532.295	82.81
532.509	78.81
532.724	92.81
532.938	62.81
533.153	77.81
533.367	82.81
533.582	82.81
533.796	93.81
534.011	88.81
534.225	76.81
534.44	73.81
534.654	89.81
534.868	95.81
535.083	86.81
535.297	73.81
535.511	94.81
535.726	75.81
535.94	77.81
536.154	93.81
536.369	78.81
536.583	90.81
536.797	81.81
537.011	82.81
537.225	84.81
537.44	94.81
537.654	96.81
537.868	86.81
538.082	85.81
538.296	84.81
538.51	81.81
538.724	92.81
538.938	78.81
539.153	86.81
539.367	88.81
539.581	99.81
539.795	90.81
540.009	82.81
540.222	88.81
540.436	96.81
540.65	80.81
540.864	81.81
541.078	66.81
541.292	86.81
541.506	85.81
541.72	97.81
541.934	84.81
542.147	94.81
542.361	88.81
542.575	78.81
542.789	91.81
543.002	93.81
543.216	85.81
543.43	94.81
543.644	86.81
543.857	80.81
544.071	96.81
544.285	94.81
544.498	82.81
544.712	88.81
544.925	92.81
545.139	97.81
545.352	88.81
545.566	84.81
545.779	100.81
545.993	77.81
546.206	93.81
546.42	82.81
546.633	88.81
546.847	89.81
547.06	96.81
547.274	87.81
547.487	85.81
547.7	94.81
547.914	90.81
548.127	92.81
548.34	104.81
548.554	97.81
548.767	88.81
548.98	92.81
549.193	105.81
549.407	90.81
549.62	96.81
549.833	94.81
550.046	115.81
550.259	98.81
550.473	84.81
550.686	83.81
550.899	109.81
551.112	96.81
551.325	90.81
551.538	97.81
551.751	100.81
551.964	105.81
552.177	94.81
552.39	99.81
552.603	102.81
552.816	110.81
553.029	104.81
553.242	103.81
553.455	100.81
553.667	108.81
553.88	114.81
554.093	117.81
554.306	111.81
554.519	104.81
554.732	117.81
554.944	115.81
555.157	105.81
555.37	103.81
555.583	114.81
555.795	98.81
556.008	103.81
556.221	108.81
556.433	108.81
556.646	95.81
556.859	95.81
557.071	94.81
557.284	93.81
557.496	100.81
557.709	102.81
557.921	100.81
558.134	94.81
558.346	90.81
558.559	91.81
558.771	89.81
558.984	103.81
559.196	110.81
559.409	90.81
559.621	114.81
559.833	93.81
560.046	104.81
560.258	84.81
560.47	99.81
560.683	76.81
560.895	82.81
561.107	93.81
561.32	89.81
561.532	97.81
561.744	84.81
561.956	98.81
562.168	86.81
562.381	82.81
562.593	89.81
562.805	96.81
563.017	89.81
563.229	78.81
563.441	78.81
563.653	88.81
563.865	92.81
564.077	95.81
564.289	83.81
564.501	82.81
564.713	82.81
564.925	75.81
565.137	87.81
565.349	85.81
565.561	83.81
565.773	95.81
565.985	82.81
566.197	92.81
566.408	79.81
566.62	93.81
566.832	78.81
567.044	95.81
567.255	92.81
567.467	82.81
567.679	87.81
567.891	92.81
568.102	92.81
568.314	93.81
568.526	64.81
568.737	78.81
568.949	84.81
569.161	99.81
569.372	75.81
569.584	80.81
569.795	85.81
570.007	83.81
570.218	83.81
570.43	86.81
570.641	81.81
570.853	80.81
571.064	79.81
571.276	98.81
571.487	92.81
571.698	85.81
571.91	96.81
572.121	88.81
572.333	75.81
572.544	86.81
572.755	80.81
572.966	102.81
573.178	72.81
573.389	81.81
573.6	89.81
573.811	89.81
574.023	88.81
574.234	80.81
574.445	76.81
574.656	85.81
574.867	81.81
575.078	85.81
575.289	78.81
575.501	99.81
575.712	87.81
575.923	84.81
576.134	78.81
576.345	93.81
576.556	97.81
576.767	91.81
576.978	72.81
577.188	85.81
577.399	95.81
577.61	63.81
577.821	95.81
578.032	79.81
578.243	82.81
578.454	90.81
578.665	79.81
578.875	86.81
579.086	77.81
579.297	82.81
579.508	93.81
579.718	88.81
579.929	82.81
580.14	82.81
580.35	90.81
580.561	75.81
580.772	90.81
580.982	100.81
581.193	91.81
581.403	89.81
581.614	78.81
581.825	74.81
582.035	76.81
582.246	83.81
582.456	70.81
582.667	90.81
582.877	82.81
583.087	84.81
583.298	80.81
583.508	87.81
583.719	83.81
583.929	92.81
584.139	86.81
584.35	89.81
584.56	75.81
584.77	77.81
584.981	84.81
585.191	79.81
585.401	80.81
585.611	88.81
585.821	80.81
586.032	83.81
586.242	98.81
586.452	84.81
586.662	92.81
586.872	80.81
587.082	81.81
587.292	83.81
587.502	99.81
587.713	71.81
587.923	73.81
588.133	94.81
588.343	68.81
588.553	89.81
588.762	78.81
588.972	94.81
589.182	137.81
589.392	127.81
589.602	106.81
589.812	110.81
590.022	96.81
590.232	80.81
590.441	78.81
590.651	75.81
590.861	77.81
591.071	91.81
591.281	87.81
591.49	85.81
591.7	94.81
591.91	100.81
592.119	91.81
592.329	72.81
592.539	93.81
592.748	98.81
592.958	104.81
593.167	100.81
593.377	73.81
593.587	97.81
593.796	81.81
594.006	88.81
594.215	100.81
594.424	98.81
594.634	94.81
594.843	89.81
595.053	92.81
595.262	82.81
595.472	94.81
595.681	88.81
595.89	92.81
596.1	94.81
596.309	80.81
596.518	85.81
596.727	97.81
596.937	106.81
597.146	87.81
597.355	96.81
597.564	88.81
597.774	100.81
597.983	98.81
598.192	96.81
598.401	87.81
598.61	105.81
598.819	91.81
599.028	101.81
599.237	114.81
599.446	90.81
599.655	97.81
599.864	90.81
600.073	90.81
600.282	106.81
600.491	92.81
600.7	83.81
600.909	101.81
601.118	91.81
601.327	105.81
601.536	102.81
601.745	103.81
601.953	94.81
602.162	94.81
602.371	88.81
602.58	90.81
602.789	95.81
602.997	94.81
603.206	88.81
603.415	89.81
603.623	79.81
603.832	108.81
604.041	95.81
604.249	101.81
604.458	92.81
604.666	94.81
604.875	98.81
605.084	114.81
605.292	87.81
605.501	110.81
605.709	97.81
605.918	103.81
606.126	96.81
606.334	93.81
606.543	96.81
606.751	101.81
606.96	112.81
607.168	87.81
607.376	99.81
607.585	88.81
607.793	93.81
608.001	84.81
608.21	97.81
608.418	100.81
608.626	112.81
608.834	100.81
609.043	101.81
609.251	89.81
609.459	91.81
609.667	101.81
609.875	99.81
610.083	91.81
610.291	100.81
610.499	108.81
610.707	99.81
610.916	106.81
611.124	101.81
611.332	89.81
611.54	97.81
611.748	109.81
611.955	99.81
612.163	103.81
612.371	128.81
612.579	106.81
612.787	100.81
612.995	94.81
613.203	98.81
613.411	114.81
613.618	101.81
613.826	101.81
614.034	94.81
614.242	96.81
614.449	94.81
614.657	108.81
614.865	116.81
615.072	94.81
615.28	96.81
615.488	94.81
615.695	96.81
615.903	82.81
616.111	109.81
616.318	123.81
616.526	120.81
616.733	121.81
616.941	109.81
617.148	112.81
617.356	98.81
617.563	103.81
617.771	96.81
617.978	94.81
618.185	110.81
618.393	94.81
618.6	93.81
618.807	98.81
619.015	93.81
619.222	97.81
619.429	89.81
619.637	101.81
619.844	87.81
620.051	118.81
620.258	89.81
620.466	100.81
620.673	90.81
620.88	110.81
621.087	92.81
621.294	97.81
621.501	112.81
621.708	109.81
621.915	88.81
622.122	96.81
622.329	104.81
622.536	95.81
622.743	97.81
622.95	98.81
623.157	116.81
623.364	104.81
623.571	92.81
623.778	108.81
623.985	99.81
624.192	110.81
624.399	60.81
624.606	102.81
624.812	103.81
625.019	101.81
625.226	102.81
625.433	92.81
625.639	93.81
625.846	105.81
626.053	103.81
626.259	80.81
626.466	99.81
626.673	82.81
626.879	85.81
627.086	92.81
627.293	90.81
627.499	86.81
627.706	101.81
627.912	88.81
628.119	104.81
628.325	102.81
628.532	104.81
628.738	95.81
628.945	79.81
629.151	85.81
629.357	90.81
629.564	83.81
629.77	90.81
629.976	88.81
630.183	86.81
630.389	92.81
630.595	84.81
630.802	96.81
631.008	88.81
631.214	82.81
631.42	100.81
631.627	84.81
631.833	70.81
632.039	74.81
632.245	78.81
632.451	90.81
632.657	82.81
632.863	80.81
633.069	90.81
633.275	98.81
633.481	76.81
633.688	85.81
633.893	92.81
634.099	89.81
634.305	88.81
634.511	92.81
634.717	84.81
634.923	86.81
635.129	93.81
635.335	85.81
635.541	93.81
635.747	86.81
635.952	87.81
636.158	85.81
636.364	99.81
636.57	103.81
636.775	74.81
636.981	80.81
637.187	94.81
637.392	99.81
637.598	74.81
637.804	86.81
638.009	88.81
638.215	75.81
638.421	83.81
638.626	82.81
638.832	89.81
639.037	89.81
639.243	82.81
639.448	85.81
639.654	86.81
639.859	79.81
640.065	74.81
640.27	91.81
640.475	89.81
640.681	82.81
640.886	102.81
641.091	96.81
641.297	79.81
641.502	82.81
641.707	96.81
641.913	88.81
642.118	80.81
642.323	86.81
642.528	83.81
642.733	89.81
642.939	82.81
643.144	96.81
643.349	81.81
643.554	78.81
643.759	73.81
643.964	86.81
644.169	106.81
644.374	94.81
644.579	77.81
644.784	87.81
644.989	81.81
645.194	84.81
645.399	84.81
645.604	67.81
645.809	108.81
646.014	94.81
646.219	80.81
646.423	83.81
646.628	85.81
646.833	88.81
647.038	90.81
647.243	90.81
647.447	80.81
647.652	79.81
647.857	87.81
648.062	76.81
648.266	84.81
648.471	85.81
648.676	83.81
648.88	92.81
649.085	83.81
649.289	96.81
649.494	102.81
649.698	89.81
649.903	74.81
650.107	76.81
650.312	92.81
650.516	79.81
650.721	79.81
650.925	95.81
651.13	93.81
651.334	88.81
651.539	110.81
651.743	87.81
651.947	91.81
652.152	85.81
652.356	92.81
652.56	82.81
652.764	89.81
652.969	93.81
653.173	88.81
653.377	84.81
653.581	85.81
653.785	79.81
653.99	74.81
654.194	106.81
654.398	61.81
654.602	88.81
654.806	92.81
655.01	89.81
655.214	86.81
655.418	86.81
655.622	80.81
655.826	97.81
656.03	80.81
656.234	69.81
656.438	76.81
656.642	90.81
656.846	75.81
657.049	70.81
657.253	86.81
657.457	90.81
657.661	90.81
657.865	92.81
658.068	91.81
658.272	88.81
658.476	93.81
658.68	87.81
658.883	80.81
659.087	80.81
659.291	66.81
659.494	79.81
659.698	72.81
659.901	83.81
660.105	95.81
660.309	80.81
660.512	77.81
660.716	93.81
660.919	74.81
661.123	88.81
661.326	82.81
661.53	88.81
661.733	79.81
661.936	93.81
662.14	82.81
662.343	83.81
662.546	78.81
662.75	75.81
662.953	95.81
663.156	101.81
663.36	101.81
663.563	71.81
663.766	80.81
663.969	97.81
664.173	90.81
664.376	90.81
664.579	79.81
664.782	92.81
664.985	83.81
665.188	74.81
665.391	82.81
665.594	75.81
665.797	88.81
666	72.81
666.203	97.81
666.406	78.81
666.609	71.81
666.812	92.81
667.015	65.81
667.218	73.81
667.421	73.81
667.624	83.81
667.827	77.81
668.03	85.81
668.232	81.81
668.435	80.81
668.638	85.81
668.841	73.81
669.043	84.81
669.246	91.81
669.449	72.81
669.651	78.81
669.854	87.81
670.057	98.81
670.259	89.81
670.462	104.81
670.665	77.81
670.867	82.81
671.07	74.81
671.272	82.81
671.475	91.81
671.677	78.81
671.88	97.81
672.082	80.81
672.284	82.81
672.487	83.81
672.689	65.81
672.892	85.81
