Data from Mixheat3_HRD10591_00012.txt Node
Date: Fri Dec 27 15:10:34 EST 2024
User: Yrep
Spectrometer: HR+D1059
Trigger mode: 1
Integration Time (sec): 1.000000E-1
Scans to average: 1
Electric dark correction enabled: true
Nonlinearity correction enabled: false
Boxcar width: 0
XAxis mode: Wavelengths
Number of Pixels in Spectrum: 2048
>>>>>Begin Spectral Data<<<<<
223.165	-10.44
223.4	-10.44
223.635	-10.44
223.869	-14.44
224.104	-19.44
224.338	-13.44
224.573	-9.44
224.808	-26.44
225.042	-13.44
225.277	4.56
225.511	-4.44
225.746	12.56
225.98	9.56
226.215	3.56
226.449	14.56
226.683	15.56
226.918	25.56
227.152	25.56
227.387	42.56
227.621	45.56
227.856	53.56
228.09	33.56
228.324	53.56
228.559	55.56
228.793	64.56
229.027	40.56
229.262	62.56
229.496	66.56
229.73	66.56
229.964	57.56
230.199	72.56
230.433	65.56
230.667	75.56
230.901	71.56
231.136	72.56
231.37	74.56
231.604	85.56
231.838	80.56
232.072	70.56
232.306	87.56
232.541	71.56
232.775	80.56
233.009	81.56
233.243	75.56
233.477	83.56
233.711	81.56
233.945	82.56
234.179	70.56
234.413	66.56
234.647	69.56
234.881	78.56
235.115	69.56
235.349	56.56
235.583	74.56
235.817	77.56
236.051	76.56
236.285	76.56
236.519	60.56
236.753	73.56
236.987	71.56
237.221	68.56
237.455	60.56
237.689	62.56
237.922	70.56
238.156	63.56
238.39	79.56
238.624	86.56
238.858	64.56
239.091	67.56
239.325	80.56
239.559	56.56
239.793	75.56
240.027	65.56
240.26	75.56
240.494	72.56
240.728	73.56
240.961	65.56
241.195	76.56
241.429	77.56
241.662	79.56
241.896	62.56
242.13	65.56
242.363	68.56
242.597	70.56
242.83	62.56
243.064	68.56
243.298	85.56
243.531	64.56
243.765	74.56
243.998	79.56
244.232	75.56
244.465	77.56
244.699	65.56
244.932	68.56
245.166	78.56
245.399	61.56
245.633	77.56
245.866	69.56
246.099	61.56
246.333	74.56
246.566	63.56
246.8	66.56
247.033	78.56
247.266	75.56
247.5	66.56
247.733	72.56
247.966	75.56
248.2	80.56
248.433	81.56
248.666	64.56
248.899	83.56
249.133	92.56
249.366	90.56
249.599	80.56
249.832	73.56
250.066	80.56
250.299	73.56
250.532	72.56
250.765	74.56
250.998	67.56
251.231	72.56
251.465	72.56
251.698	68.56
251.931	76.56
252.164	86.56
252.397	82.56
252.63	82.56
252.863	77.56
253.096	94.56
253.329	73.56
253.562	77.56
253.795	82.56
254.028	88.56
254.261	78.56
254.494	80.56
254.727	91.56
254.96	76.56
255.193	66.56
255.426	78.56
255.659	80.56
255.892	83.56
256.124	76.56
256.357	77.56
256.59	90.56
256.823	81.56
257.056	77.56
257.289	60.56
257.521	73.56
257.754	62.56
257.987	73.56
258.22	67.56
258.452	80.56
258.685	58.56
258.918	68.56
259.151	72.56
259.383	78.56
259.616	75.56
259.849	65.56
260.081	84.56
260.314	88.56
260.547	73.56
260.779	77.56
261.012	69.56
261.244	72.56
261.477	80.56
261.71	83.56
261.942	67.56
262.175	67.56
262.407	78.56
262.64	77.56
262.872	83.56
263.105	82.56
263.337	68.56
263.57	78.56
263.802	78.56
264.035	57.56
264.267	83.56
264.499	75.56
264.732	104.56
264.964	77.56
265.197	73.56
265.429	78.56
265.661	70.56
265.894	93.56
266.126	66.56
266.358	74.56
266.591	77.56
266.823	69.56
267.055	88.56
267.287	76.56
267.52	65.56
267.752	106.56
267.984	68.56
268.216	80.56
268.448	78.56
268.681	91.56
268.913	71.56
269.145	78.56
269.377	81.56
269.609	69.56
269.841	75.56
270.073	63.56
270.306	86.56
270.538	82.56
270.77	79.56
271.002	81.56
271.234	84.56
271.466	78.56
271.698	88.56
271.93	75.56
272.162	73.56
272.394	78.56
272.626	66.56
272.858	72.56
273.09	81.56
273.322	81.56
273.553	80.56
273.785	85.56
274.017	86.56
274.249	81.56
274.481	65.56
274.713	89.56
274.945	76.56
275.176	75.56
275.408	82.56
275.64	68.56
275.872	74.56
276.104	79.56
276.335	87.56
276.567	80.56
276.799	72.56
277.031	84.56
277.262	82.56
277.494	82.56
277.726	83.56
277.957	72.56
278.189	80.56
278.421	62.56
278.652	80.56
278.884	81.56
279.115	74.56
279.347	71.56
279.579	69.56
279.81	76.56
280.042	87.56
280.273	66.56
280.505	73.56
280.736	85.56
280.968	76.56
281.199	76.56
281.431	74.56
281.662	88.56
281.894	73.56
282.125	72.56
282.356	80.56
282.588	83.56
282.819	88.56
283.051	83.56
283.282	93.56
283.513	90.56
283.745	83.56
283.976	90.56
284.207	76.56
284.439	74.56
284.67	70.56
284.901	78.56
285.132	81.56
285.364	87.56
285.595	84.56
285.826	72.56
286.057	93.56
286.288	72.56
286.52	67.56
286.751	82.56
286.982	85.56
287.213	70.56
287.444	80.56
287.675	92.56
287.906	86.56
288.138	61.56
288.369	68.56
288.6	80.56
288.831	84.56
289.062	82.56
289.293	74.56
289.524	73.56
289.755	85.56
289.986	81.56
290.217	80.56
290.448	81.56
290.679	77.56
290.91	82.56
291.141	66.56
291.371	94.56
291.602	83.56
291.833	74.56
292.064	74.56
292.295	79.56
292.526	76.56
292.757	85.56
292.987	71.56
293.218	76.56
293.449	74.56
293.68	73.56
293.91	79.56
294.141	79.56
294.372	67.56
294.603	78.56
294.833	89.56
295.064	77.56
295.295	78.56
295.525	80.56
295.756	82.56
295.987	67.56
296.217	84.56
296.448	74.56
296.679	76.56
296.909	75.56
297.14	68.56
297.37	91.56
297.601	89.56
297.831	70.56
298.062	87.56
298.292	71.56
298.523	103.56
298.753	87.56
298.984	72.56
299.214	88.56
299.445	77.56
299.675	81.56
299.905	75.56
300.136	84.56
300.366	92.56
300.597	86.56
300.827	82.56
301.057	94.56
301.288	68.56
301.518	92.56
301.748	90.56
301.979	91.56
302.209	73.56
302.439	75.56
302.669	76.56
302.9	94.56
303.13	78.56
303.36	76.56
303.59	89.56
303.82	71.56
304.051	71.56
304.281	75.56
304.511	93.56
304.741	70.56
304.971	86.56
305.201	84.56
305.431	82.56
305.661	73.56
305.891	74.56
306.121	93.56
306.352	85.56
306.582	77.56
306.812	74.56
307.042	74.56
307.272	88.56
307.502	78.56
307.731	89.56
307.961	79.56
308.191	87.56
308.421	85.56
308.651	88.56
308.881	77.56
309.111	81.56
309.341	80.56
309.571	93.56
309.8	68.56
310.03	82.56
310.26	69.56
310.49	76.56
310.72	82.56
310.949	80.56
311.179	77.56
311.409	83.56
311.639	78.56
311.868	83.56
312.098	93.56
312.328	85.56
312.557	74.56
312.787	87.56
313.017	88.56
313.246	91.56
313.476	88.56
313.706	73.56
313.935	89.56
314.165	85.56
314.394	92.56
314.624	75.56
314.853	71.56
315.083	81.56
315.312	78.56
315.542	81.56
315.771	78.56
316.001	72.56
316.23	73.56
316.46	81.56
316.689	79.56
316.919	76.56
317.148	98.56
317.377	85.56
317.607	89.56
317.836	66.56
318.065	77.56
318.295	80.56
318.524	84.56
318.753	85.56
318.983	68.56
319.212	72.56
319.441	84.56
319.67	76.56
319.9	83.56
320.129	80.56
320.358	73.56
320.587	85.56
320.816	89.56
321.046	62.56
321.275	79.56
321.504	86.56
321.733	81.56
321.962	80.56
322.191	82.56
322.42	91.56
322.649	74.56
322.878	81.56
323.108	76.56
323.337	71.56
323.566	90.56
323.795	83.56
324.024	84.56
324.253	82.56
324.482	83.56
324.71	76.56
324.939	76.56
325.168	70.56
325.397	73.56
325.626	94.56
325.855	81.56
326.084	85.56
326.313	86.56
326.542	79.56
326.77	98.56
326.999	78.56
327.228	89.56
327.457	75.56
327.686	67.56
327.914	78.56
328.143	86.56
328.372	79.56
328.6	74.56
328.829	72.56
329.058	70.56
329.287	73.56
329.515	81.56
329.744	68.56
329.972	64.56
330.201	69.56
330.43	76.56
330.658	69.56
330.887	74.56
331.115	74.56
331.344	73.56
331.572	97.56
331.801	80.56
332.03	66.56
332.258	79.56
332.486	75.56
332.715	73.56
332.943	78.56
333.172	68.56
333.4	80.56
333.629	93.56
333.857	77.56
334.085	73.56
334.314	89.56
334.542	66.56
334.771	83.56
334.999	88.56
335.227	77.56
335.455	80.56
335.684	88.56
335.912	83.56
336.14	85.56
336.369	96.56
336.597	78.56
336.825	84.56
337.053	83.56
337.281	88.56
337.51	83.56
337.738	73.56
337.966	82.56
338.194	80.56
338.422	89.56
338.65	83.56
338.878	74.56
339.106	75.56
339.334	68.56
339.562	77.56
339.79	71.56
340.018	91.56
340.246	85.56
340.474	79.56
340.702	87.56
340.93	77.56
341.158	81.56
341.386	86.56
341.614	82.56
341.842	94.56
342.07	71.56
342.298	77.56
342.526	70.56
342.754	67.56
342.981	80.56
343.209	77.56
343.437	99.56
343.665	82.56
343.893	76.56
344.12	82.56
344.348	73.56
344.576	86.56
344.804	85.56
345.031	84.56
345.259	89.56
345.487	70.56
345.714	77.56
345.942	75.56
346.17	76.56
346.397	97.56
346.625	76.56
346.853	67.56
347.08	80.56
347.308	83.56
347.535	79.56
347.763	80.56
347.99	83.56
348.218	80.56
348.445	70.56
348.673	75.56
348.9	87.56
349.128	102.56
349.355	82.56
349.583	87.56
349.81	65.56
350.037	74.56
350.265	74.56
350.492	75.56
350.72	75.56
350.947	78.56
351.174	82.56
351.402	71.56
351.629	86.56
351.856	76.56
352.083	68.56
352.311	73.56
352.538	78.56
352.765	69.56
352.992	84.56
353.22	88.56
353.447	70.56
353.674	68.56
353.901	67.56
354.128	94.56
354.355	70.56
354.583	87.56
354.81	64.56
355.037	82.56
355.264	77.56
355.491	84.56
355.718	76.56
355.945	88.56
356.172	80.56
356.399	81.56
356.626	70.56
356.853	81.56
357.08	91.56
357.307	87.56
357.534	93.56
357.761	84.56
357.988	82.56
358.215	69.56
358.441	68.56
358.668	75.56
358.895	91.56
359.122	78.56
359.349	76.56
359.576	72.56
359.802	74.56
360.029	86.56
360.256	82.56
360.483	76.56
360.709	79.56
360.936	70.56
361.163	76.56
361.39	77.56
361.616	77.56
361.843	74.56
362.07	88.56
362.296	83.56
362.523	71.56
362.749	74.56
362.976	91.56
363.203	86.56
363.429	91.56
363.656	81.56
363.882	76.56
364.109	87.56
364.335	92.56
364.562	76.56
364.788	82.56
365.015	84.56
365.241	84.56
365.468	76.56
365.694	78.56
365.92	91.56
366.147	85.56
366.373	61.56
366.599	76.56
366.826	72.56
367.052	73.56
367.278	88.56
367.505	79.56
367.731	97.56
367.957	77.56
368.184	79.56
368.41	62.56
368.636	87.56
368.862	73.56
369.089	70.56
369.315	74.56
369.541	87.56
369.767	82.56
369.993	81.56
370.219	66.56
370.445	82.56
370.672	81.56
370.898	77.56
371.124	93.56
371.35	78.56
371.576	79.56
371.802	76.56
372.028	78.56
372.254	73.56
372.48	72.56
372.706	76.56
372.932	82.56
373.158	74.56
373.384	78.56
373.61	63.56
373.835	83.56
374.061	87.56
374.287	85.56
374.513	86.56
374.739	86.56
374.965	88.56
375.191	81.56
375.416	75.56
375.642	82.56
375.868	96.56
376.094	77.56
376.319	79.56
376.545	69.56
376.771	80.56
376.997	86.56
377.222	68.56
377.448	77.56
377.674	83.56
377.899	80.56
378.125	65.56
378.35	85.56
378.576	84.56
378.802	93.56
379.027	92.56
379.253	83.56
379.478	91.56
379.704	80.56
379.929	72.56
380.155	70.56
380.38	78.56
380.606	84.56
380.831	73.56
381.057	84.56
381.282	80.56
381.507	87.56
381.733	75.56
381.958	70.56
382.184	71.56
382.409	68.56
382.634	91.56
382.86	90.56
383.085	82.56
383.31	93.56
383.535	91.56
383.761	79.56
383.986	68.56
384.211	77.56
384.436	63.56
384.662	58.56
384.887	83.56
385.112	81.56
385.337	91.56
385.562	68.56
385.787	82.56
386.013	86.56
386.238	89.56
386.463	88.56
386.688	98.56
386.913	74.56
387.138	80.56
387.363	84.56
387.588	85.56
387.813	75.56
388.038	74.56
388.263	73.56
388.488	81.56
388.713	62.56
388.938	68.56
389.163	66.56
389.387	80.56
389.612	68.56
389.837	72.56
390.062	78.56
390.287	92.56
390.512	61.56
390.736	89.56
390.961	82.56
391.186	76.56
391.411	85.56
391.636	83.56
391.86	85.56
392.085	79.56
392.31	88.56
392.534	64.56
392.759	79.56
392.984	92.56
393.208	100.56
393.433	109.56
393.658	108.56
393.882	76.56
394.107	84.56
394.331	95.56
394.556	90.56
394.78	72.56
395.005	80.56
395.229	84.56
395.454	81.56
395.678	81.56
395.903	89.56
396.127	81.56
396.352	109.56
396.576	88.56
396.801	107.56
397.025	108.56
397.249	81.56
397.474	86.56
397.698	94.56
397.922	84.56
398.147	73.56
398.371	76.56
398.595	76.56
398.82	63.56
399.044	84.56
399.268	82.56
399.492	82.56
399.717	88.56
399.941	79.56
400.165	80.56
400.389	67.56
400.613	69.56
400.837	67.56
401.062	83.56
401.286	71.56
401.51	90.56
401.734	83.56
401.958	90.56
402.182	84.56
402.406	89.56
402.63	77.56
402.854	65.56
403.078	68.56
403.302	80.56
403.526	82.56
403.75	76.56
403.974	76.56
404.198	114.56
404.422	97.56
404.645	120.56
404.869	112.56
405.093	92.56
405.317	80.56
405.541	86.56
405.765	77.56
405.988	89.56
406.212	86.56
406.436	79.56
406.66	79.56
406.883	86.56
407.107	59.56
407.331	78.56
407.555	82.56
407.778	74.56
408.002	75.56
408.226	84.56
408.449	88.56
408.673	76.56
408.896	81.56
409.12	69.56
409.344	102.56
409.567	68.56
409.791	75.56
410.014	87.56
410.238	80.56
410.461	72.56
410.685	70.56
410.908	71.56
411.132	82.56
411.355	70.56
411.578	72.56
411.802	85.56
412.025	86.56
412.249	82.56
412.472	83.56
412.695	73.56
412.919	84.56
413.142	90.56
413.365	86.56
413.589	68.56
413.812	78.56
414.035	85.56
414.258	73.56
414.482	73.56
414.705	71.56
414.928	76.56
415.151	86.56
415.374	77.56
415.597	72.56
415.821	60.56
416.044	76.56
416.267	88.56
416.49	66.56
416.713	63.56
416.936	84.56
417.159	78.56
417.382	71.56
417.605	78.56
417.828	80.56
418.051	80.56
418.274	90.56
418.497	75.56
418.72	77.56
418.943	74.56
419.166	74.56
419.389	74.56
419.611	92.56
419.834	74.56
420.057	80.56
420.28	77.56
420.503	81.56
420.726	81.56
420.948	77.56
421.171	90.56
421.394	86.56
421.617	85.56
421.839	93.56
422.062	84.56
422.285	91.56
422.507	130.56
422.73	152.56
422.953	148.56
423.175	107.56
423.398	90.56
423.621	98.56
423.843	72.56
424.066	69.56
424.288	63.56
424.511	76.56
424.733	72.56
424.956	80.56
425.178	80.56
425.401	73.56
425.623	89.56
425.846	83.56
426.068	70.56
426.291	80.56
426.513	69.56
426.735	69.56
426.958	75.56
427.18	76.56
427.402	71.56
427.625	84.56
427.847	87.56
428.069	85.56
428.292	107.56
428.514	93.56
428.736	104.56
428.958	90.56
429.181	85.56
429.403	81.56
429.625	89.56
429.847	100.56
430.069	83.56
430.292	96.56
430.514	102.56
430.736	94.56
430.958	97.56
431.18	72.56
431.402	74.56
431.624	89.56
431.846	85.56
432.068	100.56
432.29	88.56
432.512	72.56
432.734	84.56
432.956	83.56
433.178	89.56
433.4	77.56
433.622	74.56
433.844	84.56
434.066	78.56
434.287	74.56
434.509	81.56
434.731	66.56
434.953	72.56
435.175	86.56
435.397	85.56
435.618	65.56
435.84	67.56
436.062	80.56
436.284	69.56
436.505	69.56
436.727	77.56
436.949	72.56
437.17	74.56
437.392	82.56
437.614	75.56
437.835	82.56
438.057	90.56
438.278	74.56
438.5	79.56
438.721	76.56
438.943	78.56
439.165	88.56
439.386	75.56
439.608	84.56
439.829	76.56
440.05	102.56
440.272	66.56
440.493	66.56
440.715	83.56
440.936	89.56
441.158	58.56
441.379	80.56
441.6	81.56
441.822	81.56
442.043	80.56
442.264	72.56
442.486	87.56
442.707	87.56
442.928	91.56
443.149	93.56
443.371	97.56
443.592	118.56
443.813	115.56
444.034	87.56
444.255	91.56
444.476	69.56
444.698	95.56
444.919	91.56
445.14	149.56
445.361	125.56
445.582	143.56
445.803	102.56
446.024	71.56
446.245	66.56
446.466	80.56
446.687	79.56
446.908	76.56
447.129	87.56
447.35	77.56
447.571	80.56
447.792	66.56
448.013	76.56
448.234	78.56
448.455	83.56
448.675	60.56
448.896	80.56
449.117	75.56
449.338	79.56
449.559	79.56
449.779	79.56
450	89.56
450.221	89.56
450.442	76.56
450.662	75.56
450.883	76.56
451.104	90.56
451.324	86.56
451.545	97.56
451.766	87.56
451.986	84.56
452.207	94.56
452.428	85.56
452.648	88.56
452.869	78.56
453.089	89.56
453.31	79.56
453.53	97.56
453.751	72.56
453.971	78.56
454.192	67.56
454.412	81.56
454.633	80.56
454.853	78.56
455.073	70.56
455.294	98.56
455.514	73.56
455.734	67.56
455.955	78.56
456.175	91.56
456.395	73.56
456.616	87.56
456.836	90.56
457.056	67.56
457.276	75.56
457.497	78.56
457.717	77.56
457.937	73.56
458.157	94.56
458.377	82.56
458.598	85.56
458.818	74.56
459.038	94.56
459.258	77.56
459.478	82.56
459.698	72.56
459.918	83.56
460.138	91.56
460.358	75.56
460.578	90.56
460.798	85.56
461.018	70.56
461.238	93.56
461.458	82.56
461.678	85.56
461.898	86.56
462.118	71.56
462.338	80.56
462.558	66.56
462.777	69.56
462.997	82.56
463.217	79.56
463.437	77.56
463.657	72.56
463.876	74.56
464.096	84.56
464.316	73.56
464.536	71.56
464.755	63.56
464.975	63.56
465.195	73.56
465.414	80.56
465.634	79.56
465.854	85.56
466.073	71.56
466.293	80.56
466.512	67.56
466.732	84.56
466.951	71.56
467.171	86.56
467.391	98.56
467.61	84.56
467.829	100.56
468.049	89.56
468.268	77.56
468.488	85.56
468.707	70.56
468.927	78.56
469.146	77.56
469.365	90.56
469.585	83.56
469.804	80.56
470.023	73.56
470.243	85.56
470.462	93.56
470.681	73.56
470.901	81.56
471.12	75.56
471.339	85.56
471.558	82.56
471.777	80.56
471.997	79.56
472.216	79.56
472.435	68.56
472.654	74.56
472.873	90.56
473.092	80.56
473.311	88.56
473.53	92.56
473.749	75.56
473.968	96.56
474.187	78.56
474.406	69.56
474.625	76.56
474.844	92.56
475.063	73.56
475.282	76.56
475.501	63.56
475.72	98.56
475.939	78.56
476.158	75.56
476.377	74.56
476.596	74.56
476.814	85.56
477.033	81.56
477.252	80.56
477.471	70.56
477.69	81.56
477.908	86.56
478.127	82.56
478.346	91.56
478.564	81.56
478.783	64.56
479.002	82.56
479.22	76.56
479.439	74.56
479.658	78.56
479.876	63.56
480.095	81.56
480.313	82.56
480.532	86.56
480.751	83.56
480.969	77.56
481.188	84.56
481.406	77.56
481.624	79.56
481.843	69.56
482.061	75.56
482.28	77.56
482.498	89.56
482.717	81.56
482.935	80.56
483.153	79.56
483.372	83.56
483.59	78.56
483.808	74.56
484.027	79.56
484.245	85.56
484.463	82.56
484.681	98.56
484.9	62.56
485.118	85.56
485.336	92.56
485.554	82.56
485.772	86.56
485.99	87.56
486.209	80.56
486.427	81.56
486.645	91.56
486.863	81.56
487.081	87.56
487.299	100.56
487.517	74.56
487.735	77.56
487.953	89.56
488.171	89.56
488.389	84.56
488.607	68.56
488.825	82.56
489.043	72.56
489.261	80.56
489.479	74.56
489.696	85.56
489.914	80.56
490.132	82.56
490.35	90.56
490.568	84.56
490.786	104.56
491.003	89.56
491.221	98.56
491.439	83.56
491.657	84.56
491.874	91.56
492.092	76.56
492.31	85.56
492.527	87.56
492.745	93.56
492.963	83.56
493.18	97.56
493.398	87.56
493.615	83.56
493.833	86.56
494.05	80.56
494.268	74.56
494.485	86.56
494.703	81.56
494.92	69.56
495.138	80.56
495.355	92.56
495.573	77.56
495.79	83.56
496.008	87.56
496.225	83.56
496.442	79.56
496.66	66.56
496.877	75.56
497.094	84.56
497.312	84.56
497.529	89.56
497.746	85.56
497.963	81.56
498.181	81.56
498.398	90.56
498.615	90.56
498.832	88.56
499.049	77.56
499.267	80.56
499.484	74.56
499.701	85.56
499.918	65.56
500.135	84.56
500.352	76.56
500.569	80.56
500.786	68.56
501.003	82.56
501.22	85.56
501.437	89.56
501.654	75.56
501.871	81.56
502.088	76.56
502.305	73.56
502.522	77.56
502.739	70.56
502.956	80.56
503.172	85.56
503.389	85.56
503.606	84.56
503.823	86.56
504.04	90.56
504.256	90.56
504.473	81.56
504.69	82.56
504.907	98.56
505.123	74.56
505.34	74.56
505.557	90.56
505.773	84.56
505.99	74.56
506.207	74.56
506.423	83.56
506.64	77.56
506.856	68.56
507.073	77.56
507.289	73.56
507.506	86.56
507.722	74.56
507.939	81.56
508.155	85.56
508.372	77.56
508.588	81.56
508.805	81.56
509.021	75.56
509.238	83.56
509.454	76.56
509.67	76.56
509.887	87.56
510.103	84.56
510.319	71.56
510.536	66.56
510.752	82.56
510.968	73.56
511.184	76.56
511.401	73.56
511.617	88.56
511.833	85.56
512.049	75.56
512.265	88.56
512.481	86.56
512.698	88.56
512.914	73.56
513.13	92.56
513.346	79.56
513.562	92.56
513.778	80.56
513.994	79.56
514.21	78.56
514.426	87.56
514.642	94.56
514.858	82.56
515.074	99.56
515.29	96.56
515.506	82.56
515.721	85.56
515.937	78.56
516.153	81.56
516.369	73.56
516.585	76.56
516.801	83.56
517.016	94.56
517.232	79.56
517.448	96.56
517.664	85.56
517.879	88.56
518.095	85.56
518.311	77.56
518.527	81.56
518.742	74.56
518.958	93.56
519.173	90.56
519.389	67.56
519.605	88.56
519.82	83.56
520.036	72.56
520.251	67.56
520.467	89.56
520.682	81.56
520.898	76.56
521.113	73.56
521.329	87.56
521.544	70.56
521.76	84.56
521.975	84.56
522.19	85.56
522.406	90.56
522.621	93.56
522.836	86.56
523.052	77.56
523.267	85.56
523.482	80.56
523.698	85.56
523.913	77.56
524.128	87.56
524.343	69.56
524.559	90.56
524.774	82.56
524.989	84.56
525.204	88.56
525.419	86.56
525.634	83.56
525.849	83.56
526.064	90.56
526.28	108.56
526.495	126.56
526.71	142.56
526.925	123.56
527.14	136.56
527.355	125.56
527.57	74.56
527.785	87.56
527.999	79.56
528.214	78.56
528.429	85.56
528.644	81.56
528.859	79.56
529.074	101.56
529.289	83.56
529.503	82.56
529.718	65.56
529.933	90.56
530.148	103.56
530.363	92.56
530.577	77.56
530.792	84.56
531.007	74.56
531.221	81.56
531.436	84.56
531.651	83.56
531.865	80.56
532.08	88.56
532.295	75.56
532.509	91.56
532.724	90.56
532.938	91.56
533.153	75.56
533.367	76.56
533.582	73.56
533.796	81.56
534.011	80.56
534.225	90.56
534.44	97.56
534.654	106.56
534.868	87.56
535.083	116.56
535.297	88.56
535.511	75.56
535.726	88.56
535.94	86.56
536.154	89.56
536.369	88.56
536.583	93.56
536.797	83.56
537.011	66.56
537.225	98.56
537.44	79.56
537.654	82.56
537.868	90.56
538.082	87.56
538.296	71.56
538.51	84.56
538.724	87.56
538.938	89.56
539.153	83.56
539.367	99.56
539.581	90.56
539.795	74.56
540.009	79.56
540.222	78.56
540.436	76.56
540.65	69.56
540.864	90.56
541.078	77.56
541.292	79.56
541.506	90.56
541.72	85.56
541.934	89.56
542.147	83.56
542.361	77.56
542.575	74.56
542.789	89.56
543.002	82.56
543.216	83.56
543.43	88.56
543.644	85.56
543.857	85.56
544.071	85.56
544.285	94.56
544.498	93.56
544.712	77.56
544.925	89.56
545.139	84.56
545.352	76.56
545.566	88.56
545.779	78.56
545.993	88.56
546.206	82.56
546.42	96.56
546.633	86.56
546.847	83.56
547.06	97.56
547.274	80.56
547.487	88.56
547.7	89.56
547.914	94.56
548.127	102.56
548.34	103.56
548.554	93.56
548.767	106.56
548.98	109.56
549.193	87.56
549.407	86.56
549.62	96.56
549.833	104.56
550.046	104.56
550.259	93.56
550.473	103.56
550.686	99.56
550.899	112.56
551.112	100.56
551.325	104.56
551.538	108.56
551.751	105.56
551.964	107.56
552.177	111.56
552.39	114.56
552.603	104.56
552.816	93.56
553.029	92.56
553.242	109.56
553.455	109.56
553.667	113.56
553.88	104.56
554.093	103.56
554.306	110.56
554.519	118.56
554.732	106.56
554.944	98.56
555.157	106.56
555.37	111.56
555.583	104.56
555.795	98.56
556.008	96.56
556.221	100.56
556.433	104.56
556.646	102.56
556.859	94.56
557.071	94.56
557.284	89.56
557.496	86.56
557.709	84.56
557.921	84.56
558.134	91.56
558.346	109.56
558.559	91.56
558.771	108.56
558.984	147.56
559.196	134.56
559.409	106.56
559.621	138.56
559.833	112.56
560.046	122.56
560.258	112.56
560.47	108.56
560.683	88.56
560.895	85.56
561.107	83.56
561.32	72.56
561.532	77.56
561.744	72.56
561.956	82.56
562.168	88.56
562.381	98.56
562.593	89.56
562.805	89.56
563.017	81.56
563.229	89.56
563.441	82.56
563.653	80.56
563.865	77.56
564.077	87.56
564.289	94.56
564.501	75.56
564.713	87.56
564.925	92.56
565.137	93.56
565.349	92.56
565.561	81.56
565.773	84.56
565.985	83.56
566.197	89.56
566.408	85.56
566.62	81.56
566.832	71.56
567.044	92.56
567.255	82.56
567.467	84.56
567.679	90.56
567.891	85.56
568.102	80.56
568.314	81.56
568.526	95.56
568.737	88.56
568.949	96.56
569.161	75.56
569.372	82.56
569.584	87.56
569.795	86.56
570.007	79.56
570.218	83.56
570.43	73.56
570.641	79.56
570.853	82.56
571.064	97.56
571.276	82.56
571.487	84.56
571.698	78.56
571.91	97.56
572.121	90.56
572.333	90.56
572.544	91.56
572.755	80.56
572.966	81.56
573.178	88.56
573.389	78.56
573.6	93.56
573.811	79.56
574.023	93.56
574.234	68.56
574.445	90.56
574.656	72.56
574.867	84.56
575.078	88.56
575.289	80.56
575.501	77.56
575.712	88.56
575.923	98.56
576.134	69.56
576.345	77.56
576.556	92.56
576.767	86.56
576.978	80.56
577.188	91.56
577.399	91.56
577.61	91.56
577.821	90.56
578.032	73.56
578.243	84.56
578.454	75.56
578.665	83.56
578.875	91.56
579.086	102.56
579.297	91.56
579.508	89.56
579.718	84.56
579.929	85.56
580.14	92.56
580.35	94.56
580.561	101.56
580.772	102.56
580.982	85.56
581.193	89.56
581.403	95.56
581.614	88.56
581.825	83.56
582.035	94.56
582.246	93.56
582.456	89.56
582.667	76.56
582.877	87.56
583.087	90.56
583.298	96.56
583.508	106.56
583.719	100.56
583.929	91.56
584.139	80.56
584.35	87.56
584.56	83.56
584.77	80.56
584.981	100.56
585.191	74.56
585.401	91.56
585.611	74.56
585.821	92.56
586.032	116.56
586.242	78.56
586.452	83.56
586.662	80.56
586.872	71.56
587.082	80.56
587.292	77.56
587.502	93.56
587.713	82.56
587.923	65.56
588.133	72.56
588.343	80.56
588.553	80.56
588.762	86.56
588.972	109.56
589.182	152.56
589.392	118.56
589.602	111.56
589.812	137.56
590.022	89.56
590.232	88.56
590.441	90.56
590.651	86.56
590.861	77.56
591.071	75.56
591.281	73.56
591.49	92.56
591.7	82.56
591.91	88.56
592.119	92.56
592.329	84.56
592.539	63.56
592.748	83.56
592.958	83.56
593.167	97.56
593.377	82.56
593.587	97.56
593.796	82.56
594.006	98.56
594.215	73.56
594.424	89.56
594.634	99.56
594.843	86.56
595.053	83.56
595.262	86.56
595.472	88.56
595.681	79.56
595.89	86.56
596.1	90.56
596.309	89.56
596.518	85.56
596.727	102.56
596.937	93.56
597.146	90.56
597.355	98.56
597.564	84.56
597.774	104.56
597.983	93.56
598.192	74.56
598.401	84.56
598.61	92.56
598.819	93.56
599.028	84.56
599.237	102.56
599.446	101.56
599.655	97.56
599.864	89.56
600.073	93.56
600.282	107.56
600.491	99.56
600.7	114.56
600.909	98.56
601.118	93.56
601.327	102.56
601.536	88.56
601.745	104.56
601.953	97.56
602.162	96.56
602.371	88.56
602.58	96.56
602.789	101.56
602.997	112.56
603.206	89.56
603.415	80.56
603.623	100.56
603.832	97.56
604.041	96.56
604.249	106.56
604.458	89.56
604.666	82.56
604.875	89.56
605.084	102.56
605.292	105.56
605.501	83.56
605.709	106.56
605.918	83.56
606.126	100.56
606.334	86.56
606.543	101.56
606.751	108.56
606.96	109.56
607.168	90.56
607.376	86.56
607.585	102.56
607.793	86.56
608.001	81.56
608.21	90.56
608.418	111.56
608.626	111.56
608.834	109.56
609.043	100.56
609.251	106.56
609.459	101.56
609.667	108.56
609.875	116.56
610.083	105.56
610.291	97.56
610.499	130.56
610.707	117.56
610.916	92.56
611.124	104.56
611.332	91.56
611.54	91.56
611.748	106.56
611.955	85.56
612.163	131.56
612.371	140.56
612.579	123.56
612.787	108.56
612.995	97.56
613.203	112.56
613.411	107.56
613.618	104.56
613.826	101.56
614.034	100.56
614.242	108.56
614.449	104.56
614.657	113.56
614.865	113.56
615.072	105.56
615.28	118.56
615.488	106.56
615.695	106.56
615.903	107.56
616.111	108.56
616.318	161.56
616.526	155.56
616.733	127.56
616.941	120.56
617.148	134.56
617.356	107.56
617.563	116.56
617.771	109.56
617.978	90.56
618.185	93.56
618.393	103.56
618.6	104.56
618.807	81.56
619.015	103.56
619.222	104.56
619.429	107.56
619.637	107.56
619.844	101.56
620.051	105.56
620.258	104.56
620.466	104.56
620.673	99.56
620.88	110.56
621.087	122.56
621.294	120.56
621.501	94.56
621.708	96.56
621.915	96.56
622.122	101.56
622.329	106.56
622.536	105.56
622.743	109.56
622.95	115.56
623.157	106.56
623.364	106.56
623.571	119.56
623.778	122.56
623.985	116.56
624.192	124.56
624.399	131.56
624.606	124.56
624.812	120.56
625.019	115.56
625.226	132.56
625.433	116.56
625.639	108.56
625.846	102.56
626.053	110.56
626.259	110.56
626.466	116.56
626.673	115.56
626.879	109.56
627.086	119.56
627.293	127.56
627.499	107.56
627.706	116.56
627.912	96.56
628.119	83.56
628.325	96.56
628.532	90.56
628.738	87.56
628.945	94.56
629.151	98.56
629.357	86.56
629.564	87.56
629.77	82.56
629.976	88.56
630.183	81.56
630.389	99.56
630.595	85.56
630.802	90.56
631.008	85.56
631.214	79.56
631.42	84.56
631.627	98.56
631.833	86.56
632.039	92.56
632.245	93.56
632.451	62.56
632.657	85.56
632.863	81.56
633.069	88.56
633.275	86.56
633.481	104.56
633.688	77.56
633.893	94.56
634.099	86.56
634.305	90.56
634.511	102.56
634.717	72.56
634.923	82.56
635.129	89.56
635.335	94.56
635.541	99.56
635.747	88.56
635.952	86.56
636.158	92.56
636.364	85.56
636.57	80.56
636.775	90.56
636.981	90.56
637.187	94.56
637.392	76.56
637.598	83.56
637.804	94.56
638.009	89.56
638.215	91.56
638.421	89.56
638.626	92.56
638.832	63.56
639.037	85.56
639.243	67.56
639.448	90.56
639.654	86.56
639.859	81.56
640.065	84.56
640.27	98.56
640.475	83.56
640.681	81.56
640.886	92.56
641.091	76.56
641.297	89.56
641.502	96.56
641.707	69.56
641.913	86.56
642.118	84.56
642.323	89.56
642.528	100.56
642.733	96.56
642.939	100.56
643.144	86.56
643.349	88.56
643.554	79.56
643.759	93.56
643.964	101.56
644.169	116.56
644.374	86.56
644.579	80.56
644.784	76.56
644.989	82.56
645.194	90.56
645.399	88.56
645.604	88.56
645.809	89.56
646.014	83.56
646.219	89.56
646.423	108.56
646.628	102.56
646.833	88.56
647.038	87.56
647.243	93.56
647.447	77.56
647.652	80.56
647.857	66.56
648.062	76.56
648.266	81.56
648.471	68.56
648.676	68.56
648.88	87.56
649.085	73.56
649.289	60.56
649.494	78.56
649.698	98.56
649.903	86.56
650.107	67.56
650.312	88.56
650.516	90.56
650.721	82.56
650.925	89.56
651.13	83.56
651.334	68.56
651.539	84.56
651.743	85.56
651.947	76.56
652.152	81.56
652.356	88.56
652.56	84.56
652.764	83.56
652.969	74.56
653.173	79.56
653.377	79.56
653.581	75.56
653.785	76.56
653.99	83.56
654.194	80.56
654.398	77.56
654.602	62.56
654.806	69.56
655.01	81.56
655.214	79.56
655.418	66.56
655.622	71.56
655.826	72.56
656.03	82.56
656.234	91.56
656.438	72.56
656.642	89.56
656.846	84.56
657.049	89.56
657.253	86.56
657.457	72.56
657.661	72.56
657.865	81.56
658.068	70.56
658.272	83.56
658.476	81.56
658.68	78.56
658.883	70.56
659.087	96.56
659.291	78.56
659.494	80.56
659.698	91.56
659.901	87.56
660.105	86.56
660.309	75.56
660.512	73.56
660.716	87.56
660.919	79.56
661.123	69.56
661.326	66.56
661.53	79.56
661.733	86.56
661.936	98.56
662.14	70.56
662.343	73.56
662.546	75.56
662.75	86.56
662.953	64.56
663.156	74.56
663.36	90.56
663.563	74.56
663.766	80.56
663.969	68.56
664.173	77.56
664.376	87.56
664.579	68.56
664.782	61.56
664.985	80.56
665.188	82.56
665.391	81.56
665.594	92.56
665.797	77.56
666	85.56
666.203	82.56
666.406	93.56
666.609	82.56
666.812	86.56
667.015	73.56
667.218	68.56
667.421	82.56
667.624	68.56
667.827	74.56
668.03	73.56
668.232	82.56
668.435	88.56
668.638	75.56
668.841	68.56
669.043	93.56
669.246	73.56
669.449	91.56
669.651	77.56
669.854	100.56
670.057	84.56
670.259	90.56
670.462	81.56
670.665	70.56
670.867	89.56
671.07	75.56
671.272	72.56
671.475	78.56
671.677	81.56
671.88	82.56
672.082	87.56
672.284	80.56
672.487	80.56
672.689	69.56
672.892	66.56
