Data from Circ_2023_H10_HRD10591_00060.txt Node
Date: Wed Jan 03 09:50:43 EST 2024
User: Yrep
Spectrometer: HR+D1059
Trigger mode: 1
Integration Time (sec): 1.000000E-1
Scans to average: 1
Electric dark correction enabled: true
Nonlinearity correction enabled: false
Boxcar width: 0
XAxis mode: Wavelengths
Number of Pixels in Spectrum: 2048
>>>>>Begin Spectral Data<<<<<
223.165	-17.25
223.4	-17.25
223.635	-17.25
223.869	-21.25
224.104	-17.25
224.338	-12.25
224.573	-17.25
224.808	-14.25
225.042	10.75
225.277	0.75
225.511	-0.25
225.746	7.75
225.98	0.75
226.215	13.75
226.449	3.75
226.683	13.75
226.918	21.75
227.152	26.75
227.387	25.75
227.621	43.75
227.856	35.75
228.09	23.75
228.324	44.75
228.559	45.75
228.793	59.75
229.027	62.75
229.262	69.75
229.496	79.75
229.73	106.75
229.964	80.75
230.199	76.75
230.433	78.75
230.667	79.75
230.901	74.75
231.136	75.75
231.37	72.75
231.604	75.75
231.838	81.75
232.072	95.75
232.306	87.75
232.541	76.75
232.775	79.75
233.009	73.75
233.243	85.75
233.477	77.75
233.711	74.75
233.945	81.75
234.179	71.75
234.413	74.75
234.647	83.75
234.881	86.75
235.115	78.75
235.349	82.75
235.583	76.75
235.817	89.75
236.051	78.75
236.285	66.75
236.519	84.75
236.753	92.75
236.987	77.75
237.221	81.75
237.455	90.75
237.689	75.75
237.922	91.75
238.156	73.75
238.39	63.75
238.624	77.75
238.858	81.75
239.091	82.75
239.325	78.75
239.559	86.75
239.793	84.75
240.027	96.75
240.26	66.75
240.494	82.75
240.728	73.75
240.961	83.75
241.195	82.75
241.429	78.75
241.662	67.75
241.896	69.75
242.13	90.75
242.363	93.75
242.597	85.75
242.83	76.75
243.064	80.75
243.298	75.75
243.531	82.75
243.765	88.75
243.998	104.75
244.232	84.75
244.465	92.75
244.699	68.75
244.932	84.75
245.166	80.75
245.399	83.75
245.633	71.75
245.866	67.75
246.099	84.75
246.333	72.75
246.566	71.75
246.8	91.75
247.033	72.75
247.266	72.75
247.5	86.75
247.733	95.75
247.966	78.75
248.2	84.75
248.433	82.75
248.666	67.75
248.899	95.75
249.133	96.75
249.366	123.75
249.599	117.75
249.832	98.75
250.066	83.75
250.299	78.75
250.532	85.75
250.765	71.75
250.998	78.75
251.231	83.75
251.465	78.75
251.698	88.75
251.931	88.75
252.164	80.75
252.397	89.75
252.63	76.75
252.863	73.75
253.096	78.75
253.329	87.75
253.562	82.75
253.795	71.75
254.028	87.75
254.261	84.75
254.494	92.75
254.727	79.75
254.96	78.75
255.193	84.75
255.426	86.75
255.659	88.75
255.892	101.75
256.124	97.75
256.357	86.75
256.59	93.75
256.823	88.75
257.056	80.75
257.289	83.75
257.521	82.75
257.754	99.75
257.987	97.75
258.22	96.75
258.452	94.75
258.685	94.75
258.918	84.75
259.151	79.75
259.383	74.75
259.616	63.75
259.849	87.75
260.081	97.75
260.314	90.75
260.547	80.75
260.779	107.75
261.012	100.75
261.244	107.75
261.477	91.75
261.71	109.75
261.942	136.75
262.175	141.75
262.407	96.75
262.64	82.75
262.872	87.75
263.105	73.75
263.337	93.75
263.57	88.75
263.802	84.75
264.035	72.75
264.267	77.75
264.499	79.75
264.732	70.75
264.964	86.75
265.197	84.75
265.429	91.75
265.661	79.75
265.894	87.75
266.126	69.75
266.358	89.75
266.591	94.75
266.823	94.75
267.055	85.75
267.287	83.75
267.52	77.75
267.752	72.75
267.984	88.75
268.216	84.75
268.448	93.75
268.681	88.75
268.913	73.75
269.145	87.75
269.377	80.75
269.609	94.75
269.841	91.75
270.073	72.75
270.306	83.75
270.538	69.75
270.77	84.75
271.002	84.75
271.234	88.75
271.466	85.75
271.698	86.75
271.93	84.75
272.162	103.75
272.394	103.75
272.626	103.75
272.858	84.75
273.09	84.75
273.322	69.75
273.553	80.75
273.785	91.75
274.017	83.75
274.249	88.75
274.481	87.75
274.713	84.75
274.945	95.75
275.176	90.75
275.408	100.75
275.64	119.75
275.872	134.75
276.104	114.75
276.335	103.75
276.567	116.75
276.799	151.75
277.031	191.75
277.262	216.75
277.494	169.75
277.726	113.75
277.957	90.75
278.189	88.75
278.421	83.75
278.652	87.75
278.884	93.75
279.115	88.75
279.347	85.75
279.579	103.75
279.81	137.75
280.042	219.75
280.273	298.75
280.505	215.75
280.736	111.75
280.968	91.75
281.199	100.75
281.431	96.75
281.662	78.75
281.894	93.75
282.125	96.75
282.356	127.75
282.588	179.75
282.819	123.75
283.051	86.75
283.282	92.75
283.513	78.75
283.745	80.75
283.976	97.75
284.207	88.75
284.439	92.75
284.67	88.75
284.901	99.75
285.132	84.75
285.364	71.75
285.595	91.75
285.826	92.75
286.057	95.75
286.288	83.75
286.52	100.75
286.751	96.75
286.982	91.75
287.213	85.75
287.444	89.75
287.675	98.75
287.906	86.75
288.138	91.75
288.369	88.75
288.6	95.75
288.831	88.75
289.062	91.75
289.293	97.75
289.524	88.75
289.755	95.75
289.986	82.75
290.217	87.75
290.448	83.75
290.679	90.75
290.91	83.75
291.141	82.75
291.371	97.75
291.602	83.75
291.833	91.75
292.064	91.75
292.295	79.75
292.526	89.75
292.757	83.75
292.987	83.75
293.218	85.75
293.449	94.75
293.68	87.75
293.91	87.75
294.141	94.75
294.372	94.75
294.603	89.75
294.833	72.75
295.064	100.75
295.295	98.75
295.525	99.75
295.756	88.75
295.987	129.75
296.217	167.75
296.448	137.75
296.679	111.75
296.909	92.75
297.14	83.75
297.37	96.75
297.601	76.75
297.831	81.75
298.062	80.75
298.292	100.75
298.523	63.75
298.753	84.75
298.984	99.75
299.214	91.75
299.445	98.75
299.675	110.75
299.905	98.75
300.136	98.75
300.366	82.75
300.597	101.75
300.827	89.75
301.057	97.75
301.288	115.75
301.518	105.75
301.748	115.75
301.979	114.75
302.209	95.75
302.439	91.75
302.669	101.75
302.9	85.75
303.13	85.75
303.36	126.75
303.59	144.75
303.82	140.75
304.051	108.75
304.281	102.75
304.511	74.75
304.741	94.75
304.971	94.75
305.201	90.75
305.431	96.75
305.661	97.75
305.891	104.75
306.121	99.75
306.352	101.75
306.582	112.75
306.812	102.75
307.042	123.75
307.272	176.75
307.502	188.75
307.731	166.75
307.961	129.75
308.191	109.75
308.421	82.75
308.651	95.75
308.881	98.75
309.111	87.75
309.341	106.75
309.571	114.75
309.8	97.75
310.03	100.75
310.26	109.75
310.49	86.75
310.72	104.75
310.949	113.75
311.179	113.75
311.409	88.75
311.639	108.75
311.868	123.75
312.098	109.75
312.328	96.75
312.557	102.75
312.787	123.75
313.017	97.75
313.246	102.75
313.476	104.75
313.706	95.75
313.935	88.75
314.165	122.75
314.394	107.75
314.624	94.75
314.853	101.75
315.083	109.75
315.312	100.75
315.542	88.75
315.771	97.75
316.001	95.75
316.23	96.75
316.46	106.75
316.689	90.75
316.919	103.75
317.148	110.75
317.377	111.75
317.607	101.75
317.836	98.75
318.065	95.75
318.295	80.75
318.524	101.75
318.753	89.75
318.983	94.75
319.212	106.75
319.441	112.75
319.67	104.75
319.9	96.75
320.129	87.75
320.358	93.75
320.587	99.75
320.816	110.75
321.046	102.75
321.275	102.75
321.504	104.75
321.733	91.75
321.962	93.75
322.191	103.75
322.42	119.75
322.649	115.75
322.878	141.75
323.108	140.75
323.337	140.75
323.566	156.75
323.795	182.75
324.024	246.75
324.253	468.75
324.482	1027.75
324.71	2083.75
324.939	2855.75
325.168	1054.75
325.397	313.75
325.626	176.75
325.855	152.75
326.084	140.75
326.313	143.75
326.542	177.75
326.77	290.75
326.999	559.75
327.228	1108.75
327.457	2113.75
327.686	1697.75
327.914	608.75
328.143	598.75
328.372	795.75
328.6	454.75
328.829	221.75
329.058	196.75
329.287	216.75
329.515	199.75
329.744	278.75
329.972	558.75
330.201	1174.75
330.43	1777.75
330.658	777.75
330.887	334.75
331.115	225.75
331.344	138.75
331.572	132.75
331.801	121.75
332.03	119.75
332.258	109.75
332.486	124.75
332.715	115.75
332.943	131.75
333.172	134.75
333.4	135.75
333.629	165.75
333.857	246.75
334.085	486.75
334.314	1086.75
334.542	2149.75
334.771	2077.75
334.999	516.75
335.227	195.75
335.455	135.75
335.684	113.75
335.912	96.75
336.14	114.75
336.369	113.75
336.597	127.75
336.825	123.75
337.053	101.75
337.281	107.75
337.51	95.75
337.738	87.75
337.966	95.75
338.194	108.75
338.422	113.75
338.65	88.75
338.878	102.75
339.106	86.75
339.334	108.75
339.562	91.75
339.79	96.75
340.018	86.75
340.246	107.75
340.474	109.75
340.702	107.75
340.93	92.75
341.158	87.75
341.386	121.75
341.614	112.75
341.842	102.75
342.07	97.75
342.298	97.75
342.526	95.75
342.754	94.75
342.981	81.75
343.209	90.75
343.437	104.75
343.665	82.75
343.893	91.75
344.12	92.75
344.348	88.75
344.576	93.75
344.804	103.75
345.031	101.75
345.259	115.75
345.487	100.75
345.714	89.75
345.942	96.75
346.17	88.75
346.397	113.75
346.625	96.75
346.853	96.75
347.08	88.75
347.308	94.75
347.535	108.75
347.763	109.75
347.99	101.75
348.218	111.75
348.445	127.75
348.673	126.75
348.9	103.75
349.128	98.75
349.355	82.75
349.583	97.75
349.81	96.75
350.037	105.75
350.265	89.75
350.492	107.75
350.72	99.75
350.947	99.75
351.174	113.75
351.402	118.75
351.629	92.75
351.856	98.75
352.083	107.75
352.311	107.75
352.538	121.75
352.765	127.75
352.992	127.75
353.22	137.75
353.447	93.75
353.674	93.75
353.901	98.75
354.128	97.75
354.355	95.75
354.583	98.75
354.81	94.75
355.037	92.75
355.264	83.75
355.491	88.75
355.718	87.75
355.945	95.75
356.172	92.75
356.399	80.75
356.626	89.75
356.853	93.75
357.08	98.75
357.307	108.75
357.534	88.75
357.761	85.75
357.988	107.75
358.215	84.75
358.441	87.75
358.668	81.75
358.895	86.75
359.122	81.75
359.349	96.75
359.576	78.75
359.802	120.75
360.029	143.75
360.256	136.75
360.483	111.75
360.709	99.75
360.936	96.75
361.163	98.75
361.39	98.75
361.616	104.75
361.843	95.75
362.07	112.75
362.296	112.75
362.523	100.75
362.749	101.75
362.976	95.75
363.203	89.75
363.429	80.75
363.656	91.75
363.882	81.75
364.109	96.75
364.335	104.75
364.562	101.75
364.788	83.75
365.015	82.75
365.241	108.75
365.468	117.75
365.694	110.75
365.92	102.75
366.147	96.75
366.373	86.75
366.599	104.75
366.826	98.75
367.052	105.75
367.278	102.75
367.505	100.75
367.731	99.75
367.957	82.75
368.184	95.75
368.41	97.75
368.636	124.75
368.862	119.75
369.089	128.75
369.315	105.75
369.541	96.75
369.767	97.75
369.993	91.75
370.219	99.75
370.445	83.75
370.672	91.75
370.898	75.75
371.124	91.75
371.35	72.75
371.576	89.75
371.802	75.75
372.028	72.75
372.254	97.75
372.48	86.75
372.706	95.75
372.932	80.75
373.158	97.75
373.384	91.75
373.61	101.75
373.835	89.75
374.061	84.75
374.287	96.75
374.513	88.75
374.739	79.75
374.965	83.75
375.191	81.75
375.416	85.75
375.642	84.75
375.868	96.75
376.094	93.75
376.319	93.75
376.545	90.75
376.771	91.75
376.997	95.75
377.222	83.75
377.448	89.75
377.674	103.75
377.899	81.75
378.125	87.75
378.35	105.75
378.576	85.75
378.802	80.75
379.027	96.75
379.253	97.75
379.478	94.75
379.704	96.75
379.929	89.75
380.155	86.75
380.38	105.75
380.606	100.75
380.831	99.75
381.057	98.75
381.282	85.75
381.507	92.75
381.733	111.75
381.958	90.75
382.184	95.75
382.409	99.75
382.634	99.75
382.86	84.75
383.085	115.75
383.31	101.75
383.535	105.75
383.761	105.75
383.986	84.75
384.211	86.75
384.436	110.75
384.662	91.75
384.887	96.75
385.112	99.75
385.337	95.75
385.562	89.75
385.787	88.75
386.013	115.75
386.238	108.75
386.463	85.75
386.688	99.75
386.913	95.75
387.138	88.75
387.363	86.75
387.588	93.75
387.813	107.75
388.038	100.75
388.263	103.75
388.488	108.75
388.713	88.75
388.938	99.75
389.163	82.75
389.387	99.75
389.612	97.75
389.837	91.75
390.062	88.75
390.287	95.75
390.512	102.75
390.736	79.75
390.961	81.75
391.186	96.75
391.411	84.75
391.636	80.75
391.86	85.75
392.085	80.75
392.31	88.75
392.534	105.75
392.759	86.75
392.984	89.75
393.208	86.75
393.433	97.75
393.658	84.75
393.882	90.75
394.107	97.75
394.331	87.75
394.556	83.75
394.78	88.75
395.005	90.75
395.229	78.75
395.454	74.75
395.678	76.75
395.903	77.75
396.127	85.75
396.352	94.75
396.576	84.75
396.801	83.75
397.025	87.75
397.249	77.75
397.474	93.75
397.698	80.75
397.922	82.75
398.147	90.75
398.371	96.75
398.595	82.75
398.82	80.75
399.044	83.75
399.268	84.75
399.492	77.75
399.717	96.75
399.941	79.75
400.165	102.75
400.389	109.75
400.613	91.75
400.837	94.75
401.062	95.75
401.286	101.75
401.51	100.75
401.734	108.75
401.958	113.75
402.182	145.75
402.406	190.75
402.63	148.75
402.854	108.75
403.078	97.75
403.302	88.75
403.526	99.75
403.75	75.75
403.974	92.75
404.198	97.75
404.422	101.75
404.645	92.75
404.869	104.75
405.093	126.75
405.317	141.75
405.541	156.75
405.765	132.75
405.988	134.75
406.212	222.75
406.436	302.75
406.66	212.75
406.883	113.75
407.107	95.75
407.331	87.75
407.555	133.75
407.778	100.75
408.002	94.75
408.226	106.75
408.449	86.75
408.673	95.75
408.896	108.75
409.12	92.75
409.344	68.75
409.567	72.75
409.791	101.75
410.014	84.75
410.238	95.75
410.461	90.75
410.685	113.75
410.908	101.75
411.132	107.75
411.355	115.75
411.578	109.75
411.802	82.75
412.025	94.75
412.249	119.75
412.472	127.75
412.695	159.75
412.919	123.75
413.142	101.75
413.365	82.75
413.589	94.75
413.812	103.75
414.035	97.75
414.258	100.75
414.482	91.75
414.705	93.75
414.928	90.75
415.151	86.75
415.374	84.75
415.597	93.75
415.821	85.75
416.044	87.75
416.267	94.75
416.49	92.75
416.713	89.75
416.936	94.75
417.159	101.75
417.382	110.75
417.605	95.75
417.828	125.75
418.051	102.75
418.274	85.75
418.497	92.75
418.72	92.75
418.943	92.75
419.166	92.75
419.389	92.75
419.611	99.75
419.834	110.75
420.057	97.75
420.28	92.75
420.503	103.75
420.726	95.75
420.948	99.75
421.171	104.75
421.394	92.75
421.617	82.75
421.839	86.75
422.062	81.75
422.285	88.75
422.507	103.75
422.73	106.75
422.953	97.75
423.175	96.75
423.398	101.75
423.621	92.75
423.843	87.75
424.066	85.75
424.288	67.75
424.511	111.75
424.733	94.75
424.956	111.75
425.178	111.75
425.401	138.75
425.623	119.75
425.846	86.75
426.068	98.75
426.291	92.75
426.513	88.75
426.735	107.75
426.958	94.75
427.18	116.75
427.402	183.75
427.625	265.75
427.847	246.75
428.069	246.75
428.292	148.75
428.514	100.75
428.736	79.75
428.958	83.75
429.181	85.75
429.403	88.75
429.625	101.75
429.847	101.75
430.069	118.75
430.292	107.75
430.514	88.75
430.736	90.75
430.958	93.75
431.18	90.75
431.402	84.75
431.624	82.75
431.846	75.75
432.068	83.75
432.29	103.75
432.512	96.75
432.734	71.75
432.956	87.75
433.178	109.75
433.4	107.75
433.622	95.75
433.844	99.75
434.066	88.75
434.287	100.75
434.509	81.75
434.731	92.75
434.953	78.75
435.175	87.75
435.397	90.75
435.618	97.75
435.84	108.75
436.062	143.75
436.284	148.75
436.505	107.75
436.727	103.75
436.949	91.75
437.17	102.75
437.392	83.75
437.614	109.75
437.835	119.75
438.057	139.75
438.278	132.75
438.5	133.75
438.721	142.75
438.943	120.75
439.165	94.75
439.386	81.75
439.608	109.75
439.829	125.75
440.05	161.75
440.272	187.75
440.493	117.75
440.715	92.75
440.936	90.75
441.158	85.75
441.379	78.75
441.6	96.75
441.822	107.75
442.043	101.75
442.264	116.75
442.486	109.75
442.707	111.75
442.928	125.75
443.149	172.75
443.371	184.75
443.592	123.75
443.813	141.75
444.034	132.75
444.255	97.75
444.476	107.75
444.698	103.75
444.919	70.75
445.14	149.75
445.361	124.75
445.582	132.75
445.803	188.75
446.024	195.75
446.245	193.75
446.466	134.75
446.687	86.75
446.908	80.75
447.129	95.75
447.35	107.75
447.571	99.75
447.792	102.75
448.013	104.75
448.234	124.75
448.455	97.75
448.675	135.75
448.896	135.75
449.117	120.75
449.338	124.75
449.559	136.75
449.779	164.75
450	99.75
450.221	78.75
450.442	85.75
450.662	97.75
450.883	118.75
451.104	126.75
451.324	94.75
451.545	73.75
451.766	96.75
451.986	93.75
452.207	95.75
452.428	88.75
452.648	99.75
452.869	125.75
453.089	135.75
453.31	150.75
453.53	102.75
453.751	105.75
453.971	114.75
454.192	125.75
454.412	97.75
454.633	77.75
454.853	85.75
455.073	93.75
455.294	102.75
455.514	116.75
455.734	102.75
455.955	90.75
456.175	80.75
456.395	93.75
456.616	78.75
456.836	93.75
457.056	83.75
457.276	83.75
457.497	95.75
457.717	90.75
457.937	86.75
458.157	99.75
458.377	88.75
458.598	119.75
458.818	213.75
459.038	227.75
459.258	159.75
459.478	115.75
459.698	84.75
459.918	91.75
460.138	91.75
460.358	86.75
460.578	76.75
460.798	83.75
461.018	96.75
461.238	88.75
461.458	83.75
461.678	85.75
461.898	86.75
462.118	87.75
462.338	85.75
462.558	93.75
462.777	81.75
462.997	86.75
463.217	100.75
463.437	102.75
463.657	91.75
463.876	93.75
464.096	95.75
464.316	94.75
464.536	100.75
464.755	96.75
464.975	121.75
465.195	224.75
465.414	231.75
465.634	129.75
465.854	93.75
466.073	85.75
466.293	80.75
466.512	77.75
466.732	106.75
466.951	91.75
467.171	107.75
467.391	108.75
467.61	156.75
467.829	237.75
468.049	661.75
468.268	1020.75
468.488	252.75
468.707	112.75
468.927	111.75
469.146	81.75
469.365	91.75
469.585	92.75
469.804	109.75
470.023	107.75
470.243	109.75
470.462	112.75
470.681	146.75
470.901	114.75
471.12	104.75
471.339	108.75
471.558	123.75
471.777	136.75
471.997	338.75
472.216	1283.75
472.435	3011.75
472.654	721.75
472.873	191.75
473.092	121.75
473.311	102.75
473.53	106.75
473.749	94.75
473.968	103.75
474.187	127.75
474.406	103.75
474.625	92.75
474.844	96.75
475.063	98.75
475.282	85.75
475.501	92.75
475.72	96.75
475.939	74.75
476.158	90.75
476.377	109.75
476.596	88.75
476.814	109.75
477.033	94.75
477.252	88.75
477.471	93.75
477.69	104.75
477.908	101.75
478.127	90.75
478.346	91.75
478.564	111.75
478.783	100.75
479.002	115.75
479.22	111.75
479.439	143.75
479.658	134.75
479.876	117.75
480.095	123.75
480.313	140.75
480.532	158.75
480.751	293.75
480.969	1101.75
481.188	4912.75
481.406	3064.75
481.624	432.75
481.843	139.75
482.061	123.75
482.28	98.75
482.498	114.75
482.717	88.75
482.935	97.75
483.153	97.75
483.372	79.75
483.59	81.75
483.808	113.75
484.027	94.75
484.245	110.75
484.463	100.75
484.681	85.75
484.9	86.75
485.118	93.75
485.336	88.75
485.554	101.75
485.772	103.75
485.99	110.75
486.209	101.75
486.427	109.75
486.645	123.75
486.863	139.75
487.081	116.75
487.299	110.75
487.517	102.75
487.735	99.75
487.953	97.75
488.171	88.75
488.389	96.75
488.607	95.75
488.825	90.75
489.043	97.75
489.261	103.75
489.479	99.75
489.696	87.75
489.914	77.75
490.132	96.75
490.35	97.75
490.568	90.75
490.786	101.75
491.003	91.75
491.221	115.75
491.439	106.75
491.657	88.75
491.874	72.75
492.092	79.75
492.31	104.75
492.527	93.75
492.745	101.75
492.963	99.75
493.18	98.75
493.398	88.75
493.615	107.75
493.833	97.75
494.05	83.75
494.268	95.75
494.485	81.75
494.703	96.75
494.92	94.75
495.138	84.75
495.355	88.75
495.573	97.75
495.79	102.75
496.008	92.75
496.225	88.75
496.442	85.75
496.66	83.75
496.877	94.75
497.094	101.75
497.312	100.75
497.529	95.75
497.746	87.75
497.963	101.75
498.181	102.75
498.398	110.75
498.615	123.75
498.832	115.75
499.049	97.75
499.267	84.75
499.484	84.75
499.701	80.75
499.918	89.75
500.135	85.75
500.352	92.75
500.569	105.75
500.786	107.75
501.003	85.75
501.22	92.75
501.437	111.75
501.654	106.75
501.871	117.75
502.088	94.75
502.305	104.75
502.522	96.75
502.739	104.75
502.956	92.75
503.172	101.75
503.389	109.75
503.606	123.75
503.823	110.75
504.04	96.75
504.256	82.75
504.473	95.75
504.69	91.75
504.907	83.75
505.123	85.75
505.34	91.75
505.557	83.75
505.773	96.75
505.99	91.75
506.207	104.75
506.423	104.75
506.64	101.75
506.856	73.75
507.073	92.75
507.289	100.75
507.506	98.75
507.722	123.75
507.939	130.75
508.155	109.75
508.372	108.75
508.588	88.75
508.805	103.75
509.021	116.75
509.238	106.75
509.454	103.75
509.67	111.75
509.887	123.75
510.103	134.75
510.319	223.75
510.536	947.75
510.752	3297.75
510.968	924.75
511.184	197.75
511.401	127.75
511.617	118.75
511.833	113.75
512.049	104.75
512.265	98.75
512.481	91.75
512.698	100.75
512.914	104.75
513.13	101.75
513.346	104.75
513.562	99.75
513.778	94.75
513.994	110.75
514.21	120.75
514.426	137.75
514.642	187.75
514.858	151.75
515.074	229.75
515.29	723.75
515.506	2592.75
515.721	949.75
515.937	224.75
516.153	137.75
516.369	111.75
516.585	89.75
516.801	120.75
517.016	91.75
517.232	101.75
517.448	81.75
517.664	81.75
517.879	87.75
518.095	100.75
518.311	106.75
518.527	115.75
518.742	93.75
518.958	91.75
519.173	103.75
519.389	89.75
519.605	97.75
519.82	95.75
520.036	103.75
520.251	155.75
520.467	137.75
520.682	115.75
520.898	133.75
521.113	130.75
521.329	180.75
521.544	302.75
521.76	916.75
521.975	4279.75
522.19	2655.75
522.406	531.75
522.621	165.75
522.836	121.75
523.052	112.75
523.267	87.75
523.482	92.75
523.698	115.75
523.913	127.75
524.128	114.75
524.343	102.75
524.559	101.75
524.774	82.75
524.989	105.75
525.204	145.75
525.419	125.75
525.634	87.75
525.849	86.75
526.064	92.75
526.28	81.75
526.495	94.75
526.71	86.75
526.925	85.75
527.14	89.75
527.355	78.75
527.57	102.75
527.785	103.75
527.999	97.75
528.214	91.75
528.429	99.75
528.644	96.75
528.859	91.75
529.074	93.75
529.289	151.75
529.503	281.75
529.718	124.75
529.933	94.75
530.148	95.75
530.363	92.75
530.577	97.75
530.792	76.75
531.007	97.75
531.221	85.75
531.436	97.75
531.651	86.75
531.865	99.75
532.08	93.75
532.295	75.75
532.509	88.75
532.724	104.75
532.938	91.75
533.153	84.75
533.367	88.75
533.582	101.75
533.796	104.75
534.011	91.75
534.225	94.75
534.44	85.75
534.654	91.75
534.868	95.75
535.083	98.75
535.297	96.75
535.511	115.75
535.726	114.75
535.94	108.75
536.154	108.75
536.369	98.75
536.583	83.75
536.797	91.75
537.011	96.75
537.225	84.75
537.44	95.75
537.654	95.75
537.868	77.75
538.082	100.75
538.296	92.75
538.51	81.75
538.724	78.75
538.938	94.75
539.153	108.75
539.367	121.75
539.581	103.75
539.795	85.75
540.009	78.75
540.222	83.75
540.436	87.75
540.65	92.75
540.864	92.75
541.078	118.75
541.292	94.75
541.506	87.75
541.72	88.75
541.934	91.75
542.147	92.75
542.361	91.75
542.575	82.75
542.789	96.75
543.002	87.75
543.216	100.75
543.43	110.75
543.644	93.75
543.857	102.75
544.071	99.75
544.285	108.75
544.498	84.75
544.712	92.75
544.925	101.75
545.139	90.75
545.352	81.75
545.566	100.75
545.779	89.75
545.993	103.75
546.206	97.75
546.42	78.75
546.633	98.75
546.847	83.75
547.06	71.75
547.274	96.75
547.487	92.75
547.7	87.75
547.914	87.75
548.127	94.75
548.34	88.75
548.554	82.75
548.767	80.75
548.98	94.75
549.193	83.75
549.407	88.75
549.62	79.75
549.833	83.75
550.046	91.75
550.259	93.75
550.473	100.75
550.686	81.75
550.899	79.75
551.112	91.75
551.325	95.75
551.538	104.75
551.751	86.75
551.964	88.75
552.177	119.75
552.39	96.75
552.603	99.75
552.816	87.75
553.029	95.75
553.242	102.75
553.455	103.75
553.667	121.75
553.88	117.75
554.093	98.75
554.306	98.75
554.519	130.75
554.732	97.75
554.944	98.75
555.157	84.75
555.37	94.75
555.583	98.75
555.795	86.75
556.008	84.75
556.221	103.75
556.433	87.75
556.646	88.75
556.859	84.75
557.071	90.75
557.284	82.75
557.496	92.75
557.709	90.75
557.921	95.75
558.134	88.75
558.346	107.75
558.559	90.75
558.771	86.75
558.984	102.75
559.196	97.75
559.409	79.75
559.621	79.75
559.833	81.75
560.046	104.75
560.258	121.75
560.47	131.75
560.683	113.75
560.895	91.75
561.107	88.75
561.32	98.75
561.532	88.75
561.744	87.75
561.956	79.75
562.168	94.75
562.381	89.75
562.593	92.75
562.805	99.75
563.017	109.75
563.229	83.75
563.441	88.75
563.653	97.75
563.865	86.75
564.077	91.75
564.289	84.75
564.501	101.75
564.713	99.75
564.925	104.75
565.137	113.75
565.349	100.75
565.561	96.75
565.773	91.75
565.985	96.75
566.197	89.75
566.408	81.75
566.62	98.75
566.832	86.75
567.044	86.75
567.255	84.75
567.467	85.75
567.679	73.75
567.891	76.75
568.102	83.75
568.314	96.75
568.526	95.75
568.737	84.75
568.949	83.75
569.161	85.75
569.372	87.75
569.584	79.75
569.795	105.75
570.007	128.75
570.218	313.75
570.43	159.75
570.641	88.75
570.853	86.75
571.064	96.75
571.276	93.75
571.487	96.75
571.698	73.75
571.91	94.75
572.121	87.75
572.333	80.75
572.544	94.75
572.755	93.75
572.966	79.75
573.178	97.75
573.389	108.75
573.6	104.75
573.811	87.75
574.023	66.75
574.234	79.75
574.445	87.75
574.656	87.75
574.867	96.75
575.078	90.75
575.289	91.75
575.501	89.75
575.712	95.75
575.923	91.75
576.134	81.75
576.345	87.75
576.556	93.75
576.767	98.75
576.978	97.75
577.188	85.75
577.399	100.75
577.61	99.75
577.821	95.75
578.032	112.75
578.243	333.75
578.454	1001.75
578.665	269.75
578.875	109.75
579.086	94.75
579.297	82.75
579.508	84.75
579.718	87.75
579.929	88.75
580.14	99.75
580.35	96.75
580.561	81.75
580.772	87.75
580.982	86.75
581.193	91.75
581.403	81.75
581.614	78.75
581.825	87.75
582.035	83.75
582.246	84.75
582.456	68.75
582.667	86.75
582.877	82.75
583.087	80.75
583.298	87.75
583.508	72.75
583.719	80.75
583.929	88.75
584.139	91.75
584.35	87.75
584.56	86.75
584.77	86.75
584.981	91.75
585.191	74.75
585.401	81.75
585.611	80.75
585.821	81.75
586.032	80.75
586.242	94.75
586.452	90.75
586.662	82.75
586.872	94.75
587.082	80.75
587.292	80.75
587.502	83.75
587.713	64.75
587.923	70.75
588.133	97.75
588.343	85.75
588.553	61.75
588.762	89.75
588.972	74.75
589.182	98.75
589.392	98.75
589.602	86.75
589.812	90.75
590.022	100.75
590.232	65.75
590.441	95.75
590.651	97.75
590.861	73.75
591.071	80.75
591.281	83.75
591.49	86.75
591.7	99.75
591.91	81.75
592.119	82.75
592.329	103.75
592.539	93.75
592.748	91.75
592.958	78.75
593.167	96.75
593.377	79.75
593.587	98.75
593.796	89.75
594.006	83.75
594.215	87.75
594.424	87.75
594.634	92.75
594.843	89.75
595.053	83.75
595.262	91.75
595.472	95.75
595.681	89.75
595.89	77.75
596.1	87.75
596.309	84.75
596.518	93.75
596.727	78.75
596.937	87.75
597.146	92.75
597.355	86.75
597.564	88.75
597.774	85.75
597.983	79.75
598.192	73.75
598.401	86.75
598.61	83.75
598.819	84.75
599.028	81.75
599.237	83.75
599.446	93.75
599.655	89.75
599.864	93.75
600.073	99.75
600.282	86.75
600.491	93.75
600.7	95.75
600.909	98.75
601.118	99.75
601.327	90.75
601.536	91.75
601.745	80.75
601.953	82.75
602.162	76.75
602.371	95.75
602.58	94.75
602.789	86.75
602.997	77.75
603.206	91.75
603.415	88.75
603.623	92.75
603.832	98.75
604.041	86.75
604.249	89.75
604.458	90.75
604.666	88.75
604.875	94.75
605.084	77.75
605.292	85.75
605.501	90.75
605.709	87.75
605.918	82.75
606.126	92.75
606.334	87.75
606.543	82.75
606.751	90.75
606.96	88.75
607.168	81.75
607.376	92.75
607.585	100.75
607.793	92.75
608.001	78.75
608.21	92.75
608.418	91.75
608.626	80.75
608.834	83.75
609.043	88.75
609.251	83.75
609.459	75.75
609.667	89.75
609.875	89.75
610.083	83.75
610.291	92.75
610.499	84.75
610.707	55.75
610.916	87.75
611.124	85.75
611.332	90.75
611.54	78.75
611.748	91.75
611.955	87.75
612.163	86.75
612.371	86.75
612.579	87.75
612.787	88.75
612.995	95.75
613.203	78.75
613.411	86.75
613.618	70.75
613.826	96.75
614.034	100.75
614.242	89.75
614.449	90.75
614.657	97.75
614.865	96.75
615.072	80.75
615.28	84.75
615.488	79.75
615.695	88.75
615.903	100.75
616.111	100.75
616.318	95.75
616.526	105.75
616.733	99.75
616.941	99.75
617.148	96.75
617.356	93.75
617.563	78.75
617.771	88.75
617.978	88.75
618.185	74.75
618.393	93.75
618.6	88.75
618.807	97.75
619.015	83.75
619.222	72.75
619.429	80.75
619.637	91.75
619.844	96.75
620.051	80.75
620.258	90.75
620.466	84.75
620.673	76.75
620.88	95.75
621.087	72.75
621.294	85.75
621.501	81.75
621.708	99.75
621.915	91.75
622.122	91.75
622.329	82.75
622.536	83.75
622.743	82.75
622.95	89.75
623.157	83.75
623.364	66.75
623.571	85.75
623.778	98.75
623.985	99.75
624.192	84.75
624.399	79.75
624.606	81.75
624.812	80.75
625.019	68.75
625.226	76.75
625.433	98.75
625.639	81.75
625.846	67.75
626.053	91.75
626.259	86.75
626.466	72.75
626.673	89.75
626.879	87.75
627.086	81.75
627.293	84.75
627.499	72.75
627.706	83.75
627.912	83.75
628.119	95.75
628.325	100.75
628.532	87.75
628.738	81.75
628.945	78.75
629.151	83.75
629.357	75.75
629.564	80.75
629.77	81.75
629.976	85.75
630.183	84.75
630.389	88.75
630.595	95.75
630.802	83.75
631.008	86.75
631.214	85.75
631.42	78.75
631.627	102.75
631.833	83.75
632.039	90.75
632.245	86.75
632.451	99.75
632.657	84.75
632.863	80.75
633.069	79.75
633.275	71.75
633.481	78.75
633.688	89.75
633.893	88.75
634.099	77.75
634.305	80.75
634.511	88.75
634.717	90.75
634.923	99.75
635.129	76.75
635.335	81.75
635.541	70.75
635.747	97.75
635.952	124.75
636.158	150.75
636.364	464.75
636.57	391.75
636.775	145.75
636.981	102.75
637.187	83.75
637.392	77.75
637.598	92.75
637.804	87.75
638.009	74.75
638.215	78.75
638.421	65.75
638.626	80.75
638.832	88.75
639.037	78.75
639.243	77.75
639.448	85.75
639.654	77.75
639.859	84.75
640.065	72.75
640.27	73.75
640.475	82.75
640.681	93.75
640.886	75.75
641.091	86.75
641.297	84.75
641.502	86.75
641.707	88.75
641.913	85.75
642.118	83.75
642.323	92.75
642.528	80.75
642.733	77.75
642.939	88.75
643.144	78.75
643.349	88.75
643.554	85.75
643.759	81.75
643.964	83.75
644.169	78.75
644.374	89.75
644.579	81.75
644.784	86.75
644.989	84.75
645.194	93.75
645.399	71.75
645.604	84.75
645.809	92.75
646.014	86.75
646.219	93.75
646.423	91.75
646.628	92.75
646.833	85.75
647.038	88.75
647.243	84.75
647.447	71.75
647.652	87.75
647.857	80.75
648.062	91.75
648.266	92.75
648.471	89.75
648.676	99.75
648.88	85.75
649.085	81.75
649.289	91.75
649.494	96.75
649.698	135.75
649.903	97.75
650.107	82.75
650.312	97.75
650.516	77.75
650.721	91.75
650.925	92.75
651.13	73.75
651.334	78.75
651.539	86.75
651.743	77.75
651.947	84.75
652.152	84.75
652.356	70.75
652.56	84.75
652.764	78.75
652.969	72.75
653.173	94.75
653.377	85.75
653.581	81.75
653.785	81.75
653.99	78.75
654.194	83.75
654.398	88.75
654.602	86.75
654.806	91.75
655.01	107.75
655.214	84.75
655.418	81.75
655.622	88.75
655.826	71.75
656.03	59.75
656.234	91.75
656.438	97.75
656.642	91.75
656.846	84.75
657.049	73.75
657.253	87.75
657.457	89.75
657.661	75.75
657.865	79.75
658.068	82.75
658.272	82.75
658.476	92.75
658.68	80.75
658.883	79.75
659.087	77.75
659.291	79.75
659.494	88.75
659.698	79.75
659.901	71.75
660.105	86.75
660.309	93.75
660.512	70.75
660.716	82.75
660.919	73.75
661.123	71.75
661.326	73.75
661.53	72.75
661.733	78.75
661.936	68.75
662.14	76.75
662.343	85.75
662.546	79.75
662.75	79.75
662.953	79.75
663.156	73.75
663.36	94.75
663.563	69.75
663.766	79.75
663.969	83.75
664.173	71.75
664.376	91.75
664.579	70.75
664.782	80.75
664.985	68.75
665.188	85.75
665.391	71.75
665.594	84.75
665.797	83.75
666	82.75
666.203	93.75
666.406	89.75
666.609	79.75
666.812	71.75
667.015	81.75
667.218	85.75
667.421	77.75
667.624	81.75
667.827	90.75
668.03	82.75
668.232	57.75
668.435	72.75
668.638	84.75
668.841	78.75
669.043	79.75
669.246	71.75
669.449	80.75
669.651	89.75
669.854	78.75
670.057	79.75
670.259	68.75
670.462	66.75
670.665	78.75
670.867	81.75
671.07	77.75
671.272	84.75
671.475	73.75
671.677	68.75
671.88	85.75
672.082	73.75
672.284	82.75
672.487	65.75
672.689	67.75
672.892	79.75
