Data from Circ_2023_H10_HRD10591_00039.txt Node
Date: Wed Jan 03 09:50:38 EST 2024
User: Yrep
Spectrometer: HR+D1059
Trigger mode: 1
Integration Time (sec): 1.000000E-1
Scans to average: 1
Electric dark correction enabled: true
Nonlinearity correction enabled: false
Boxcar width: 0
XAxis mode: Wavelengths
Number of Pixels in Spectrum: 2048
>>>>>Begin Spectral Data<<<<<
223.165	-2.38
223.4	-2.38
223.635	-2.38
223.869	-26.38
224.104	-26.38
224.338	-20.38
224.573	-9.38
224.808	-20.38
225.042	-5.38
225.277	-3.38
225.511	-4.38
225.746	1.62
225.98	11.62
226.215	11.62
226.449	14.62
226.683	20.62
226.918	29.62
227.152	28.62
227.387	33.62
227.621	42.62
227.856	45.62
228.09	52.62
228.324	50.62
228.559	51.62
228.793	45.62
229.027	66.62
229.262	76.62
229.496	66.62
229.73	92.62
229.964	98.62
230.199	85.62
230.433	92.62
230.667	83.62
230.901	78.62
231.136	80.62
231.37	92.62
231.604	80.62
231.838	89.62
232.072	87.62
232.306	78.62
232.541	76.62
232.775	75.62
233.009	83.62
233.243	64.62
233.477	84.62
233.711	92.62
233.945	77.62
234.179	73.62
234.413	85.62
234.647	84.62
234.881	88.62
235.115	84.62
235.349	93.62
235.583	77.62
235.817	94.62
236.051	74.62
236.285	76.62
236.519	82.62
236.753	80.62
236.987	73.62
237.221	90.62
237.455	88.62
237.689	77.62
237.922	82.62
238.156	86.62
238.39	78.62
238.624	88.62
238.858	94.62
239.091	90.62
239.325	86.62
239.559	85.62
239.793	81.62
240.027	78.62
240.26	78.62
240.494	83.62
240.728	72.62
240.961	86.62
241.195	86.62
241.429	79.62
241.662	85.62
241.896	74.62
242.13	68.62
242.363	82.62
242.597	73.62
242.83	91.62
243.064	76.62
243.298	77.62
243.531	68.62
243.765	76.62
243.998	67.62
244.232	77.62
244.465	100.62
244.699	87.62
244.932	74.62
245.166	83.62
245.399	78.62
245.633	86.62
245.866	84.62
246.099	85.62
246.333	90.62
246.566	72.62
246.8	96.62
247.033	74.62
247.266	86.62
247.5	85.62
247.733	91.62
247.966	77.62
248.2	74.62
248.433	89.62
248.666	79.62
248.899	88.62
249.133	80.62
249.366	94.62
249.599	101.62
249.832	96.62
250.066	94.62
250.299	88.62
250.532	94.62
250.765	72.62
250.998	67.62
251.231	73.62
251.465	93.62
251.698	85.62
251.931	97.62
252.164	77.62
252.397	69.62
252.63	89.62
252.863	91.62
253.096	82.62
253.329	74.62
253.562	73.62
253.795	83.62
254.028	94.62
254.261	83.62
254.494	80.62
254.727	86.62
254.96	84.62
255.193	88.62
255.426	101.62
255.659	83.62
255.892	97.62
256.124	106.62
256.357	106.62
256.59	71.62
256.823	86.62
257.056	96.62
257.289	99.62
257.521	93.62
257.754	86.62
257.987	80.62
258.22	84.62
258.452	103.62
258.685	104.62
258.918	93.62
259.151	88.62
259.383	74.62
259.616	80.62
259.849	90.62
260.081	89.62
260.314	91.62
260.547	90.62
260.779	107.62
261.012	115.62
261.244	107.62
261.477	90.62
261.71	110.62
261.942	132.62
262.175	141.62
262.407	98.62
262.64	92.62
262.872	73.62
263.105	102.62
263.337	87.62
263.57	88.62
263.802	72.62
264.035	85.62
264.267	74.62
264.499	92.62
264.732	92.62
264.964	90.62
265.197	91.62
265.429	89.62
265.661	70.62
265.894	82.62
266.126	89.62
266.358	88.62
266.591	80.62
266.823	85.62
267.055	82.62
267.287	93.62
267.52	89.62
267.752	78.62
267.984	83.62
268.216	88.62
268.448	99.62
268.681	86.62
268.913	93.62
269.145	78.62
269.377	90.62
269.609	103.62
269.841	85.62
270.073	86.62
270.306	107.62
270.538	86.62
270.77	94.62
271.002	94.62
271.234	97.62
271.466	102.62
271.698	88.62
271.93	91.62
272.162	90.62
272.394	75.62
272.626	88.62
272.858	69.62
273.09	92.62
273.322	93.62
273.553	81.62
273.785	81.62
274.017	92.62
274.249	88.62
274.481	91.62
274.713	80.62
274.945	85.62
275.176	88.62
275.408	105.62
275.64	127.62
275.872	127.62
276.104	105.62
276.335	101.62
276.567	113.62
276.799	157.62
277.031	185.62
277.262	201.62
277.494	156.62
277.726	106.62
277.957	106.62
278.189	109.62
278.421	92.62
278.652	99.62
278.884	89.62
279.115	88.62
279.347	104.62
279.579	102.62
279.81	153.62
280.042	194.62
280.273	265.62
280.505	178.62
280.736	108.62
280.968	98.62
281.199	91.62
281.431	90.62
281.662	91.62
281.894	97.62
282.125	99.62
282.356	134.62
282.588	167.62
282.819	125.62
283.051	100.62
283.282	77.62
283.513	83.62
283.745	90.62
283.976	71.62
284.207	81.62
284.439	108.62
284.67	76.62
284.901	84.62
285.132	92.62
285.364	77.62
285.595	91.62
285.826	81.62
286.057	83.62
286.288	107.62
286.52	94.62
286.751	81.62
286.982	101.62
287.213	81.62
287.444	103.62
287.675	92.62
287.906	84.62
288.138	106.62
288.369	88.62
288.6	82.62
288.831	85.62
289.062	97.62
289.293	89.62
289.524	101.62
289.755	85.62
289.986	85.62
290.217	78.62
290.448	78.62
290.679	96.62
290.91	95.62
291.141	97.62
291.371	91.62
291.602	89.62
291.833	85.62
292.064	97.62
292.295	92.62
292.526	88.62
292.757	101.62
292.987	103.62
293.218	89.62
293.449	100.62
293.68	101.62
293.91	102.62
294.141	103.62
294.372	91.62
294.603	105.62
294.833	101.62
295.064	85.62
295.295	99.62
295.525	103.62
295.756	116.62
295.987	150.62
296.217	174.62
296.448	142.62
296.679	110.62
296.909	82.62
297.14	88.62
297.37	86.62
297.601	86.62
297.831	105.62
298.062	99.62
298.292	93.62
298.523	83.62
298.753	78.62
298.984	91.62
299.214	88.62
299.445	80.62
299.675	76.62
299.905	101.62
300.136	103.62
300.366	98.62
300.597	84.62
300.827	93.62
301.057	106.62
301.288	100.62
301.518	96.62
301.748	119.62
301.979	118.62
302.209	100.62
302.439	106.62
302.669	88.62
302.9	78.62
303.13	91.62
303.36	115.62
303.59	124.62
303.82	150.62
304.051	113.62
304.281	107.62
304.511	109.62
304.741	97.62
304.971	84.62
305.201	102.62
305.431	94.62
305.661	87.62
305.891	92.62
306.121	109.62
306.352	108.62
306.582	122.62
306.812	128.62
307.042	122.62
307.272	156.62
307.502	194.62
307.731	161.62
307.961	138.62
308.191	97.62
308.421	97.62
308.651	88.62
308.881	95.62
309.111	108.62
309.341	93.62
309.571	121.62
309.8	101.62
310.03	116.62
310.26	114.62
310.49	117.62
310.72	104.62
310.949	116.62
311.179	114.62
311.409	112.62
311.639	115.62
311.868	110.62
312.098	95.62
312.328	95.62
312.557	112.62
312.787	121.62
313.017	111.62
313.246	101.62
313.476	102.62
313.706	86.62
313.935	98.62
314.165	98.62
314.394	121.62
314.624	105.62
314.853	104.62
315.083	93.62
315.312	116.62
315.542	90.62
315.771	93.62
316.001	102.62
316.23	93.62
316.46	91.62
316.689	97.62
316.919	99.62
317.148	103.62
317.377	107.62
317.607	105.62
317.836	98.62
318.065	96.62
318.295	89.62
318.524	94.62
318.753	85.62
318.983	109.62
319.212	114.62
319.441	118.62
319.67	106.62
319.9	88.62
320.129	101.62
320.358	116.62
320.587	105.62
320.816	110.62
321.046	122.62
321.275	105.62
321.504	104.62
321.733	128.62
321.962	100.62
322.191	110.62
322.42	119.62
322.649	121.62
322.878	126.62
323.108	116.62
323.337	138.62
323.566	154.62
323.795	164.62
324.024	248.62
324.253	508.62
324.482	1043.62
324.71	2140.62
324.939	2816.62
325.168	1055.62
325.397	292.62
325.626	176.62
325.855	142.62
326.084	135.62
326.313	143.62
326.542	186.62
326.77	277.62
326.999	536.62
327.228	1136.62
327.457	2091.62
327.686	1722.62
327.914	588.62
328.143	542.62
328.372	703.62
328.6	410.62
328.829	206.62
329.058	199.62
329.287	221.62
329.515	194.62
329.744	262.62
329.972	500.62
330.201	997.62
330.43	1491.62
330.658	681.62
330.887	298.62
331.115	189.62
331.344	126.62
331.572	121.62
331.801	122.62
332.03	132.62
332.258	123.62
332.486	116.62
332.715	110.62
332.943	108.62
333.172	131.62
333.4	146.62
333.629	166.62
333.857	224.62
334.085	436.62
334.314	905.62
334.542	1836.62
334.771	1792.62
334.999	485.62
335.227	182.62
335.455	132.62
335.684	115.62
335.912	111.62
336.14	117.62
336.369	115.62
336.597	125.62
336.825	110.62
337.053	101.62
337.281	109.62
337.51	87.62
337.738	116.62
337.966	111.62
338.194	125.62
338.422	105.62
338.65	97.62
338.878	90.62
339.106	91.62
339.334	91.62
339.562	96.62
339.79	108.62
340.018	99.62
340.246	106.62
340.474	98.62
340.702	102.62
340.93	86.62
341.158	109.62
341.386	102.62
341.614	96.62
341.842	99.62
342.07	106.62
342.298	105.62
342.526	81.62
342.754	87.62
342.981	87.62
343.209	81.62
343.437	103.62
343.665	93.62
343.893	97.62
344.12	86.62
344.348	78.62
344.576	73.62
344.804	119.62
345.031	96.62
345.259	110.62
345.487	113.62
345.714	104.62
345.942	98.62
346.17	97.62
346.397	102.62
346.625	106.62
346.853	101.62
347.08	99.62
347.308	97.62
347.535	105.62
347.763	121.62
347.99	114.62
348.218	120.62
348.445	123.62
348.673	113.62
348.9	104.62
349.128	113.62
349.355	86.62
349.583	103.62
349.81	96.62
350.037	102.62
350.265	98.62
350.492	107.62
350.72	92.62
350.947	113.62
351.174	109.62
351.402	104.62
351.629	123.62
351.856	104.62
352.083	128.62
352.311	120.62
352.538	121.62
352.765	127.62
352.992	115.62
353.22	129.62
353.447	105.62
353.674	101.62
353.901	104.62
354.128	99.62
354.355	92.62
354.583	113.62
354.81	76.62
355.037	86.62
355.264	111.62
355.491	101.62
355.718	85.62
355.945	83.62
356.172	98.62
356.399	89.62
356.626	105.62
356.853	101.62
357.08	100.62
357.307	83.62
357.534	100.62
357.761	89.62
357.988	90.62
358.215	91.62
358.441	103.62
358.668	86.62
358.895	86.62
359.122	86.62
359.349	101.62
359.576	91.62
359.802	118.62
360.029	140.62
360.256	148.62
360.483	117.62
360.709	89.62
360.936	93.62
361.163	101.62
361.39	112.62
361.616	116.62
361.843	104.62
362.07	100.62
362.296	106.62
362.523	109.62
362.749	91.62
362.976	97.62
363.203	97.62
363.429	101.62
363.656	103.62
363.882	81.62
364.109	108.62
364.335	116.62
364.562	101.62
364.788	94.62
365.015	109.62
365.241	109.62
365.468	121.62
365.694	99.62
365.92	113.62
366.147	86.62
366.373	92.62
366.599	101.62
366.826	90.62
367.052	98.62
367.278	97.62
367.505	95.62
367.731	115.62
367.957	89.62
368.184	105.62
368.41	115.62
368.636	124.62
368.862	136.62
369.089	118.62
369.315	109.62
369.541	112.62
369.767	92.62
369.993	101.62
370.219	102.62
370.445	94.62
370.672	91.62
370.898	88.62
371.124	89.62
371.35	97.62
371.576	96.62
371.802	92.62
372.028	100.62
372.254	96.62
372.48	91.62
372.706	93.62
372.932	95.62
373.158	92.62
373.384	99.62
373.61	97.62
373.835	100.62
374.061	101.62
374.287	98.62
374.513	78.62
374.739	95.62
374.965	82.62
375.191	89.62
375.416	85.62
375.642	83.62
375.868	91.62
376.094	96.62
376.319	88.62
376.545	97.62
376.771	96.62
376.997	90.62
377.222	103.62
377.448	92.62
377.674	87.62
377.899	86.62
378.125	97.62
378.35	94.62
378.576	100.62
378.802	95.62
379.027	76.62
379.253	90.62
379.478	102.62
379.704	98.62
379.929	104.62
380.155	100.62
380.38	92.62
380.606	107.62
380.831	98.62
381.057	104.62
381.282	107.62
381.507	92.62
381.733	106.62
381.958	98.62
382.184	86.62
382.409	104.62
382.634	112.62
382.86	93.62
383.085	97.62
383.31	95.62
383.535	99.62
383.761	87.62
383.986	102.62
384.211	102.62
384.436	81.62
384.662	83.62
384.887	96.62
385.112	102.62
385.337	119.62
385.562	96.62
385.787	102.62
386.013	112.62
386.238	109.62
386.463	116.62
386.688	113.62
386.913	100.62
387.138	118.62
387.363	113.62
387.588	98.62
387.813	104.62
388.038	120.62
388.263	89.62
388.488	79.62
388.713	106.62
388.938	96.62
389.163	116.62
389.387	107.62
389.612	98.62
389.837	93.62
390.062	88.62
390.287	95.62
390.512	87.62
390.736	102.62
390.961	95.62
391.186	103.62
391.411	99.62
391.636	99.62
391.86	82.62
392.085	89.62
392.31	89.62
392.534	99.62
392.759	97.62
392.984	97.62
393.208	88.62
393.433	91.62
393.658	93.62
393.882	96.62
394.107	90.62
394.331	78.62
394.556	105.62
394.78	100.62
395.005	97.62
395.229	76.62
395.454	72.62
395.678	93.62
395.903	76.62
396.127	88.62
396.352	87.62
396.576	81.62
396.801	99.62
397.025	89.62
397.249	88.62
397.474	103.62
397.698	96.62
397.922	109.62
398.147	91.62
398.371	93.62
398.595	96.62
398.82	81.62
399.044	99.62
399.268	74.62
399.492	96.62
399.717	90.62
399.941	88.62
400.165	99.62
400.389	88.62
400.613	93.62
400.837	111.62
401.062	105.62
401.286	98.62
401.51	97.62
401.734	96.62
401.958	113.62
402.182	146.62
402.406	186.62
402.63	146.62
402.854	87.62
403.078	91.62
403.302	98.62
403.526	84.62
403.75	92.62
403.974	99.62
404.198	94.62
404.422	99.62
404.645	96.62
404.869	130.62
405.093	136.62
405.317	152.62
405.541	151.62
405.765	118.62
405.988	140.62
406.212	220.62
406.436	290.62
406.66	203.62
406.883	107.62
407.107	107.62
407.331	108.62
407.555	112.62
407.778	116.62
408.002	101.62
408.226	86.62
408.449	95.62
408.673	91.62
408.896	90.62
409.12	99.62
409.344	102.62
409.567	84.62
409.791	76.62
410.014	106.62
410.238	101.62
410.461	102.62
410.685	106.62
410.908	102.62
411.132	124.62
411.355	101.62
411.578	80.62
411.802	93.62
412.025	98.62
412.249	101.62
412.472	129.62
412.695	147.62
412.919	113.62
413.142	96.62
413.365	88.62
413.589	106.62
413.812	88.62
414.035	91.62
414.258	98.62
414.482	97.62
414.705	88.62
414.928	87.62
415.151	100.62
415.374	103.62
415.597	104.62
415.821	96.62
416.044	93.62
416.267	104.62
416.49	91.62
416.713	98.62
416.936	82.62
417.159	87.62
417.382	105.62
417.605	123.62
417.828	122.62
418.051	100.62
418.274	99.62
418.497	95.62
418.72	93.62
418.943	87.62
419.166	99.62
419.389	107.62
419.611	99.62
419.834	91.62
420.057	92.62
420.28	126.62
420.503	102.62
420.726	105.62
420.948	95.62
421.171	104.62
421.394	106.62
421.617	92.62
421.839	89.62
422.062	90.62
422.285	98.62
422.507	123.62
422.73	122.62
422.953	102.62
423.175	93.62
423.398	98.62
423.621	107.62
423.843	97.62
424.066	104.62
424.288	92.62
424.511	87.62
424.733	110.62
424.956	123.62
425.178	116.62
425.401	93.62
425.623	112.62
425.846	93.62
426.068	97.62
426.291	96.62
426.513	93.62
426.735	93.62
426.958	105.62
427.18	139.62
427.402	192.62
427.625	270.62
427.847	264.62
428.069	246.62
428.292	143.62
428.514	117.62
428.736	103.62
428.958	86.62
429.181	109.62
429.403	97.62
429.625	90.62
429.847	94.62
430.069	119.62
430.292	89.62
430.514	89.62
430.736	88.62
430.958	90.62
431.18	86.62
431.402	88.62
431.624	83.62
431.846	107.62
432.068	102.62
432.29	97.62
432.512	107.62
432.734	91.62
432.956	99.62
433.178	107.62
433.4	105.62
433.622	101.62
433.844	94.62
434.066	97.62
434.287	101.62
434.509	92.62
434.731	97.62
434.953	81.62
435.175	88.62
435.397	92.62
435.618	100.62
435.84	108.62
436.062	136.62
436.284	137.62
436.505	115.62
436.727	114.62
436.949	107.62
437.17	98.62
437.392	96.62
437.614	98.62
437.835	120.62
438.057	140.62
438.278	155.62
438.5	143.62
438.721	155.62
438.943	132.62
439.165	81.62
439.386	100.62
439.608	98.62
439.829	120.62
440.05	170.62
440.272	192.62
440.493	115.62
440.715	73.62
440.936	91.62
441.158	92.62
441.379	96.62
441.6	105.62
441.822	102.62
442.043	119.62
442.264	128.62
442.486	117.62
442.707	91.62
442.928	125.62
443.149	187.62
443.371	180.62
443.592	122.62
443.813	129.62
444.034	142.62
444.255	96.62
444.476	101.62
444.698	92.62
444.919	95.62
445.14	132.62
445.361	137.62
445.582	137.62
445.803	194.62
446.024	194.62
446.245	172.62
446.466	134.62
446.687	109.62
446.908	84.62
447.129	95.62
447.35	105.62
447.571	92.62
447.792	110.62
448.013	105.62
448.234	136.62
448.455	114.62
448.675	147.62
448.896	136.62
449.117	99.62
449.338	118.62
449.559	155.62
449.779	173.62
450	109.62
450.221	89.62
450.442	96.62
450.662	106.62
450.883	126.62
451.104	132.62
451.324	115.62
451.545	99.62
451.766	83.62
451.986	97.62
452.207	93.62
452.428	100.62
452.648	109.62
452.869	112.62
453.089	155.62
453.31	136.62
453.53	105.62
453.751	100.62
453.971	127.62
454.192	146.62
454.412	97.62
454.633	91.62
454.853	97.62
455.073	97.62
455.294	110.62
455.514	117.62
455.734	105.62
455.955	95.62
456.175	90.62
456.395	101.62
456.616	90.62
456.836	82.62
457.056	94.62
457.276	85.62
457.497	88.62
457.717	83.62
457.937	86.62
458.157	91.62
458.377	96.62
458.598	130.62
458.818	208.62
459.038	236.62
459.258	163.62
459.478	100.62
459.698	101.62
459.918	99.62
460.138	103.62
460.358	85.62
460.578	93.62
460.798	88.62
461.018	101.62
461.238	95.62
461.458	98.62
461.678	97.62
461.898	95.62
462.118	82.62
462.338	94.62
462.558	96.62
462.777	107.62
462.997	99.62
463.217	110.62
463.437	96.62
463.657	109.62
463.876	92.62
464.096	89.62
464.316	98.62
464.536	116.62
464.755	116.62
464.975	113.62
465.195	227.62
465.414	228.62
465.634	107.62
465.854	90.62
466.073	97.62
466.293	95.62
466.512	99.62
466.732	92.62
466.951	109.62
467.171	112.62
467.391	124.62
467.61	157.62
467.829	208.62
468.049	537.62
468.268	882.62
468.488	237.62
468.707	138.62
468.927	104.62
469.146	104.62
469.365	91.62
469.585	101.62
469.804	105.62
470.023	121.62
470.243	107.62
470.462	116.62
470.681	145.62
470.901	116.62
471.12	107.62
471.339	122.62
471.558	130.62
471.777	153.62
471.997	282.62
472.216	1047.62
472.435	2548.62
472.654	646.62
472.873	180.62
473.092	107.62
473.311	78.62
473.53	92.62
473.749	96.62
473.968	114.62
474.187	127.62
474.406	119.62
474.625	87.62
474.844	98.62
475.063	98.62
475.282	104.62
475.501	102.62
475.72	95.62
475.939	83.62
476.158	88.62
476.377	87.62
476.596	95.62
476.814	102.62
477.033	104.62
477.252	102.62
477.471	94.62
477.69	98.62
477.908	106.62
478.127	97.62
478.346	105.62
478.564	97.62
478.783	113.62
479.002	119.62
479.22	110.62
479.439	137.62
479.658	130.62
479.876	114.62
480.095	135.62
480.313	131.62
480.532	167.62
480.751	280.62
480.969	968.62
481.188	4233.62
481.406	2657.62
481.624	382.62
481.843	151.62
482.061	110.62
482.28	119.62
482.498	102.62
482.717	110.62
482.935	100.62
483.153	97.62
483.372	95.62
483.59	89.62
483.808	85.62
484.027	100.62
484.245	106.62
484.463	93.62
484.681	106.62
484.9	101.62
485.118	101.62
485.336	105.62
485.554	101.62
485.772	108.62
485.99	106.62
486.209	116.62
486.427	101.62
486.645	117.62
486.863	126.62
487.081	111.62
487.299	93.62
487.517	112.62
487.735	93.62
487.953	83.62
488.171	100.62
488.389	108.62
488.607	103.62
488.825	99.62
489.043	88.62
489.261	93.62
489.479	102.62
489.696	99.62
489.914	93.62
490.132	97.62
490.35	88.62
490.568	91.62
490.786	98.62
491.003	96.62
491.221	100.62
491.439	99.62
491.657	110.62
491.874	111.62
492.092	108.62
492.31	96.62
492.527	101.62
492.745	107.62
492.963	106.62
493.18	94.62
493.398	97.62
493.615	93.62
493.833	106.62
494.05	82.62
494.268	91.62
494.485	95.62
494.703	100.62
494.92	83.62
495.138	104.62
495.355	104.62
495.573	88.62
495.79	93.62
496.008	100.62
496.225	103.62
496.442	88.62
496.66	97.62
496.877	99.62
497.094	93.62
497.312	92.62
497.529	70.62
497.746	86.62
497.963	107.62
498.181	96.62
498.398	100.62
498.615	114.62
498.832	114.62
499.049	97.62
499.267	93.62
499.484	95.62
499.701	98.62
499.918	87.62
500.135	102.62
500.352	107.62
500.569	107.62
500.786	114.62
501.003	98.62
501.22	98.62
501.437	86.62
501.654	91.62
501.871	133.62
502.088	96.62
502.305	101.62
502.522	91.62
502.739	98.62
502.956	84.62
503.172	94.62
503.389	117.62
503.606	119.62
503.823	113.62
504.04	113.62
504.256	104.62
504.473	99.62
504.69	101.62
504.907	100.62
505.123	94.62
505.34	101.62
505.557	90.62
505.773	97.62
505.99	99.62
506.207	92.62
506.423	96.62
506.64	91.62
506.856	91.62
507.073	88.62
507.289	111.62
507.506	109.62
507.722	123.62
507.939	127.62
508.155	98.62
508.372	105.62
508.588	96.62
508.805	112.62
509.021	88.62
509.238	96.62
509.454	107.62
509.67	105.62
509.887	106.62
510.103	156.62
510.319	233.62
510.536	918.62
510.752	3122.62
510.968	908.62
511.184	205.62
511.401	121.62
511.617	121.62
511.833	118.62
512.049	89.62
512.265	91.62
512.481	114.62
512.698	101.62
512.914	96.62
513.13	96.62
513.346	97.62
513.562	101.62
513.778	93.62
513.994	119.62
514.21	133.62
514.426	160.62
514.642	168.62
514.858	159.62
515.074	205.62
515.29	672.62
515.506	2395.62
515.721	881.62
515.937	221.62
516.153	139.62
516.369	113.62
516.585	110.62
516.801	119.62
517.016	103.62
517.232	104.62
517.448	90.62
517.664	94.62
517.879	103.62
518.095	83.62
518.311	105.62
518.527	120.62
518.742	100.62
518.958	103.62
519.173	81.62
519.389	96.62
519.605	92.62
519.82	104.62
520.036	129.62
520.251	136.62
520.467	133.62
520.682	123.62
520.898	104.62
521.113	127.62
521.329	180.62
521.544	278.62
521.76	842.62
521.975	3973.62
522.19	2474.62
522.406	497.62
522.621	170.62
522.836	120.62
523.052	113.62
523.267	102.62
523.482	101.62
523.698	113.62
523.913	123.62
524.128	127.62
524.343	94.62
524.559	93.62
524.774	109.62
524.989	105.62
525.204	123.62
525.419	118.62
525.634	88.62
525.849	97.62
526.064	89.62
526.28	99.62
526.495	110.62
526.71	76.62
526.925	91.62
527.14	104.62
527.355	112.62
527.57	93.62
527.785	106.62
527.999	98.62
528.214	93.62
528.429	91.62
528.644	100.62
528.859	103.62
529.074	115.62
529.289	151.62
529.503	276.62
529.718	128.62
529.933	103.62
530.148	92.62
530.363	97.62
530.577	96.62
530.792	94.62
531.007	108.62
531.221	94.62
531.436	85.62
531.651	91.62
531.865	104.62
532.08	85.62
532.295	93.62
532.509	114.62
532.724	95.62
532.938	96.62
533.153	92.62
533.367	93.62
533.582	103.62
533.796	96.62
534.011	76.62
534.225	86.62
534.44	96.62
534.654	95.62
534.868	94.62
535.083	102.62
535.297	104.62
535.511	115.62
535.726	120.62
535.94	96.62
536.154	103.62
536.369	96.62
536.583	89.62
536.797	98.62
537.011	96.62
537.225	85.62
537.44	97.62
537.654	82.62
537.868	85.62
538.082	110.62
538.296	105.62
538.51	107.62
538.724	90.62
538.938	105.62
539.153	106.62
539.367	118.62
539.581	104.62
539.795	93.62
540.009	95.62
540.222	108.62
540.436	89.62
540.65	91.62
540.864	94.62
541.078	105.62
541.292	104.62
541.506	94.62
541.72	114.62
541.934	84.62
542.147	101.62
542.361	107.62
542.575	85.62
542.789	97.62
543.002	99.62
543.216	99.62
543.43	97.62
543.644	97.62
543.857	97.62
544.071	88.62
544.285	97.62
544.498	93.62
544.712	93.62
544.925	86.62
545.139	100.62
545.352	88.62
545.566	99.62
545.779	93.62
545.993	93.62
546.206	100.62
546.42	93.62
546.633	93.62
546.847	94.62
547.06	78.62
547.274	80.62
547.487	85.62
547.7	94.62
547.914	85.62
548.127	84.62
548.34	97.62
548.554	85.62
548.767	87.62
548.98	103.62
549.193	101.62
549.407	93.62
549.62	95.62
549.833	96.62
550.046	96.62
550.259	100.62
550.473	96.62
550.686	97.62
550.899	91.62
551.112	90.62
551.325	86.62
551.538	107.62
551.751	106.62
551.964	99.62
552.177	86.62
552.39	94.62
552.603	85.62
552.816	105.62
553.029	86.62
553.242	109.62
553.455	107.62
553.667	117.62
553.88	98.62
554.093	109.62
554.306	117.62
554.519	117.62
554.732	104.62
554.944	98.62
555.157	99.62
555.37	116.62
555.583	110.62
555.795	94.62
556.008	92.62
556.221	91.62
556.433	92.62
556.646	100.62
556.859	89.62
557.071	93.62
557.284	98.62
557.496	101.62
557.709	95.62
557.921	94.62
558.134	92.62
558.346	99.62
558.559	93.62
558.771	88.62
558.984	87.62
559.196	100.62
559.409	102.62
559.621	111.62
559.833	92.62
560.046	90.62
560.258	115.62
560.47	139.62
560.683	112.62
560.895	83.62
561.107	89.62
561.32	92.62
561.532	107.62
561.744	89.62
561.956	86.62
562.168	99.62
562.381	94.62
562.593	92.62
562.805	98.62
563.017	86.62
563.229	91.62
563.441	90.62
563.653	109.62
563.865	95.62
564.077	99.62
564.289	83.62
564.501	90.62
564.713	84.62
564.925	105.62
565.137	119.62
565.349	105.62
565.561	72.62
565.773	96.62
565.985	71.62
566.197	98.62
566.408	89.62
566.62	81.62
566.832	76.62
567.044	78.62
567.255	92.62
567.467	77.62
567.679	82.62
567.891	101.62
568.102	92.62
568.314	91.62
568.526	85.62
568.737	90.62
568.949	86.62
569.161	95.62
569.372	99.62
569.584	96.62
569.795	99.62
570.007	128.62
570.218	277.62
570.43	157.62
570.641	110.62
570.853	104.62
571.064	91.62
571.276	92.62
571.487	101.62
571.698	103.62
571.91	95.62
572.121	89.62
572.333	99.62
572.544	93.62
572.755	98.62
572.966	102.62
573.178	88.62
573.389	94.62
573.6	90.62
573.811	88.62
574.023	94.62
574.234	86.62
574.445	90.62
574.656	88.62
574.867	96.62
575.078	108.62
575.289	105.62
575.501	89.62
575.712	84.62
575.923	89.62
576.134	99.62
576.345	83.62
576.556	102.62
576.767	83.62
576.978	97.62
577.188	97.62
577.399	93.62
577.61	98.62
577.821	102.62
578.032	111.62
578.243	300.62
578.454	974.62
578.665	266.62
578.875	114.62
579.086	102.62
579.297	88.62
579.508	86.62
579.718	91.62
579.929	86.62
580.14	100.62
580.35	96.62
580.561	90.62
580.772	89.62
580.982	91.62
581.193	96.62
581.403	92.62
581.614	96.62
581.825	84.62
582.035	91.62
582.246	94.62
582.456	98.62
582.667	95.62
582.877	89.62
583.087	97.62
583.298	80.62
583.508	97.62
583.719	93.62
583.929	92.62
584.139	92.62
584.35	100.62
584.56	85.62
584.77	93.62
584.981	85.62
585.191	92.62
585.401	97.62
585.611	87.62
585.821	105.62
586.032	91.62
586.242	100.62
586.452	83.62
586.662	93.62
586.872	103.62
587.082	91.62
587.292	90.62
587.502	89.62
587.713	90.62
587.923	90.62
588.133	92.62
588.343	93.62
588.553	71.62
588.762	88.62
588.972	84.62
589.182	112.62
589.392	89.62
589.602	84.62
589.812	89.62
590.022	88.62
590.232	96.62
590.441	100.62
590.651	92.62
590.861	86.62
591.071	85.62
591.281	83.62
591.49	90.62
591.7	90.62
591.91	81.62
592.119	86.62
592.329	84.62
592.539	90.62
592.748	90.62
592.958	92.62
593.167	92.62
593.377	94.62
593.587	96.62
593.796	90.62
594.006	92.62
594.215	84.62
594.424	75.62
594.634	81.62
594.843	82.62
595.053	74.62
595.262	97.62
595.472	85.62
595.681	100.62
595.89	98.62
596.1	98.62
596.309	93.62
596.518	94.62
596.727	92.62
596.937	104.62
597.146	104.62
597.355	105.62
597.564	72.62
597.774	89.62
597.983	93.62
598.192	86.62
598.401	100.62
598.61	86.62
598.819	89.62
599.028	91.62
599.237	97.62
599.446	81.62
599.655	89.62
599.864	112.62
600.073	103.62
600.282	79.62
600.491	100.62
600.7	89.62
600.909	87.62
601.118	93.62
601.327	105.62
601.536	98.62
601.745	94.62
601.953	83.62
602.162	89.62
602.371	88.62
602.58	81.62
602.789	83.62
602.997	85.62
603.206	98.62
603.415	104.62
603.623	84.62
603.832	91.62
604.041	91.62
604.249	91.62
604.458	78.62
604.666	76.62
604.875	90.62
605.084	71.62
605.292	86.62
605.501	89.62
605.709	90.62
605.918	96.62
606.126	90.62
606.334	88.62
606.543	94.62
606.751	93.62
606.96	87.62
607.168	85.62
607.376	101.62
607.585	102.62
607.793	98.62
608.001	85.62
608.21	90.62
608.418	81.62
608.626	82.62
608.834	85.62
609.043	104.62
609.251	84.62
609.459	99.62
609.667	88.62
609.875	92.62
610.083	92.62
610.291	82.62
610.499	92.62
610.707	88.62
610.916	95.62
611.124	102.62
611.332	89.62
611.54	85.62
611.748	86.62
611.955	95.62
612.163	77.62
612.371	85.62
612.579	83.62
612.787	91.62
612.995	76.62
613.203	82.62
613.411	83.62
613.618	91.62
613.826	90.62
614.034	86.62
614.242	99.62
614.449	101.62
614.657	87.62
614.865	99.62
615.072	85.62
615.28	94.62
615.488	93.62
615.695	106.62
615.903	99.62
616.111	86.62
616.318	85.62
616.526	100.62
616.733	101.62
616.941	88.62
617.148	90.62
617.356	91.62
617.563	89.62
617.771	105.62
617.978	87.62
618.185	93.62
618.393	87.62
618.6	100.62
618.807	88.62
619.015	83.62
619.222	87.62
619.429	82.62
619.637	85.62
619.844	86.62
620.051	82.62
620.258	75.62
620.466	87.62
620.673	81.62
620.88	84.62
621.087	88.62
621.294	107.62
621.501	83.62
621.708	93.62
621.915	84.62
622.122	83.62
622.329	78.62
622.536	77.62
622.743	81.62
622.95	90.62
623.157	82.62
623.364	85.62
623.571	89.62
623.778	105.62
623.985	95.62
624.192	87.62
624.399	85.62
624.606	82.62
624.812	97.62
625.019	86.62
625.226	83.62
625.433	86.62
625.639	84.62
625.846	81.62
626.053	74.62
626.259	80.62
626.466	91.62
626.673	84.62
626.879	84.62
627.086	93.62
627.293	100.62
627.499	85.62
627.706	93.62
627.912	93.62
628.119	96.62
628.325	86.62
628.532	73.62
628.738	92.62
628.945	72.62
629.151	80.62
629.357	74.62
629.564	81.62
629.77	86.62
629.976	77.62
630.183	100.62
630.389	82.62
630.595	92.62
630.802	70.62
631.008	96.62
631.214	90.62
631.42	79.62
631.627	94.62
631.833	89.62
632.039	88.62
632.245	84.62
632.451	82.62
632.657	89.62
632.863	77.62
633.069	69.62
633.275	85.62
633.481	87.62
633.688	94.62
633.893	93.62
634.099	84.62
634.305	92.62
634.511	88.62
634.717	87.62
634.923	73.62
635.129	104.62
635.335	83.62
635.541	84.62
635.747	93.62
635.952	96.62
636.158	136.62
636.364	404.62
636.57	350.62
636.775	142.62
636.981	89.62
637.187	99.62
637.392	79.62
637.598	86.62
637.804	86.62
638.009	85.62
638.215	72.62
638.421	93.62
638.626	99.62
638.832	77.62
639.037	93.62
639.243	95.62
639.448	85.62
639.654	82.62
639.859	88.62
640.065	81.62
640.27	71.62
640.475	73.62
640.681	89.62
640.886	77.62
641.091	83.62
641.297	86.62
641.502	92.62
641.707	90.62
641.913	91.62
642.118	95.62
642.323	90.62
642.528	75.62
642.733	89.62
642.939	97.62
643.144	94.62
643.349	87.62
643.554	77.62
643.759	86.62
643.964	93.62
644.169	86.62
644.374	93.62
644.579	102.62
644.784	73.62
644.989	85.62
645.194	95.62
645.399	84.62
645.604	97.62
645.809	94.62
646.014	73.62
646.219	81.62
646.423	89.62
646.628	83.62
646.833	81.62
647.038	77.62
647.243	88.62
647.447	77.62
647.652	99.62
647.857	89.62
648.062	86.62
648.266	85.62
648.471	87.62
648.676	94.62
648.88	98.62
649.085	85.62
649.289	95.62
649.494	98.62
649.698	144.62
649.903	92.62
650.107	93.62
650.312	88.62
650.516	89.62
650.721	78.62
650.925	83.62
651.13	76.62
651.334	102.62
651.539	91.62
651.743	82.62
651.947	85.62
652.152	82.62
652.356	82.62
652.56	83.62
652.764	83.62
652.969	90.62
653.173	77.62
653.377	82.62
653.581	66.62
653.785	90.62
653.99	88.62
654.194	84.62
654.398	82.62
654.602	83.62
654.806	89.62
655.01	105.62
655.214	88.62
655.418	94.62
655.622	70.62
655.826	104.62
656.03	108.62
656.234	88.62
656.438	110.62
656.642	89.62
656.846	97.62
657.049	93.62
657.253	90.62
657.457	75.62
657.661	77.62
657.865	72.62
658.068	73.62
658.272	72.62
658.476	71.62
658.68	84.62
658.883	99.62
659.087	75.62
659.291	84.62
659.494	89.62
659.698	81.62
659.901	89.62
660.105	76.62
660.309	96.62
660.512	84.62
660.716	93.62
660.919	94.62
661.123	83.62
661.326	73.62
661.53	97.62
661.733	74.62
661.936	81.62
662.14	80.62
662.343	92.62
662.546	73.62
662.75	92.62
662.953	105.62
663.156	86.62
663.36	82.62
663.563	77.62
663.766	87.62
663.969	95.62
664.173	82.62
664.376	83.62
664.579	89.62
664.782	101.62
664.985	77.62
665.188	71.62
665.391	84.62
665.594	79.62
665.797	82.62
666	84.62
666.203	69.62
666.406	74.62
666.609	85.62
666.812	84.62
667.015	91.62
667.218	65.62
667.421	82.62
667.624	87.62
667.827	81.62
668.03	85.62
668.232	72.62
668.435	85.62
668.638	79.62
668.841	89.62
669.043	97.62
669.246	83.62
669.449	80.62
669.651	76.62
669.854	84.62
670.057	82.62
670.259	90.62
670.462	81.62
670.665	78.62
670.867	99.62
671.07	94.62
671.272	84.62
671.475	82.62
671.677	92.62
671.88	84.62
672.082	91.62
672.284	74.62
672.487	92.62
672.689	93.62
672.892	89.62
