Data from Circ_1997_H10_HRD10591_00085.txt Node
Date: Wed Jan 03 11:29:44 EST 2024
User: Yrep
Spectrometer: HR+D1059
Trigger mode: 1
Integration Time (sec): 1.000000E-1
Scans to average: 1
Electric dark correction enabled: true
Nonlinearity correction enabled: false
Boxcar width: 0
XAxis mode: Wavelengths
Number of Pixels in Spectrum: 2048
>>>>>Begin Spectral Data<<<<<
223.165	-6.06
223.4	-6.06
223.635	-6.06
223.869	-24.06
224.104	-27.06
224.338	-25.06
224.573	-13.06
224.808	-12.06
225.042	-9.06
225.277	-8.06
225.511	1.94
225.746	10.94
225.98	18.94
226.215	1.94
226.449	21.94
226.683	16.94
226.918	13.94
227.152	37.94
227.387	33.94
227.621	40.94
227.856	37.94
228.09	54.94
228.324	47.94
228.559	54.94
228.793	63.94
229.027	66.94
229.262	73.94
229.496	78.94
229.73	98.94
229.964	101.94
230.199	71.94
230.433	78.94
230.667	79.94
230.901	75.94
231.136	79.94
231.37	83.94
231.604	74.94
231.838	79.94
232.072	77.94
232.306	70.94
232.541	69.94
232.775	80.94
233.009	88.94
233.243	79.94
233.477	68.94
233.711	88.94
233.945	79.94
234.179	79.94
234.413	86.94
234.647	77.94
234.881	69.94
235.115	74.94
235.349	66.94
235.583	70.94
235.817	67.94
236.051	82.94
236.285	67.94
236.519	81.94
236.753	85.94
236.987	86.94
237.221	94.94
237.455	80.94
237.689	79.94
237.922	74.94
238.156	71.94
238.39	76.94
238.624	66.94
238.858	79.94
239.091	75.94
239.325	88.94
239.559	93.94
239.793	91.94
240.027	83.94
240.26	87.94
240.494	92.94
240.728	73.94
240.961	73.94
241.195	64.94
241.429	78.94
241.662	87.94
241.896	77.94
242.13	66.94
242.363	73.94
242.597	72.94
242.83	96.94
243.064	76.94
243.298	90.94
243.531	90.94
243.765	70.94
243.998	85.94
244.232	81.94
244.465	95.94
244.699	80.94
244.932	78.94
245.166	85.94
245.399	82.94
245.633	95.94
245.866	82.94
246.099	79.94
246.333	86.94
246.566	72.94
246.8	83.94
247.033	82.94
247.266	87.94
247.5	93.94
247.733	80.94
247.966	76.94
248.2	80.94
248.433	55.94
248.666	89.94
248.899	81.94
249.133	107.94
249.366	98.94
249.599	98.94
249.832	86.94
250.066	84.94
250.299	77.94
250.532	88.94
250.765	79.94
250.998	87.94
251.231	70.94
251.465	74.94
251.698	82.94
251.931	87.94
252.164	71.94
252.397	84.94
252.63	81.94
252.863	80.94
253.096	84.94
253.329	99.94
253.562	87.94
253.795	84.94
254.028	79.94
254.261	81.94
254.494	86.94
254.727	75.94
254.96	76.94
255.193	94.94
255.426	80.94
255.659	77.94
255.892	89.94
256.124	100.94
256.357	97.94
256.59	80.94
256.823	93.94
257.056	88.94
257.289	85.94
257.521	88.94
257.754	82.94
257.987	88.94
258.22	88.94
258.452	89.94
258.685	106.94
258.918	82.94
259.151	84.94
259.383	95.94
259.616	87.94
259.849	88.94
260.081	86.94
260.314	89.94
260.547	102.94
260.779	101.94
261.012	104.94
261.244	109.94
261.477	100.94
261.71	105.94
261.942	119.94
262.175	130.94
262.407	97.94
262.64	88.94
262.872	71.94
263.105	84.94
263.337	85.94
263.57	83.94
263.802	59.94
264.035	71.94
264.267	67.94
264.499	85.94
264.732	83.94
264.964	101.94
265.197	80.94
265.429	82.94
265.661	86.94
265.894	72.94
266.126	75.94
266.358	88.94
266.591	86.94
266.823	82.94
267.055	78.94
267.287	90.94
267.52	82.94
267.752	92.94
267.984	77.94
268.216	85.94
268.448	91.94
268.681	90.94
268.913	92.94
269.145	87.94
269.377	86.94
269.609	81.94
269.841	90.94
270.073	89.94
270.306	90.94
270.538	85.94
270.77	84.94
271.002	90.94
271.234	89.94
271.466	95.94
271.698	92.94
271.93	100.94
272.162	87.94
272.394	93.94
272.626	93.94
272.858	90.94
273.09	86.94
273.322	95.94
273.553	85.94
273.785	88.94
274.017	77.94
274.249	97.94
274.481	102.94
274.713	92.94
274.945	82.94
275.176	92.94
275.408	115.94
275.64	130.94
275.872	131.94
276.104	93.94
276.335	103.94
276.567	106.94
276.799	157.94
277.031	206.94
277.262	208.94
277.494	168.94
277.726	105.94
277.957	98.94
278.189	93.94
278.421	99.94
278.652	89.94
278.884	92.94
279.115	81.94
279.347	79.94
279.579	104.94
279.81	129.94
280.042	219.94
280.273	283.94
280.505	189.94
280.736	115.94
280.968	96.94
281.199	88.94
281.431	85.94
281.662	95.94
281.894	84.94
282.125	94.94
282.356	142.94
282.588	187.94
282.819	139.94
283.051	108.94
283.282	89.94
283.513	95.94
283.745	90.94
283.976	94.94
284.207	83.94
284.439	89.94
284.67	90.94
284.901	99.94
285.132	92.94
285.364	95.94
285.595	86.94
285.826	74.94
286.057	85.94
286.288	82.94
286.52	78.94
286.751	95.94
286.982	83.94
287.213	89.94
287.444	95.94
287.675	86.94
287.906	89.94
288.138	101.94
288.369	97.94
288.6	97.94
288.831	104.94
289.062	83.94
289.293	83.94
289.524	92.94
289.755	89.94
289.986	75.94
290.217	92.94
290.448	78.94
290.679	102.94
290.91	92.94
291.141	89.94
291.371	88.94
291.602	82.94
291.833	95.94
292.064	77.94
292.295	77.94
292.526	89.94
292.757	79.94
292.987	92.94
293.218	83.94
293.449	101.94
293.68	92.94
293.91	102.94
294.141	94.94
294.372	85.94
294.603	86.94
294.833	103.94
295.064	99.94
295.295	89.94
295.525	95.94
295.756	114.94
295.987	122.94
296.217	154.94
296.448	145.94
296.679	96.94
296.909	92.94
297.14	98.94
297.37	104.94
297.601	79.94
297.831	84.94
298.062	113.94
298.292	82.94
298.523	92.94
298.753	95.94
298.984	86.94
299.214	85.94
299.445	99.94
299.675	99.94
299.905	100.94
300.136	99.94
300.366	87.94
300.597	93.94
300.827	89.94
301.057	108.94
301.288	107.94
301.518	113.94
301.748	101.94
301.979	110.94
302.209	105.94
302.439	101.94
302.669	99.94
302.9	91.94
303.13	104.94
303.36	99.94
303.59	125.94
303.82	153.94
304.051	123.94
304.281	96.94
304.511	98.94
304.741	83.94
304.971	86.94
305.201	92.94
305.431	86.94
305.661	106.94
305.891	76.94
306.121	85.94
306.352	118.94
306.582	111.94
306.812	110.94
307.042	126.94
307.272	161.94
307.502	180.94
307.731	175.94
307.961	137.94
308.191	115.94
308.421	102.94
308.651	107.94
308.881	91.94
309.111	102.94
309.341	95.94
309.571	104.94
309.8	111.94
310.03	100.94
310.26	83.94
310.49	94.94
310.72	121.94
310.949	114.94
311.179	111.94
311.409	111.94
311.639	90.94
311.868	114.94
312.098	106.94
312.328	110.94
312.557	108.94
312.787	123.94
313.017	115.94
313.246	106.94
313.476	100.94
313.706	101.94
313.935	88.94
314.165	116.94
314.394	104.94
314.624	98.94
314.853	97.94
315.083	111.94
315.312	115.94
315.542	74.94
315.771	99.94
316.001	93.94
316.23	84.94
316.46	91.94
316.689	87.94
316.919	97.94
317.148	111.94
317.377	103.94
317.607	112.94
317.836	98.94
318.065	88.94
318.295	103.94
318.524	94.94
318.753	88.94
318.983	88.94
319.212	96.94
319.441	108.94
319.67	122.94
319.9	92.94
320.129	90.94
320.358	98.94
320.587	95.94
320.816	110.94
321.046	112.94
321.275	105.94
321.504	93.94
321.733	111.94
321.962	114.94
322.191	118.94
322.42	124.94
322.649	105.94
322.878	124.94
323.108	153.94
323.337	154.94
323.566	167.94
323.795	188.94
324.024	287.94
324.253	592.94
324.482	1341.94
324.71	2997.94
324.939	3994.94
325.168	1374.94
325.397	351.94
325.626	189.94
325.855	177.94
326.084	149.94
326.313	165.94
326.542	202.94
326.77	319.94
326.999	720.94
327.228	1579.94
327.457	3066.94
327.686	2383.94
327.914	728.94
328.143	625.94
328.372	784.94
328.6	425.94
328.829	212.94
329.058	203.94
329.287	207.94
329.515	204.94
329.744	322.94
329.972	594.94
330.201	1249.94
330.43	1791.94
330.658	750.94
330.887	330.94
331.115	199.94
331.344	130.94
331.572	123.94
331.801	129.94
332.03	116.94
332.258	127.94
332.486	111.94
332.715	133.94
332.943	127.94
333.172	123.94
333.4	151.94
333.629	203.94
333.857	257.94
334.085	527.94
334.314	1169.94
334.542	2339.94
334.771	2093.94
334.999	530.94
335.227	189.94
335.455	131.94
335.684	115.94
335.912	110.94
336.14	110.94
336.369	109.94
336.597	105.94
336.825	98.94
337.053	94.94
337.281	105.94
337.51	112.94
337.738	108.94
337.966	90.94
338.194	86.94
338.422	106.94
338.65	99.94
338.878	109.94
339.106	98.94
339.334	89.94
339.562	108.94
339.79	81.94
340.018	97.94
340.246	98.94
340.474	97.94
340.702	102.94
340.93	97.94
341.158	89.94
341.386	90.94
341.614	109.94
341.842	96.94
342.07	92.94
342.298	87.94
342.526	94.94
342.754	89.94
342.981	99.94
343.209	88.94
343.437	98.94
343.665	75.94
343.893	96.94
344.12	87.94
344.348	93.94
344.576	87.94
344.804	79.94
345.031	110.94
345.259	111.94
345.487	106.94
345.714	91.94
345.942	94.94
346.17	100.94
346.397	105.94
346.625	94.94
346.853	96.94
347.08	101.94
347.308	91.94
347.535	111.94
347.763	113.94
347.99	104.94
348.218	108.94
348.445	98.94
348.673	103.94
348.9	100.94
349.128	98.94
349.355	94.94
349.583	94.94
349.81	89.94
350.037	106.94
350.265	95.94
350.492	106.94
350.72	94.94
350.947	126.94
351.174	111.94
351.402	118.94
351.629	104.94
351.856	114.94
352.083	111.94
352.311	100.94
352.538	123.94
352.765	117.94
352.992	112.94
353.22	119.94
353.447	98.94
353.674	108.94
353.901	102.94
354.128	103.94
354.355	93.94
354.583	91.94
354.81	83.94
355.037	101.94
355.264	100.94
355.491	87.94
355.718	85.94
355.945	95.94
356.172	106.94
356.399	91.94
356.626	81.94
356.853	94.94
357.08	86.94
357.307	103.94
357.534	105.94
357.761	96.94
357.988	96.94
358.215	95.94
358.441	90.94
358.668	98.94
358.895	102.94
359.122	96.94
359.349	102.94
359.576	112.94
359.802	120.94
360.029	152.94
360.256	140.94
360.483	129.94
360.709	94.94
360.936	109.94
361.163	118.94
361.39	111.94
361.616	88.94
361.843	95.94
362.07	102.94
362.296	98.94
362.523	99.94
362.749	96.94
362.976	96.94
363.203	82.94
363.429	90.94
363.656	87.94
363.882	84.94
364.109	107.94
364.335	87.94
364.562	94.94
364.788	98.94
365.015	94.94
365.241	110.94
365.468	138.94
365.694	119.94
365.92	102.94
366.147	82.94
366.373	89.94
366.599	97.94
366.826	99.94
367.052	90.94
367.278	94.94
367.505	93.94
367.731	102.94
367.957	95.94
368.184	85.94
368.41	94.94
368.636	104.94
368.862	134.94
369.089	113.94
369.315	105.94
369.541	91.94
369.767	88.94
369.993	91.94
370.219	103.94
370.445	89.94
370.672	94.94
370.898	99.94
371.124	106.94
371.35	96.94
371.576	88.94
371.802	82.94
372.028	95.94
372.254	95.94
372.48	96.94
372.706	93.94
372.932	81.94
373.158	73.94
373.384	89.94
373.61	89.94
373.835	93.94
374.061	90.94
374.287	87.94
374.513	97.94
374.739	92.94
374.965	86.94
375.191	96.94
375.416	93.94
375.642	101.94
375.868	96.94
376.094	91.94
376.319	93.94
376.545	95.94
376.771	80.94
376.997	89.94
377.222	75.94
377.448	99.94
377.674	90.94
377.899	91.94
378.125	95.94
378.35	85.94
378.576	91.94
378.802	88.94
379.027	93.94
379.253	93.94
379.478	88.94
379.704	83.94
379.929	110.94
380.155	76.94
380.38	82.94
380.606	103.94
380.831	107.94
381.057	86.94
381.282	102.94
381.507	102.94
381.733	104.94
381.958	83.94
382.184	81.94
382.409	94.94
382.634	91.94
382.86	96.94
383.085	96.94
383.31	96.94
383.535	103.94
383.761	81.94
383.986	90.94
384.211	100.94
384.436	109.94
384.662	96.94
384.887	88.94
385.112	103.94
385.337	96.94
385.562	111.94
385.787	105.94
386.013	98.94
386.238	105.94
386.463	108.94
386.688	108.94
386.913	99.94
387.138	111.94
387.363	104.94
387.588	92.94
387.813	93.94
388.038	107.94
388.263	96.94
388.488	92.94
388.713	106.94
388.938	103.94
389.163	87.94
389.387	92.94
389.612	81.94
389.837	90.94
390.062	98.94
390.287	99.94
390.512	80.94
390.736	106.94
390.961	104.94
391.186	87.94
391.411	85.94
391.636	78.94
391.86	73.94
392.085	79.94
392.31	95.94
392.534	93.94
392.759	91.94
392.984	94.94
393.208	97.94
393.433	103.94
393.658	86.94
393.882	88.94
394.107	96.94
394.331	79.94
394.556	74.94
394.78	90.94
395.005	87.94
395.229	89.94
395.454	99.94
395.678	78.94
395.903	86.94
396.127	81.94
396.352	94.94
396.576	88.94
396.801	96.94
397.025	103.94
397.249	85.94
397.474	81.94
397.698	84.94
397.922	79.94
398.147	94.94
398.371	85.94
398.595	95.94
398.82	88.94
399.044	91.94
399.268	85.94
399.492	85.94
399.717	72.94
399.941	110.94
400.165	89.94
400.389	92.94
400.613	89.94
400.837	87.94
401.062	98.94
401.286	96.94
401.51	85.94
401.734	98.94
401.958	88.94
402.182	141.94
402.406	190.94
402.63	158.94
402.854	102.94
403.078	93.94
403.302	92.94
403.526	94.94
403.75	87.94
403.974	85.94
404.198	79.94
404.422	76.94
404.645	106.94
404.869	111.94
405.093	128.94
405.317	183.94
405.541	157.94
405.765	130.94
405.988	120.94
406.212	204.94
406.436	315.94
406.66	207.94
406.883	123.94
407.107	110.94
407.331	93.94
407.555	102.94
407.778	109.94
408.002	83.94
408.226	99.94
408.449	84.94
408.673	96.94
408.896	95.94
409.12	101.94
409.344	109.94
409.567	91.94
409.791	99.94
410.014	98.94
410.238	103.94
410.461	88.94
410.685	98.94
410.908	100.94
411.132	77.94
411.355	103.94
411.578	97.94
411.802	93.94
412.025	86.94
412.249	93.94
412.472	137.94
412.695	160.94
412.919	99.94
413.142	94.94
413.365	102.94
413.589	95.94
413.812	93.94
414.035	104.94
414.258	114.94
414.482	91.94
414.705	94.94
414.928	92.94
415.151	81.94
415.374	86.94
415.597	83.94
415.821	93.94
416.044	89.94
416.267	92.94
416.49	90.94
416.713	82.94
416.936	79.94
417.159	97.94
417.382	95.94
417.605	106.94
417.828	123.94
418.051	92.94
418.274	85.94
418.497	89.94
418.72	89.94
418.943	97.94
419.166	92.94
419.389	96.94
419.611	110.94
419.834	90.94
420.057	96.94
420.28	111.94
420.503	90.94
420.726	85.94
420.948	94.94
421.171	105.94
421.394	97.94
421.617	85.94
421.839	92.94
422.062	96.94
422.285	105.94
422.507	107.94
422.73	98.94
422.953	104.94
423.175	89.94
423.398	92.94
423.621	95.94
423.843	92.94
424.066	95.94
424.288	103.94
424.511	85.94
424.733	102.94
424.956	119.94
425.178	95.94
425.401	111.94
425.623	113.94
425.846	110.94
426.068	95.94
426.291	100.94
426.513	98.94
426.735	87.94
426.958	119.94
427.18	127.94
427.402	193.94
427.625	272.94
427.847	286.94
428.069	300.94
428.292	130.94
428.514	103.94
428.736	88.94
428.958	95.94
429.181	98.94
429.403	96.94
429.625	94.94
429.847	91.94
430.069	93.94
430.292	101.94
430.514	93.94
430.736	77.94
430.958	86.94
431.18	96.94
431.402	89.94
431.624	86.94
431.846	82.94
432.068	78.94
432.29	87.94
432.512	85.94
432.734	86.94
432.956	101.94
433.178	103.94
433.4	105.94
433.622	92.94
433.844	93.94
434.066	84.94
434.287	82.94
434.509	93.94
434.731	105.94
434.953	106.94
435.175	106.94
435.397	96.94
435.618	107.94
435.84	118.94
436.062	172.94
436.284	134.94
436.505	113.94
436.727	121.94
436.949	87.94
437.17	106.94
437.392	92.94
437.614	83.94
437.835	127.94
438.057	136.94
438.278	130.94
438.5	124.94
438.721	150.94
438.943	110.94
439.165	107.94
439.386	102.94
439.608	92.94
439.829	105.94
440.05	163.94
440.272	208.94
440.493	113.94
440.715	95.94
440.936	97.94
441.158	98.94
441.379	87.94
441.6	109.94
441.822	103.94
442.043	117.94
442.264	110.94
442.486	122.94
442.707	117.94
442.928	137.94
443.149	183.94
443.371	173.94
443.592	138.94
443.813	146.94
444.034	133.94
444.255	110.94
444.476	105.94
444.698	85.94
444.919	91.94
445.14	138.94
445.361	158.94
445.582	156.94
445.803	215.94
446.024	210.94
446.245	173.94
446.466	137.94
446.687	109.94
446.908	95.94
447.129	98.94
447.35	99.94
447.571	90.94
447.792	96.94
448.013	106.94
448.234	124.94
448.455	113.94
448.675	158.94
448.896	148.94
449.117	121.94
449.338	116.94
449.559	175.94
449.779	179.94
450	110.94
450.221	103.94
450.442	90.94
450.662	115.94
450.883	125.94
451.104	135.94
451.324	97.94
451.545	90.94
451.766	90.94
451.986	87.94
452.207	85.94
452.428	97.94
452.648	109.94
452.869	123.94
453.089	131.94
453.31	163.94
453.53	98.94
453.751	87.94
453.971	123.94
454.192	146.94
454.412	95.94
454.633	93.94
454.853	88.94
455.073	92.94
455.294	89.94
455.514	105.94
455.734	77.94
455.955	85.94
456.175	87.94
456.395	91.94
456.616	86.94
456.836	86.94
457.056	83.94
457.276	94.94
457.497	77.94
457.717	85.94
457.937	85.94
458.157	86.94
458.377	103.94
458.598	124.94
458.818	227.94
459.038	240.94
459.258	140.94
459.478	90.94
459.698	91.94
459.918	80.94
460.138	87.94
460.358	81.94
460.578	91.94
460.798	95.94
461.018	85.94
461.238	77.94
461.458	80.94
461.678	89.94
461.898	97.94
462.118	91.94
462.338	84.94
462.558	97.94
462.777	85.94
462.997	96.94
463.217	118.94
463.437	96.94
463.657	96.94
463.876	92.94
464.096	96.94
464.316	104.94
464.536	103.94
464.755	105.94
464.975	131.94
465.195	225.94
465.414	224.94
465.634	124.94
465.854	94.94
466.073	107.94
466.293	98.94
466.512	87.94
466.732	97.94
466.951	87.94
467.171	109.94
467.391	109.94
467.61	169.94
467.829	256.94
468.049	707.94
468.268	1022.94
468.488	252.94
468.707	118.94
468.927	98.94
469.146	79.94
469.365	81.94
469.585	105.94
469.804	113.94
470.023	108.94
470.243	104.94
470.462	107.94
470.681	150.94
470.901	105.94
471.12	92.94
471.339	117.94
471.558	116.94
471.777	170.94
471.997	382.94
472.216	1388.94
472.435	3102.94
472.654	705.94
472.873	199.94
473.092	120.94
473.311	108.94
473.53	90.94
473.749	100.94
473.968	108.94
474.187	134.94
474.406	121.94
474.625	97.94
474.844	95.94
475.063	96.94
475.282	85.94
475.501	86.94
475.72	88.94
475.939	93.94
476.158	102.94
476.377	81.94
476.596	98.94
476.814	98.94
477.033	100.94
477.252	82.94
477.471	75.94
477.69	93.94
477.908	93.94
478.127	115.94
478.346	104.94
478.564	98.94
478.783	114.94
479.002	108.94
479.22	105.94
479.439	126.94
479.658	149.94
479.876	135.94
480.095	118.94
480.313	136.94
480.532	187.94
480.751	343.94
480.969	1264.94
481.188	5556.94
481.406	3074.94
481.624	418.94
481.843	154.94
482.061	115.94
482.28	103.94
482.498	94.94
482.717	84.94
482.935	95.94
483.153	100.94
483.372	92.94
483.59	91.94
483.808	104.94
484.027	113.94
484.245	101.94
484.463	93.94
484.681	99.94
484.9	94.94
485.118	90.94
485.336	86.94
485.554	99.94
485.772	87.94
485.99	90.94
486.209	113.94
486.427	125.94
486.645	121.94
486.863	130.94
487.081	102.94
487.299	99.94
487.517	102.94
487.735	86.94
487.953	108.94
488.171	95.94
488.389	99.94
488.607	95.94
488.825	65.94
489.043	92.94
489.261	84.94
489.479	96.94
489.696	92.94
489.914	92.94
490.132	97.94
490.35	90.94
490.568	87.94
490.786	91.94
491.003	109.94
491.221	101.94
491.439	101.94
491.657	115.94
491.874	96.94
492.092	88.94
492.31	88.94
492.527	103.94
492.745	107.94
492.963	98.94
493.18	84.94
493.398	93.94
493.615	89.94
493.833	90.94
494.05	83.94
494.268	96.94
494.485	97.94
494.703	96.94
494.92	93.94
495.138	95.94
495.355	106.94
495.573	100.94
495.79	88.94
496.008	87.94
496.225	89.94
496.442	84.94
496.66	89.94
496.877	91.94
497.094	92.94
497.312	104.94
497.529	91.94
497.746	93.94
497.963	93.94
498.181	100.94
498.398	104.94
498.615	135.94
498.832	109.94
499.049	107.94
499.267	95.94
499.484	77.94
499.701	90.94
499.918	106.94
500.135	102.94
500.352	106.94
500.569	94.94
500.786	108.94
501.003	80.94
501.22	80.94
501.437	96.94
501.654	89.94
501.871	126.94
502.088	97.94
502.305	96.94
502.522	95.94
502.739	101.94
502.956	88.94
503.172	97.94
503.389	105.94
503.606	122.94
503.823	105.94
504.04	89.94
504.256	90.94
504.473	76.94
504.69	96.94
504.907	97.94
505.123	92.94
505.34	95.94
505.557	92.94
505.773	98.94
505.99	83.94
506.207	88.94
506.423	90.94
506.64	94.94
506.856	90.94
507.073	86.94
507.289	95.94
507.506	100.94
507.722	117.94
507.939	141.94
508.155	120.94
508.372	97.94
508.588	89.94
508.805	106.94
509.021	88.94
509.238	108.94
509.454	81.94
509.67	105.94
509.887	117.94
510.103	146.94
510.319	224.94
510.536	897.94
510.752	3080.94
510.968	803.94
511.184	191.94
511.401	129.94
511.617	114.94
511.833	121.94
512.049	105.94
512.265	114.94
512.481	107.94
512.698	100.94
512.914	97.94
513.13	106.94
513.346	97.94
513.562	107.94
513.778	110.94
513.994	113.94
514.21	98.94
514.426	151.94
514.642	172.94
514.858	163.94
515.074	223.94
515.29	713.94
515.506	2441.94
515.721	869.94
515.937	214.94
516.153	134.94
516.369	119.94
516.585	102.94
516.801	115.94
517.016	89.94
517.232	107.94
517.448	96.94
517.664	99.94
517.879	112.94
518.095	98.94
518.311	113.94
518.527	111.94
518.742	91.94
518.958	116.94
519.173	96.94
519.389	97.94
519.605	107.94
519.82	105.94
520.036	119.94
520.251	157.94
520.467	137.94
520.682	127.94
520.898	126.94
521.113	136.94
521.329	176.94
521.544	317.94
521.76	917.94
521.975	4235.94
522.19	2429.94
522.406	511.94
522.621	161.94
522.836	118.94
523.052	111.94
523.267	97.94
523.482	105.94
523.698	110.94
523.913	134.94
524.128	116.94
524.343	104.94
524.559	105.94
524.774	94.94
524.989	111.94
525.204	120.94
525.419	108.94
525.634	101.94
525.849	109.94
526.064	98.94
526.28	92.94
526.495	90.94
526.71	94.94
526.925	89.94
527.14	86.94
527.355	98.94
527.57	82.94
527.785	87.94
527.999	80.94
528.214	103.94
528.429	104.94
528.644	98.94
528.859	98.94
529.074	95.94
529.289	166.94
529.503	275.94
529.718	137.94
529.933	83.94
530.148	105.94
530.363	87.94
530.577	104.94
530.792	93.94
531.007	104.94
531.221	86.94
531.436	87.94
531.651	88.94
531.865	103.94
532.08	85.94
532.295	91.94
532.509	90.94
532.724	98.94
532.938	87.94
533.153	98.94
533.367	86.94
533.582	100.94
533.796	87.94
534.011	88.94
534.225	89.94
534.44	89.94
534.654	96.94
534.868	86.94
535.083	103.94
535.297	90.94
535.511	109.94
535.726	112.94
535.94	102.94
536.154	96.94
536.369	108.94
536.583	90.94
536.797	89.94
537.011	91.94
537.225	90.94
537.44	96.94
537.654	94.94
537.868	97.94
538.082	97.94
538.296	97.94
538.51	92.94
538.724	95.94
538.938	90.94
539.153	87.94
539.367	119.94
539.581	104.94
539.795	81.94
540.009	102.94
540.222	95.94
540.436	88.94
540.65	82.94
540.864	99.94
541.078	93.94
541.292	93.94
541.506	97.94
541.72	81.94
541.934	89.94
542.147	89.94
542.361	93.94
542.575	92.94
542.789	80.94
543.002	102.94
543.216	89.94
543.43	99.94
543.644	100.94
543.857	75.94
544.071	94.94
544.285	103.94
544.498	83.94
544.712	83.94
544.925	97.94
545.139	95.94
545.352	81.94
545.566	87.94
545.779	83.94
545.993	98.94
546.206	93.94
546.42	96.94
546.633	92.94
546.847	96.94
547.06	88.94
547.274	91.94
547.487	86.94
547.7	86.94
547.914	88.94
548.127	83.94
548.34	90.94
548.554	85.94
548.767	102.94
548.98	80.94
549.193	96.94
549.407	97.94
549.62	103.94
549.833	88.94
550.046	85.94
550.259	94.94
550.473	90.94
550.686	95.94
550.899	90.94
551.112	104.94
551.325	90.94
551.538	96.94
551.751	86.94
551.964	85.94
552.177	87.94
552.39	82.94
552.603	90.94
552.816	95.94
553.029	101.94
553.242	98.94
553.455	96.94
553.667	123.94
553.88	115.94
554.093	109.94
554.306	124.94
554.519	143.94
554.732	105.94
554.944	108.94
555.157	95.94
555.37	91.94
555.583	100.94
555.795	93.94
556.008	86.94
556.221	94.94
556.433	76.94
556.646	99.94
556.859	97.94
557.071	87.94
557.284	81.94
557.496	91.94
557.709	87.94
557.921	85.94
558.134	88.94
558.346	98.94
558.559	89.94
558.771	89.94
558.984	93.94
559.196	95.94
559.409	86.94
559.621	95.94
559.833	94.94
560.046	87.94
560.258	116.94
560.47	138.94
560.683	103.94
560.895	81.94
561.107	82.94
561.32	93.94
561.532	95.94
561.744	97.94
561.956	92.94
562.168	91.94
562.381	96.94
562.593	98.94
562.805	84.94
563.017	98.94
563.229	92.94
563.441	97.94
563.653	94.94
563.865	96.94
564.077	95.94
564.289	97.94
564.501	103.94
564.713	94.94
564.925	95.94
565.137	109.94
565.349	108.94
565.561	110.94
565.773	97.94
565.985	100.94
566.197	106.94
566.408	86.94
566.62	89.94
566.832	80.94
567.044	83.94
567.255	89.94
567.467	99.94
567.679	97.94
567.891	71.94
568.102	94.94
568.314	85.94
568.526	93.94
568.737	93.94
568.949	66.94
569.161	82.94
569.372	82.94
569.584	86.94
569.795	97.94
570.007	124.94
570.218	273.94
570.43	130.94
570.641	85.94
570.853	91.94
571.064	88.94
571.276	90.94
571.487	82.94
571.698	86.94
571.91	85.94
572.121	87.94
572.333	86.94
572.544	93.94
572.755	86.94
572.966	97.94
573.178	90.94
573.389	98.94
573.6	93.94
573.811	88.94
574.023	91.94
574.234	88.94
574.445	79.94
574.656	98.94
574.867	90.94
575.078	89.94
575.289	86.94
575.501	87.94
575.712	98.94
575.923	82.94
576.134	90.94
576.345	95.94
576.556	98.94
576.767	99.94
576.978	96.94
577.188	93.94
577.399	79.94
577.61	111.94
577.821	105.94
578.032	118.94
578.243	306.94
578.454	896.94
578.665	254.94
578.875	103.94
579.086	90.94
579.297	90.94
579.508	85.94
579.718	85.94
579.929	80.94
580.14	105.94
580.35	106.94
580.561	91.94
580.772	98.94
580.982	109.94
581.193	86.94
581.403	88.94
581.614	83.94
581.825	73.94
582.035	77.94
582.246	90.94
582.456	88.94
582.667	85.94
582.877	80.94
583.087	77.94
583.298	92.94
583.508	97.94
583.719	82.94
583.929	82.94
584.139	90.94
584.35	87.94
584.56	99.94
584.77	90.94
584.981	88.94
585.191	92.94
585.401	86.94
585.611	87.94
585.821	98.94
586.032	98.94
586.242	91.94
586.452	78.94
586.662	83.94
586.872	82.94
587.082	90.94
587.292	81.94
587.502	88.94
587.713	92.94
587.923	87.94
588.133	99.94
588.343	103.94
588.553	98.94
588.762	81.94
588.972	85.94
589.182	112.94
589.392	97.94
589.602	90.94
589.812	102.94
590.022	99.94
590.232	85.94
590.441	84.94
590.651	73.94
590.861	80.94
591.071	90.94
591.281	78.94
591.49	92.94
591.7	83.94
591.91	96.94
592.119	84.94
592.329	99.94
592.539	105.94
592.748	92.94
592.958	91.94
593.167	85.94
593.377	92.94
593.587	96.94
593.796	93.94
594.006	80.94
594.215	100.94
594.424	82.94
594.634	79.94
594.843	87.94
595.053	87.94
595.262	94.94
595.472	79.94
595.681	103.94
595.89	95.94
596.1	96.94
596.309	91.94
596.518	87.94
596.727	91.94
596.937	91.94
597.146	83.94
597.355	74.94
597.564	95.94
597.774	95.94
597.983	91.94
598.192	80.94
598.401	101.94
598.61	80.94
598.819	86.94
599.028	87.94
599.237	90.94
599.446	78.94
599.655	88.94
599.864	80.94
600.073	89.94
600.282	77.94
600.491	89.94
600.7	84.94
600.909	87.94
601.118	87.94
601.327	86.94
601.536	94.94
601.745	82.94
601.953	84.94
602.162	83.94
602.371	73.94
602.58	84.94
602.789	96.94
602.997	77.94
603.206	78.94
603.415	85.94
603.623	82.94
603.832	96.94
604.041	84.94
604.249	83.94
604.458	106.94
604.666	87.94
604.875	98.94
605.084	87.94
605.292	85.94
605.501	85.94
605.709	77.94
605.918	74.94
606.126	81.94
606.334	92.94
606.543	89.94
606.751	94.94
606.96	99.94
607.168	77.94
607.376	84.94
607.585	93.94
607.793	89.94
608.001	83.94
608.21	76.94
608.418	91.94
608.626	82.94
608.834	78.94
609.043	96.94
609.251	81.94
609.459	85.94
609.667	90.94
609.875	81.94
610.083	91.94
610.291	81.94
610.499	90.94
610.707	91.94
610.916	75.94
611.124	93.94
611.332	98.94
611.54	83.94
611.748	80.94
611.955	68.94
612.163	91.94
612.371	91.94
612.579	82.94
612.787	88.94
612.995	77.94
613.203	85.94
613.411	82.94
613.618	84.94
613.826	73.94
614.034	95.94
614.242	80.94
614.449	73.94
614.657	87.94
614.865	85.94
615.072	85.94
615.28	80.94
615.488	93.94
615.695	97.94
615.903	100.94
616.111	99.94
616.318	117.94
616.526	87.94
616.733	88.94
616.941	83.94
617.148	84.94
617.356	84.94
617.563	82.94
617.771	80.94
617.978	101.94
618.185	78.94
618.393	89.94
618.6	93.94
618.807	83.94
619.015	104.94
619.222	96.94
619.429	89.94
619.637	84.94
619.844	91.94
620.051	80.94
620.258	82.94
620.466	94.94
620.673	88.94
620.88	84.94
621.087	83.94
621.294	66.94
621.501	79.94
621.708	92.94
621.915	85.94
622.122	88.94
622.329	103.94
622.536	74.94
622.743	74.94
622.95	92.94
623.157	83.94
623.364	78.94
623.571	90.94
623.778	73.94
623.985	75.94
624.192	72.94
624.399	89.94
624.606	105.94
624.812	91.94
625.019	83.94
625.226	82.94
625.433	97.94
625.639	93.94
625.846	93.94
626.053	86.94
626.259	79.94
626.466	88.94
626.673	83.94
626.879	88.94
627.086	92.94
627.293	89.94
627.499	96.94
627.706	91.94
627.912	92.94
628.119	85.94
628.325	104.94
628.532	88.94
628.738	72.94
628.945	88.94
629.151	81.94
629.357	94.94
629.564	82.94
629.77	94.94
629.976	94.94
630.183	83.94
630.389	77.94
630.595	70.94
630.802	87.94
631.008	73.94
631.214	95.94
631.42	86.94
631.627	96.94
631.833	94.94
632.039	82.94
632.245	87.94
632.451	75.94
632.657	74.94
632.863	92.94
633.069	88.94
633.275	84.94
633.481	81.94
633.688	88.94
633.893	83.94
634.099	89.94
634.305	73.94
634.511	88.94
634.717	92.94
634.923	73.94
635.129	76.94
635.335	90.94
635.541	93.94
635.747	89.94
635.952	95.94
636.158	137.94
636.364	451.94
636.57	388.94
636.775	146.94
636.981	109.94
637.187	95.94
637.392	105.94
637.598	86.94
637.804	79.94
638.009	94.94
638.215	83.94
638.421	86.94
638.626	75.94
638.832	76.94
639.037	89.94
639.243	86.94
639.448	85.94
639.654	105.94
639.859	91.94
640.065	82.94
640.27	99.94
640.475	81.94
640.681	79.94
640.886	83.94
641.091	84.94
641.297	86.94
641.502	84.94
641.707	93.94
641.913	89.94
642.118	97.94
642.323	89.94
642.528	90.94
642.733	78.94
642.939	103.94
643.144	83.94
643.349	69.94
643.554	84.94
643.759	77.94
643.964	88.94
644.169	90.94
644.374	90.94
644.579	82.94
644.784	82.94
644.989	79.94
645.194	77.94
645.399	94.94
645.604	65.94
645.809	95.94
646.014	96.94
646.219	71.94
646.423	79.94
646.628	83.94
646.833	66.94
647.038	87.94
647.243	93.94
647.447	89.94
647.652	82.94
647.857	101.94
648.062	89.94
648.266	96.94
648.471	110.94
648.676	97.94
648.88	66.94
649.085	93.94
649.289	105.94
649.494	109.94
649.698	162.94
649.903	111.94
650.107	97.94
650.312	91.94
650.516	83.94
650.721	94.94
650.925	91.94
651.13	75.94
651.334	70.94
651.539	77.94
651.743	77.94
651.947	82.94
652.152	95.94
652.356	68.94
652.56	73.94
652.764	75.94
652.969	83.94
653.173	65.94
653.377	88.94
653.581	94.94
653.785	74.94
653.99	87.94
654.194	77.94
654.398	83.94
654.602	92.94
654.806	94.94
655.01	116.94
655.214	87.94
655.418	78.94
655.622	81.94
655.826	81.94
656.03	94.94
656.234	89.94
656.438	99.94
656.642	97.94
656.846	86.94
657.049	88.94
657.253	88.94
657.457	84.94
657.661	82.94
657.865	65.94
658.068	76.94
658.272	80.94
658.476	80.94
658.68	72.94
658.883	66.94
659.087	86.94
659.291	72.94
659.494	94.94
659.698	83.94
659.901	78.94
660.105	80.94
660.309	65.94
660.512	84.94
660.716	86.94
660.919	92.94
661.123	93.94
661.326	83.94
661.53	81.94
661.733	91.94
661.936	82.94
662.14	81.94
662.343	81.94
662.546	87.94
662.75	86.94
662.953	90.94
663.156	84.94
663.36	86.94
663.563	76.94
663.766	75.94
663.969	82.94
664.173	101.94
664.376	79.94
664.579	77.94
664.782	83.94
664.985	78.94
665.188	83.94
665.391	80.94
665.594	75.94
665.797	84.94
666	79.94
666.203	89.94
666.406	92.94
666.609	78.94
666.812	86.94
667.015	72.94
667.218	93.94
667.421	66.94
667.624	66.94
667.827	78.94
668.03	74.94
668.232	87.94
668.435	73.94
668.638	75.94
668.841	84.94
669.043	72.94
669.246	81.94
669.449	94.94
669.651	77.94
669.854	81.94
670.057	71.94
670.259	82.94
670.462	69.94
670.665	71.94
670.867	79.94
671.07	80.94
671.272	89.94
671.475	77.94
671.677	82.94
671.88	85.94
672.082	85.94
672.284	81.94
672.487	83.94
672.689	61.94
672.892	80.94
