Data from 10100_1_HRD10591_00037.txt Node
Date: Mon Jan 19 14:00:43 EST 2026
User: Yrep
Spectrometer: HR+D1059
Trigger mode: 1
Integration Time (sec): 1.000000E-1
Scans to average: 1
Electric dark correction enabled: true
Nonlinearity correction enabled: false
Boxcar width: 0
XAxis mode: Wavelengths
Number of Pixels in Spectrum: 2048
>>>>>Begin Spectral Data<<<<<
223.165	4.81
223.4	4.81
223.635	4.81
223.869	-17.19
224.104	-17.19
224.338	-22.19
224.573	-8.19
224.808	-7.19
225.042	-2.19
225.277	3.81
225.511	0.81
225.746	9.81
225.98	6.81
226.215	7.81
226.449	7.81
226.683	12.81
226.918	3.81
227.152	15.81
227.387	32.81
227.621	41.81
227.856	52.81
228.09	39.81
228.324	59.81
228.559	53.81
228.793	51.81
229.027	56.81
229.262	67.81
229.496	69.81
229.73	71.81
229.964	79.81
230.199	73.81
230.433	71.81
230.667	68.81
230.901	63.81
231.136	91.81
231.37	71.81
231.604	80.81
231.838	78.81
232.072	70.81
232.306	99.81
232.541	74.81
232.775	67.81
233.009	94.81
233.243	85.81
233.477	78.81
233.711	66.81
233.945	67.81
234.179	87.81
234.413	71.81
234.647	83.81
234.881	82.81
235.115	67.81
235.349	71.81
235.583	79.81
235.817	87.81
236.051	77.81
236.285	74.81
236.519	79.81
236.753	68.81
236.987	69.81
237.221	71.81
237.455	73.81
237.689	76.81
237.922	78.81
238.156	79.81
238.39	76.81
238.624	81.81
238.858	69.81
239.091	67.81
239.325	78.81
239.559	87.81
239.793	66.81
240.027	77.81
240.26	64.81
240.494	93.81
240.728	79.81
240.961	81.81
241.195	79.81
241.429	72.81
241.662	78.81
241.896	77.81
242.13	78.81
242.363	74.81
242.597	84.81
242.83	90.81
243.064	88.81
243.298	78.81
243.531	78.81
243.765	72.81
243.998	94.81
244.232	79.81
244.465	81.81
244.699	77.81
244.932	87.81
245.166	79.81
245.399	70.81
245.633	83.81
245.866	66.81
246.099	67.81
246.333	77.81
246.566	68.81
246.8	86.81
247.033	93.81
247.266	77.81
247.5	73.81
247.733	84.81
247.966	80.81
248.2	75.81
248.433	79.81
248.666	77.81
248.899	75.81
249.133	87.81
249.366	86.81
249.599	84.81
249.832	69.81
250.066	86.81
250.299	75.81
250.532	80.81
250.765	74.81
250.998	79.81
251.231	71.81
251.465	73.81
251.698	93.81
251.931	73.81
252.164	63.81
252.397	72.81
252.63	78.81
252.863	70.81
253.096	85.81
253.329	75.81
253.562	81.81
253.795	69.81
254.028	82.81
254.261	78.81
254.494	87.81
254.727	78.81
254.96	79.81
255.193	73.81
255.426	82.81
255.659	71.81
255.892	89.81
256.124	73.81
256.357	86.81
256.59	84.81
256.823	66.81
257.056	73.81
257.289	87.81
257.521	85.81
257.754	78.81
257.987	67.81
258.22	79.81
258.452	70.81
258.685	86.81
258.918	95.81
259.151	83.81
259.383	89.81
259.616	86.81
259.849	84.81
260.081	85.81
260.314	79.81
260.547	77.81
260.779	69.81
261.012	79.81
261.244	69.81
261.477	91.81
261.71	87.81
261.942	75.81
262.175	77.81
262.407	64.81
262.64	68.81
262.872	83.81
263.105	73.81
263.337	69.81
263.57	79.81
263.802	81.81
264.035	68.81
264.267	68.81
264.499	84.81
264.732	81.81
264.964	70.81
265.197	85.81
265.429	85.81
265.661	89.81
265.894	86.81
266.126	86.81
266.358	77.81
266.591	88.81
266.823	80.81
267.055	81.81
267.287	70.81
267.52	71.81
267.752	75.81
267.984	81.81
268.216	70.81
268.448	59.81
268.681	75.81
268.913	64.81
269.145	89.81
269.377	83.81
269.609	77.81
269.841	78.81
270.073	85.81
270.306	84.81
270.538	90.81
270.77	92.81
271.002	67.81
271.234	81.81
271.466	72.81
271.698	91.81
271.93	89.81
272.162	92.81
272.394	87.81
272.626	89.81
272.858	78.81
273.09	87.81
273.322	83.81
273.553	75.81
273.785	77.81
274.017	100.81
274.249	75.81
274.481	80.81
274.713	63.81
274.945	81.81
275.176	70.81
275.408	88.81
275.64	83.81
275.872	85.81
276.104	80.81
276.335	84.81
276.567	96.81
276.799	91.81
277.031	83.81
277.262	90.81
277.494	79.81
277.726	87.81
277.957	90.81
278.189	71.81
278.421	79.81
278.652	90.81
278.884	92.81
279.115	86.81
279.347	82.81
279.579	91.81
279.81	92.81
280.042	75.81
280.273	94.81
280.505	70.81
280.736	90.81
280.968	78.81
281.199	76.81
281.431	79.81
281.662	71.81
281.894	75.81
282.125	77.81
282.356	98.81
282.588	79.81
282.819	97.81
283.051	85.81
283.282	89.81
283.513	73.81
283.745	85.81
283.976	88.81
284.207	94.81
284.439	83.81
284.67	79.81
284.901	92.81
285.132	75.81
285.364	92.81
285.595	88.81
285.826	94.81
286.057	78.81
286.288	86.81
286.52	81.81
286.751	79.81
286.982	85.81
287.213	80.81
287.444	73.81
287.675	83.81
287.906	78.81
288.138	87.81
288.369	81.81
288.6	88.81
288.831	91.81
289.062	81.81
289.293	83.81
289.524	103.81
289.755	79.81
289.986	70.81
290.217	71.81
290.448	70.81
290.679	76.81
290.91	92.81
291.141	101.81
291.371	72.81
291.602	78.81
291.833	84.81
292.064	85.81
292.295	76.81
292.526	75.81
292.757	80.81
292.987	87.81
293.218	75.81
293.449	91.81
293.68	80.81
293.91	96.81
294.141	94.81
294.372	77.81
294.603	83.81
294.833	78.81
295.064	82.81
295.295	93.81
295.525	84.81
295.756	88.81
295.987	73.81
296.217	80.81
296.448	89.81
296.679	82.81
296.909	98.81
297.14	73.81
297.37	90.81
297.601	93.81
297.831	93.81
298.062	91.81
298.292	92.81
298.523	81.81
298.753	76.81
298.984	96.81
299.214	83.81
299.445	83.81
299.675	81.81
299.905	79.81
300.136	88.81
300.366	83.81
300.597	92.81
300.827	79.81
301.057	98.81
301.288	95.81
301.518	84.81
301.748	91.81
301.979	98.81
302.209	97.81
302.439	86.81
302.669	75.81
302.9	77.81
303.13	77.81
303.36	76.81
303.59	88.81
303.82	79.81
304.051	82.81
304.281	93.81
304.511	90.81
304.741	88.81
304.971	76.81
305.201	92.81
305.431	98.81
305.661	86.81
305.891	91.81
306.121	82.81
306.352	82.81
306.582	94.81
306.812	84.81
307.042	76.81
307.272	76.81
307.502	98.81
307.731	99.81
307.961	92.81
308.191	87.81
308.421	93.81
308.651	86.81
308.881	81.81
309.111	88.81
309.341	86.81
309.571	89.81
309.8	84.81
310.03	86.81
310.26	88.81
310.49	85.81
310.72	91.81
310.949	87.81
311.179	97.81
311.409	79.81
311.639	80.81
311.868	91.81
312.098	91.81
312.328	92.81
312.557	92.81
312.787	69.81
313.017	89.81
313.246	101.81
313.476	95.81
313.706	87.81
313.935	103.81
314.165	85.81
314.394	86.81
314.624	81.81
314.853	85.81
315.083	91.81
315.312	70.81
315.542	71.81
315.771	82.81
316.001	83.81
316.23	80.81
316.46	70.81
316.689	84.81
316.919	79.81
317.148	87.81
317.377	101.81
317.607	95.81
317.836	94.81
318.065	100.81
318.295	76.81
318.524	72.81
318.753	86.81
318.983	94.81
319.212	85.81
319.441	87.81
319.67	89.81
319.9	96.81
320.129	83.81
320.358	83.81
320.587	81.81
320.816	84.81
321.046	93.81
321.275	84.81
321.504	95.81
321.733	81.81
321.962	76.81
322.191	95.81
322.42	85.81
322.649	91.81
322.878	94.81
323.108	79.81
323.337	83.81
323.566	79.81
323.795	87.81
324.024	78.81
324.253	81.81
324.482	92.81
324.71	72.81
324.939	100.81
325.168	91.81
325.397	76.81
325.626	79.81
325.855	82.81
326.084	72.81
326.313	103.81
326.542	90.81
326.77	79.81
326.999	93.81
327.228	97.81
327.457	82.81
327.686	85.81
327.914	95.81
328.143	79.81
328.372	84.81
328.6	87.81
328.829	77.81
329.058	75.81
329.287	82.81
329.515	83.81
329.744	85.81
329.972	81.81
330.201	75.81
330.43	94.81
330.658	82.81
330.887	86.81
331.115	94.81
331.344	87.81
331.572	85.81
331.801	87.81
332.03	82.81
332.258	93.81
332.486	83.81
332.715	84.81
332.943	82.81
333.172	81.81
333.4	93.81
333.629	88.81
333.857	92.81
334.085	96.81
334.314	88.81
334.542	85.81
334.771	98.81
334.999	85.81
335.227	96.81
335.455	96.81
335.684	89.81
335.912	95.81
336.14	95.81
336.369	102.81
336.597	93.81
336.825	88.81
337.053	65.81
337.281	91.81
337.51	87.81
337.738	83.81
337.966	77.81
338.194	75.81
338.422	74.81
338.65	77.81
338.878	73.81
339.106	90.81
339.334	84.81
339.562	76.81
339.79	87.81
340.018	94.81
340.246	81.81
340.474	81.81
340.702	79.81
340.93	79.81
341.158	86.81
341.386	102.81
341.614	87.81
341.842	88.81
342.07	98.81
342.298	72.81
342.526	83.81
342.754	76.81
342.981	96.81
343.209	85.81
343.437	91.81
343.665	91.81
343.893	91.81
344.12	87.81
344.348	91.81
344.576	89.81
344.804	85.81
345.031	88.81
345.259	95.81
345.487	82.81
345.714	76.81
345.942	86.81
346.17	86.81
346.397	79.81
346.625	87.81
346.853	89.81
347.08	80.81
347.308	81.81
347.535	95.81
347.763	82.81
347.99	93.81
348.218	85.81
348.445	80.81
348.673	87.81
348.9	83.81
349.128	91.81
349.355	98.81
349.583	77.81
349.81	86.81
350.037	80.81
350.265	91.81
350.492	89.81
350.72	85.81
350.947	86.81
351.174	89.81
351.402	92.81
351.629	71.81
351.856	78.81
352.083	81.81
352.311	86.81
352.538	87.81
352.765	79.81
352.992	85.81
353.22	83.81
353.447	77.81
353.674	88.81
353.901	91.81
354.128	95.81
354.355	77.81
354.583	79.81
354.81	96.81
355.037	87.81
355.264	94.81
355.491	82.81
355.718	83.81
355.945	96.81
356.172	103.81
356.399	86.81
356.626	86.81
356.853	90.81
357.08	85.81
357.307	91.81
357.534	102.81
357.761	67.81
357.988	102.81
358.215	99.81
358.441	78.81
358.668	79.81
358.895	85.81
359.122	75.81
359.349	77.81
359.576	80.81
359.802	75.81
360.029	98.81
360.256	94.81
360.483	94.81
360.709	91.81
360.936	92.81
361.163	99.81
361.39	85.81
361.616	93.81
361.843	82.81
362.07	81.81
362.296	86.81
362.523	93.81
362.749	89.81
362.976	91.81
363.203	100.81
363.429	98.81
363.656	87.81
363.882	68.81
364.109	99.81
364.335	125.81
364.562	120.81
364.788	110.81
365.015	109.81
365.241	88.81
365.468	93.81
365.694	98.81
365.92	89.81
366.147	91.81
366.373	77.81
366.599	81.81
366.826	91.81
367.052	87.81
367.278	88.81
367.505	98.81
367.731	76.81
367.957	74.81
368.184	82.81
368.41	87.81
368.636	83.81
368.862	83.81
369.089	86.81
369.315	65.81
369.541	85.81
369.767	84.81
369.993	90.81
370.219	88.81
370.445	87.81
370.672	82.81
370.898	84.81
371.124	85.81
371.35	88.81
371.576	88.81
371.802	92.81
372.028	105.81
372.254	81.81
372.48	88.81
372.706	77.81
372.932	85.81
373.158	79.81
373.384	105.81
373.61	110.81
373.835	93.81
374.061	97.81
374.287	60.81
374.513	87.81
374.739	89.81
374.965	93.81
375.191	90.81
375.416	91.81
375.642	91.81
375.868	92.81
376.094	93.81
376.319	84.81
376.545	97.81
376.771	93.81
376.997	90.81
377.222	90.81
377.448	70.81
377.674	94.81
377.899	100.81
378.125	93.81
378.35	87.81
378.576	67.81
378.802	84.81
379.027	68.81
379.253	87.81
379.478	89.81
379.704	87.81
379.929	82.81
380.155	93.81
380.38	99.81
380.606	91.81
380.831	93.81
381.057	80.81
381.282	77.81
381.507	82.81
381.733	97.81
381.958	94.81
382.184	93.81
382.409	86.81
382.634	97.81
382.86	83.81
383.085	84.81
383.31	104.81
383.535	96.81
383.761	100.81
383.986	108.81
384.211	83.81
384.436	80.81
384.662	69.81
384.887	87.81
385.112	89.81
385.337	93.81
385.562	80.81
385.787	98.81
386.013	93.81
386.238	94.81
386.463	85.81
386.688	98.81
386.913	97.81
387.138	87.81
387.363	83.81
387.588	90.81
387.813	98.81
388.038	99.81
388.263	100.81
388.488	77.81
388.713	92.81
388.938	83.81
389.163	85.81
389.387	86.81
389.612	90.81
389.837	74.81
390.062	79.81
390.287	90.81
390.512	96.81
390.736	71.81
390.961	86.81
391.186	83.81
391.411	83.81
391.636	95.81
391.86	93.81
392.085	85.81
392.31	93.81
392.534	103.81
392.759	116.81
392.984	132.81
393.208	207.81
393.433	275.81
393.658	222.81
393.882	119.81
394.107	101.81
394.331	99.81
394.556	99.81
394.78	109.81
395.005	102.81
395.229	85.81
395.454	95.81
395.678	104.81
395.903	101.81
396.127	118.81
396.352	115.81
396.576	143.81
396.801	211.81
397.025	245.81
397.249	148.81
397.474	115.81
397.698	91.81
397.922	90.81
398.147	89.81
398.371	93.81
398.595	78.81
398.82	83.81
399.044	78.81
399.268	73.81
399.492	77.81
399.717	85.81
399.941	83.81
400.165	91.81
400.389	79.81
400.613	85.81
400.837	101.81
401.062	78.81
401.286	76.81
401.51	86.81
401.734	83.81
401.958	89.81
402.182	91.81
402.406	91.81
402.63	88.81
402.854	78.81
403.078	92.81
403.302	88.81
403.526	84.81
403.75	74.81
403.974	86.81
404.198	99.81
404.422	71.81
404.645	105.81
404.869	91.81
405.093	77.81
405.317	93.81
405.541	84.81
405.765	68.81
405.988	84.81
406.212	93.81
406.436	74.81
406.66	95.81
406.883	98.81
407.107	90.81
407.331	102.81
407.555	84.81
407.778	97.81
408.002	102.81
408.226	90.81
408.449	74.81
408.673	83.81
408.896	93.81
409.12	82.81
409.344	91.81
409.567	87.81
409.791	95.81
410.014	103.81
410.238	82.81
410.461	91.81
410.685	89.81
410.908	82.81
411.132	101.81
411.355	98.81
411.578	80.81
411.802	78.81
412.025	94.81
412.249	84.81
412.472	89.81
412.695	71.81
412.919	92.81
413.142	79.81
413.365	87.81
413.589	77.81
413.812	85.81
414.035	93.81
414.258	97.81
414.482	81.81
414.705	95.81
414.928	100.81
415.151	79.81
415.374	83.81
415.597	89.81
415.821	78.81
416.044	79.81
416.267	76.81
416.49	81.81
416.713	86.81
416.936	81.81
417.159	87.81
417.382	81.81
417.605	85.81
417.828	84.81
418.051	84.81
418.274	96.81
418.497	68.81
418.72	77.81
418.943	83.81
419.166	86.81
419.389	95.81
419.611	86.81
419.834	87.81
420.057	83.81
420.28	78.81
420.503	84.81
420.726	79.81
420.948	75.81
421.171	96.81
421.394	105.81
421.617	100.81
421.839	103.81
422.062	113.81
422.285	131.81
422.507	229.81
422.73	342.81
422.953	309.81
423.175	178.81
423.398	119.81
423.621	103.81
423.843	87.81
424.066	100.81
424.288	81.81
424.511	100.81
424.733	79.81
424.956	81.81
425.178	88.81
425.401	67.81
425.623	85.81
425.846	103.81
426.068	90.81
426.291	97.81
426.513	99.81
426.735	87.81
426.958	75.81
427.18	92.81
427.402	88.81
427.625	100.81
427.847	84.81
428.069	87.81
428.292	105.81
428.514	120.81
428.736	109.81
428.958	112.81
429.181	125.81
429.403	89.81
429.625	87.81
429.847	123.81
430.069	126.81
430.292	148.81
430.514	145.81
430.736	116.81
430.958	127.81
431.18	83.81
431.402	87.81
431.624	87.81
431.846	118.81
432.068	104.81
432.29	96.81
432.512	87.81
432.734	75.81
432.956	79.81
433.178	85.81
433.4	78.81
433.622	96.81
433.844	79.81
434.066	84.81
434.287	69.81
434.509	92.81
434.731	77.81
434.953	84.81
435.175	90.81
435.397	94.81
435.618	88.81
435.84	81.81
436.062	82.81
436.284	89.81
436.505	80.81
436.727	84.81
436.949	93.81
437.17	83.81
437.392	86.81
437.614	99.81
437.835	79.81
438.057	91.81
438.278	80.81
438.5	78.81
438.721	90.81
438.943	104.81
439.165	83.81
439.386	89.81
439.608	89.81
439.829	86.81
440.05	74.81
440.272	92.81
440.493	88.81
440.715	81.81
440.936	83.81
441.158	86.81
441.379	85.81
441.6	87.81
441.822	91.81
442.043	81.81
442.264	85.81
442.486	134.81
442.707	133.81
442.928	107.81
443.149	98.81
443.371	144.81
443.592	179.81
443.813	183.81
444.034	105.81
444.255	90.81
444.476	88.81
444.698	78.81
444.919	84.81
445.14	157.81
445.361	146.81
445.582	225.81
445.803	187.81
446.024	116.81
446.245	107.81
446.466	89.81
446.687	77.81
446.908	86.81
447.129	80.81
447.35	81.81
447.571	82.81
447.792	77.81
448.013	85.81
448.234	71.81
448.455	73.81
448.675	62.81
448.896	82.81
449.117	85.81
449.338	87.81
449.559	91.81
449.779	91.81
450	86.81
450.221	83.81
450.442	92.81
450.662	85.81
450.883	77.81
451.104	93.81
451.324	108.81
451.545	82.81
451.766	83.81
451.986	84.81
452.207	76.81
452.428	90.81
452.648	97.81
452.869	86.81
453.089	102.81
453.31	80.81
453.53	98.81
453.751	81.81
453.971	82.81
454.192	64.81
454.412	83.81
454.633	69.81
454.853	85.81
455.073	72.81
455.294	89.81
455.514	77.81
455.734	83.81
455.955	90.81
456.175	87.81
456.395	87.81
456.616	82.81
456.836	80.81
457.056	88.81
457.276	87.81
457.497	94.81
457.717	94.81
457.937	95.81
458.157	105.81
458.377	110.81
458.598	115.81
458.818	115.81
459.038	88.81
459.258	86.81
459.478	89.81
459.698	69.81
459.918	87.81
460.138	72.81
460.358	94.81
460.578	93.81
460.798	111.81
461.018	112.81
461.238	104.81
461.458	71.81
461.678	82.81
461.898	87.81
462.118	76.81
462.338	70.81
462.558	84.81
462.777	90.81
462.997	83.81
463.217	86.81
463.437	79.81
463.657	79.81
463.876	79.81
464.096	82.81
464.316	89.81
464.536	81.81
464.755	97.81
464.975	82.81
465.195	73.81
465.414	86.81
465.634	81.81
465.854	81.81
466.073	82.81
466.293	88.81
466.512	76.81
466.732	88.81
466.951	83.81
467.171	95.81
467.391	81.81
467.61	96.81
467.829	79.81
468.049	79.81
468.268	80.81
468.488	84.81
468.707	85.81
468.927	78.81
469.146	93.81
469.365	88.81
469.585	86.81
469.804	95.81
470.023	89.81
470.243	95.81
470.462	83.81
470.681	83.81
470.901	80.81
471.12	85.81
471.339	84.81
471.558	86.81
471.777	87.81
471.997	85.81
472.216	77.81
472.435	82.81
472.654	70.81
472.873	87.81
473.092	95.81
473.311	87.81
473.53	79.81
473.749	86.81
473.968	89.81
474.187	80.81
474.406	90.81
474.625	85.81
474.844	93.81
475.063	90.81
475.282	71.81
475.501	86.81
475.72	79.81
475.939	74.81
476.158	82.81
476.377	87.81
476.596	87.81
476.814	83.81
477.033	77.81
477.252	65.81
477.471	81.81
477.69	74.81
477.908	83.81
478.127	79.81
478.346	94.81
478.564	70.81
478.783	96.81
479.002	88.81
479.22	96.81
479.439	100.81
479.658	88.81
479.876	83.81
480.095	89.81
480.313	91.81
480.532	105.81
480.751	92.81
480.969	85.81
481.188	88.81
481.406	83.81
481.624	79.81
481.843	86.81
482.061	84.81
482.28	89.81
482.498	92.81
482.717	87.81
482.935	101.81
483.153	78.81
483.372	92.81
483.59	84.81
483.808	93.81
484.027	86.81
484.245	79.81
484.463	86.81
484.681	90.81
484.9	93.81
485.118	92.81
485.336	83.81
485.554	95.81
485.772	92.81
485.99	79.81
486.209	96.81
486.427	83.81
486.645	70.81
486.863	95.81
487.081	99.81
487.299	95.81
487.517	81.81
487.735	107.81
487.953	137.81
488.171	129.81
488.389	96.81
488.607	63.81
488.825	91.81
489.043	86.81
489.261	84.81
489.479	85.81
489.696	72.81
489.914	84.81
490.132	87.81
490.35	85.81
490.568	88.81
490.786	81.81
491.003	81.81
491.221	88.81
491.439	100.81
491.657	77.81
491.874	82.81
492.092	95.81
492.31	94.81
492.527	91.81
492.745	82.81
492.963	80.81
493.18	85.81
493.398	97.81
493.615	86.81
493.833	84.81
494.05	86.81
494.268	85.81
494.485	89.81
494.703	84.81
494.92	88.81
495.138	91.81
495.355	97.81
495.573	82.81
495.79	86.81
496.008	86.81
496.225	109.81
496.442	83.81
496.66	99.81
496.877	72.81
497.094	89.81
497.312	92.81
497.529	86.81
497.746	76.81
497.963	92.81
498.181	94.81
498.398	96.81
498.615	77.81
498.832	90.81
499.049	90.81
499.267	101.81
499.484	97.81
499.701	79.81
499.918	85.81
500.135	96.81
500.352	84.81
500.569	83.81
500.786	76.81
501.003	82.81
501.22	92.81
501.437	96.81
501.654	83.81
501.871	112.81
502.088	81.81
502.305	89.81
502.522	91.81
502.739	97.81
502.956	88.81
503.172	93.81
503.389	100.81
503.606	93.81
503.823	102.81
504.04	112.81
504.256	108.81
504.473	112.81
504.69	98.81
504.907	87.81
505.123	85.81
505.34	104.81
505.557	84.81
505.773	97.81
505.99	81.81
506.207	86.81
506.423	85.81
506.64	86.81
506.856	85.81
507.073	88.81
507.289	81.81
507.506	85.81
507.722	95.81
507.939	87.81
508.155	67.81
508.372	76.81
508.588	83.81
508.805	95.81
509.021	91.81
509.238	85.81
509.454	101.81
509.67	92.81
509.887	88.81
510.103	94.81
510.319	80.81
510.536	90.81
510.752	87.81
510.968	84.81
511.184	82.81
511.401	88.81
511.617	99.81
511.833	75.81
512.049	92.81
512.265	81.81
512.481	81.81
512.698	75.81
512.914	96.81
513.13	93.81
513.346	97.81
513.562	95.81
513.778	79.81
513.994	86.81
514.21	86.81
514.426	86.81
514.642	87.81
514.858	95.81
515.074	90.81
515.29	98.81
515.506	114.81
515.721	101.81
515.937	95.81
516.153	79.81
516.369	71.81
516.585	79.81
516.801	77.81
517.016	90.81
517.232	78.81
517.448	83.81
517.664	87.81
517.879	77.81
518.095	86.81
518.311	83.81
518.527	100.81
518.742	93.81
518.958	121.81
519.173	147.81
519.389	97.81
519.605	81.81
519.82	86.81
520.036	100.81
520.251	87.81
520.467	91.81
520.682	88.81
520.898	86.81
521.113	87.81
521.329	85.81
521.544	91.81
521.76	101.81
521.975	92.81
522.19	96.81
522.406	91.81
522.621	83.81
522.836	88.81
523.052	97.81
523.267	103.81
523.482	85.81
523.698	79.81
523.913	92.81
524.128	89.81
524.343	100.81
524.559	90.81
524.774	78.81
524.989	90.81
525.204	103.81
525.419	97.81
525.634	87.81
525.849	94.81
526.064	102.81
526.28	187.81
526.495	233.81
526.71	249.81
526.925	179.81
527.14	234.81
527.355	193.81
527.57	109.81
527.785	88.81
527.999	94.81
528.214	91.81
528.429	92.81
528.644	98.81
528.859	93.81
529.074	74.81
529.289	92.81
529.503	104.81
529.718	87.81
529.933	95.81
530.148	95.81
530.363	90.81
530.577	84.81
530.792	86.81
531.007	85.81
531.221	92.81
531.436	88.81
531.651	91.81
531.865	95.81
532.08	101.81
532.295	99.81
532.509	87.81
532.724	110.81
532.938	107.81
533.153	108.81
533.367	96.81
533.582	103.81
533.796	91.81
534.011	81.81
534.225	87.81
534.44	103.81
534.654	103.81
534.868	104.81
535.083	134.81
535.297	125.81
535.511	105.81
535.726	99.81
535.94	95.81
536.154	95.81
536.369	95.81
536.583	97.81
536.797	95.81
537.011	98.81
537.225	105.81
537.44	104.81
537.654	98.81
537.868	103.81
538.082	100.81
538.296	92.81
538.51	109.81
538.724	95.81
538.938	91.81
539.153	95.81
539.367	94.81
539.581	98.81
539.795	95.81
540.009	95.81
540.222	113.81
540.436	97.81
540.65	108.81
540.864	98.81
541.078	102.81
541.292	102.81
541.506	99.81
541.72	120.81
541.934	104.81
542.147	109.81
542.361	93.81
542.575	97.81
542.789	110.81
543.002	104.81
543.216	108.81
543.43	117.81
543.644	105.81
543.857	95.81
544.071	95.81
544.285	95.81
544.498	93.81
544.712	89.81
544.925	117.81
545.139	102.81
545.352	108.81
545.566	103.81
545.779	102.81
545.993	109.81
546.206	109.81
546.42	112.81
546.633	104.81
546.847	127.81
547.06	134.81
547.274	137.81
547.487	155.81
547.7	170.81
547.914	178.81
548.127	167.81
548.34	190.81
548.554	186.81
548.767	196.81
548.98	208.81
549.193	205.81
549.407	182.81
549.62	221.81
549.833	221.81
550.046	246.81
550.259	249.81
550.473	230.81
550.686	266.81
550.899	282.81
551.112	300.81
551.325	325.81
551.538	325.81
551.751	312.81
551.964	309.81
552.177	327.81
552.39	322.81
552.603	312.81
552.816	303.81
553.029	304.81
553.242	329.81
553.455	347.81
553.667	354.81
553.88	354.81
554.093	367.81
554.306	365.81
554.519	377.81
554.732	357.81
554.944	337.81
555.157	342.81
555.37	335.81
555.583	319.81
555.795	287.81
556.008	287.81
556.221	266.81
556.433	266.81
556.646	263.81
556.859	235.81
557.071	220.81
557.284	211.81
557.496	203.81
557.709	191.81
557.921	193.81
558.134	183.81
558.346	216.81
558.559	200.81
558.771	190.81
558.984	295.81
559.196	301.81
559.409	213.81
559.621	264.81
559.833	210.81
560.046	243.81
560.258	207.81
560.47	216.81
560.683	151.81
560.895	134.81
561.107	115.81
561.32	124.81
561.532	120.81
561.744	120.81
561.956	124.81
562.168	117.81
562.381	123.81
562.593	122.81
562.805	115.81
563.017	111.81
563.229	123.81
563.441	103.81
563.653	101.81
563.865	115.81
564.077	102.81
564.289	113.81
564.501	102.81
564.713	105.81
564.925	112.81
565.137	120.81
565.349	112.81
565.561	107.81
565.773	109.81
565.985	110.81
566.197	92.81
566.408	101.81
566.62	93.81
566.832	96.81
567.044	110.81
567.255	87.81
567.467	96.81
567.679	122.81
567.891	97.81
568.102	97.81
568.314	111.81
568.526	111.81
568.737	111.81
568.949	97.81
569.161	116.81
569.372	108.81
569.584	113.81
569.795	119.81
570.007	108.81
570.218	108.81
570.43	95.81
570.641	88.81
570.853	117.81
571.064	109.81
571.276	123.81
571.487	104.81
571.698	115.81
571.91	104.81
572.121	110.81
572.333	113.81
572.544	108.81
572.755	106.81
572.966	107.81
573.178	102.81
573.389	111.81
573.6	105.81
573.811	108.81
574.023	112.81
574.234	123.81
574.445	95.81
574.656	96.81
574.867	91.81
575.078	108.81
575.289	109.81
575.501	85.81
575.712	103.81
575.923	104.81
576.134	104.81
576.345	104.81
576.556	107.81
576.767	93.81
576.978	102.81
577.188	85.81
577.399	97.81
577.61	92.81
577.821	98.81
578.032	107.81
578.243	87.81
578.454	102.81
578.665	106.81
578.875	86.81
579.086	97.81
579.297	103.81
579.508	99.81
579.718	94.81
579.929	94.81
580.14	108.81
580.35	112.81
580.561	99.81
580.772	106.81
580.982	94.81
581.193	113.81
581.403	100.81
581.614	91.81
581.825	93.81
582.035	96.81
582.246	104.81
582.456	83.81
582.667	101.81
582.877	101.81
583.087	93.81
583.298	112.81
583.508	111.81
583.719	109.81
583.929	115.81
584.139	95.81
584.35	98.81
584.56	104.81
584.77	97.81
584.981	89.81
585.191	92.81
585.401	100.81
585.611	103.81
585.821	157.81
586.032	190.81
586.242	126.81
586.452	109.81
586.662	113.81
586.872	108.81
587.082	97.81
587.292	107.81
587.502	108.81
587.713	113.81
587.923	119.81
588.133	104.81
588.343	130.81
588.553	125.81
588.762	137.81
588.972	238.81
589.182	517.81
589.392	378.81
589.602	264.81
589.812	463.81
590.022	259.81
590.232	140.81
590.441	119.81
590.651	116.81
590.861	123.81
591.071	119.81
591.281	123.81
591.49	119.81
591.7	119.81
591.91	126.81
592.119	129.81
592.329	125.81
592.539	136.81
592.748	140.81
592.958	121.81
593.167	133.81
593.377	124.81
593.587	136.81
593.796	139.81
594.006	143.81
594.215	123.81
594.424	141.81
594.634	153.81
594.843	153.81
595.053	157.81
595.262	159.81
595.472	152.81
595.681	167.81
595.89	171.81
596.1	170.81
596.309	160.81
596.518	180.81
596.727	181.81
596.937	191.81
597.146	203.81
597.355	200.81
597.564	197.81
597.774	192.81
597.983	205.81
598.192	187.81
598.401	199.81
598.61	214.81
598.819	221.81
599.028	208.81
599.237	209.81
599.446	228.81
599.655	222.81
599.864	196.81
600.073	209.81
600.282	224.81
600.491	193.81
600.7	228.81
600.909	213.81
601.118	191.81
601.327	189.81
601.536	184.81
601.745	182.81
601.953	181.81
602.162	191.81
602.371	191.81
602.58	187.81
602.789	218.81
602.997	192.81
603.206	190.81
603.415	224.81
603.623	211.81
603.832	215.81
604.041	203.81
604.249	213.81
604.458	215.81
604.666	206.81
604.875	237.81
605.084	227.81
605.292	231.81
605.501	223.81
605.709	242.81
605.918	253.81
606.126	264.81
606.334	229.81
606.543	261.81
606.751	242.81
606.96	236.81
607.168	240.81
607.376	219.81
607.585	230.81
607.793	229.81
608.001	214.81
608.21	205.81
608.418	232.81
608.626	240.81
608.834	245.81
609.043	243.81
609.251	255.81
609.459	239.81
609.667	240.81
609.875	261.81
610.083	256.81
610.291	254.81
610.499	308.81
610.707	261.81
610.916	244.81
611.124	267.81
611.332	251.81
611.54	255.81
611.748	261.81
611.955	288.81
612.163	291.81
612.371	391.81
612.579	343.81
612.787	288.81
612.995	311.81
613.203	287.81
613.411	283.81
613.618	275.81
613.826	273.81
614.034	273.81
614.242	305.81
614.449	293.81
614.657	299.81
614.865	279.81
615.072	295.81
615.28	272.81
615.488	295.81
615.695	283.81
615.903	295.81
616.111	316.81
616.318	407.81
616.526	423.81
616.733	327.81
616.941	341.81
617.148	391.81
617.356	299.81
617.563	299.81
617.771	286.81
617.978	283.81
618.185	295.81
618.393	292.81
618.6	306.81
618.807	278.81
619.015	280.81
619.222	280.81
619.429	280.81
619.637	267.81
619.844	268.81
620.051	272.81
620.258	292.81
620.466	277.81
620.673	281.81
620.88	279.81
621.087	281.81
621.294	275.81
621.501	293.81
621.708	288.81
621.915	288.81
622.122	284.81
622.329	281.81
622.536	279.81
622.743	283.81
622.95	294.81
623.157	279.81
623.364	286.81
623.571	293.81
623.778	283.81
623.985	266.81
624.192	255.81
624.399	263.81
624.606	276.81
624.812	295.81
625.019	271.81
625.226	273.81
625.433	254.81
625.639	253.81
625.846	269.81
626.053	229.81
626.259	239.81
626.466	238.81
626.673	220.81
626.879	222.81
627.086	200.81
627.293	197.81
627.499	184.81
627.706	191.81
627.912	176.81
628.119	166.81
628.325	160.81
628.532	170.81
628.738	144.81
628.945	150.81
629.151	130.81
629.357	130.81
629.564	135.81
629.77	134.81
629.976	123.81
630.183	116.81
630.389	117.81
630.595	124.81
630.802	101.81
631.008	123.81
631.214	127.81
631.42	111.81
631.627	110.81
631.833	114.81
632.039	111.81
632.245	103.81
632.451	108.81
632.657	109.81
632.863	117.81
633.069	126.81
633.275	111.81
633.481	117.81
633.688	105.81
633.893	113.81
634.099	105.81
634.305	114.81
634.511	121.81
634.717	122.81
634.923	116.81
635.129	111.81
635.335	107.81
635.541	107.81
635.747	107.81
635.952	103.81
636.158	113.81
636.364	109.81
636.57	117.81
636.775	107.81
636.981	112.81
637.187	99.81
637.392	106.81
637.598	102.81
637.804	109.81
638.009	111.81
638.215	121.81
638.421	103.81
638.626	103.81
638.832	102.81
639.037	103.81
639.243	109.81
639.448	115.81
639.654	111.81
639.859	111.81
640.065	102.81
640.27	113.81
640.475	99.81
640.681	110.81
640.886	107.81
641.091	105.81
641.297	97.81
641.502	106.81
641.707	104.81
641.913	107.81
642.118	112.81
642.323	111.81
642.528	118.81
642.733	101.81
642.939	125.81
643.144	120.81
643.349	109.81
643.554	118.81
643.759	112.81
643.964	123.81
644.169	165.81
644.374	120.81
644.579	103.81
644.784	111.81
644.989	99.81
645.194	123.81
645.399	107.81
645.604	103.81
645.809	113.81
646.014	106.81
646.219	103.81
646.423	145.81
646.628	125.81
646.833	103.81
647.038	109.81
647.243	113.81
647.447	108.81
647.652	103.81
647.857	103.81
648.062	98.81
648.266	102.81
648.471	99.81
648.676	82.81
648.88	99.81
649.085	101.81
649.289	91.81
649.494	111.81
649.698	137.81
649.903	98.81
650.107	91.81
650.312	100.81
650.516	98.81
650.721	104.81
650.925	89.81
651.13	94.81
651.334	94.81
651.539	96.81
651.743	100.81
651.947	83.81
652.152	83.81
652.356	85.81
652.56	96.81
652.764	83.81
652.969	91.81
653.173	95.81
653.377	82.81
653.581	76.81
653.785	87.81
653.99	81.81
654.194	76.81
654.398	70.81
654.602	96.81
654.806	86.81
655.01	87.81
655.214	82.81
655.418	99.81
655.622	96.81
655.826	85.81
656.03	77.81
656.234	78.81
656.438	84.81
656.642	94.81
656.846	85.81
657.049	98.81
657.253	69.81
657.457	74.81
657.661	93.81
657.865	68.81
658.068	87.81
658.272	79.81
658.476	84.81
658.68	95.81
658.883	83.81
659.087	85.81
659.291	100.81
659.494	87.81
659.698	82.81
659.901	79.81
660.105	91.81
660.309	84.81
660.512	76.81
660.716	92.81
660.919	83.81
661.123	76.81
661.326	79.81
661.53	81.81
661.733	78.81
661.936	84.81
662.14	68.81
662.343	88.81
662.546	88.81
662.75	88.81
662.953	88.81
663.156	86.81
663.36	74.81
663.563	82.81
663.766	76.81
663.969	93.81
664.173	88.81
664.376	76.81
664.579	78.81
664.782	89.81
664.985	90.81
665.188	82.81
665.391	68.81
665.594	79.81
665.797	78.81
666	78.81
666.203	86.81
666.406	79.81
666.609	80.81
666.812	97.81
667.015	70.81
667.218	79.81
667.421	77.81
667.624	75.81
667.827	71.81
668.03	73.81
668.232	76.81
668.435	74.81
668.638	72.81
668.841	80.81
669.043	79.81
669.246	86.81
669.449	89.81
669.651	72.81
669.854	88.81
670.057	82.81
670.259	79.81
670.462	82.81
670.665	80.81
670.867	82.81
671.07	75.81
671.272	78.81
671.475	77.81
671.677	90.81
671.88	79.81
672.082	76.81
672.284	71.81
672.487	74.81
672.689	72.81
672.892	92.81
