Data from Uncirc_2001_H10_HRD10591_00014.txt Node
Date: Wed Jan 03 10:43:59 EST 2024
User: Yrep
Spectrometer: HR+D1059
Trigger mode: 1
Integration Time (sec): 1.000000E-1
Scans to average: 1
Electric dark correction enabled: true
Nonlinearity correction enabled: false
Boxcar width: 0
XAxis mode: Wavelengths
Number of Pixels in Spectrum: 2048
>>>>>Begin Spectral Data<<<<<
223.165	-21.81
223.4	-21.81
223.635	-21.81
223.869	-17.81
224.104	-27.81
224.338	-9.81
224.573	1.19
224.808	-21.81
225.042	-6.81
225.277	-8.81
225.511	-4.81
225.746	5.19
225.98	17.19
226.215	3.19
226.449	14.19
226.683	20.19
226.918	34.19
227.152	24.19
227.387	36.19
227.621	47.19
227.856	38.19
228.09	41.19
228.324	48.19
228.559	54.19
228.793	53.19
229.027	48.19
229.262	65.19
229.496	77.19
229.73	71.19
229.964	83.19
230.199	79.19
230.433	79.19
230.667	87.19
230.901	72.19
231.136	58.19
231.37	65.19
231.604	61.19
231.838	77.19
232.072	63.19
232.306	87.19
232.541	74.19
232.775	77.19
233.009	84.19
233.243	85.19
233.477	71.19
233.711	89.19
233.945	88.19
234.179	70.19
234.413	85.19
234.647	76.19
234.881	82.19
235.115	83.19
235.349	74.19
235.583	86.19
235.817	80.19
236.051	65.19
236.285	82.19
236.519	79.19
236.753	65.19
236.987	65.19
237.221	74.19
237.455	77.19
237.689	81.19
237.922	64.19
238.156	66.19
238.39	70.19
238.624	72.19
238.858	69.19
239.091	66.19
239.325	77.19
239.559	84.19
239.793	75.19
240.027	89.19
240.26	76.19
240.494	79.19
240.728	65.19
240.961	70.19
241.195	78.19
241.429	72.19
241.662	68.19
241.896	82.19
242.13	73.19
242.363	82.19
242.597	68.19
242.83	87.19
243.064	74.19
243.298	77.19
243.531	77.19
243.765	85.19
243.998	81.19
244.232	84.19
244.465	73.19
244.699	87.19
244.932	73.19
245.166	84.19
245.399	80.19
245.633	73.19
245.866	87.19
246.099	68.19
246.333	69.19
246.566	87.19
246.8	75.19
247.033	70.19
247.266	71.19
247.5	78.19
247.733	83.19
247.966	71.19
248.2	81.19
248.433	76.19
248.666	75.19
248.899	89.19
249.133	79.19
249.366	86.19
249.599	94.19
249.832	90.19
250.066	82.19
250.299	81.19
250.532	84.19
250.765	80.19
250.998	80.19
251.231	77.19
251.465	68.19
251.698	89.19
251.931	84.19
252.164	81.19
252.397	73.19
252.63	71.19
252.863	78.19
253.096	70.19
253.329	78.19
253.562	72.19
253.795	79.19
254.028	81.19
254.261	69.19
254.494	98.19
254.727	77.19
254.96	87.19
255.193	85.19
255.426	87.19
255.659	83.19
255.892	79.19
256.124	79.19
256.357	78.19
256.59	91.19
256.823	82.19
257.056	72.19
257.289	67.19
257.521	73.19
257.754	66.19
257.987	77.19
258.22	83.19
258.452	91.19
258.685	73.19
258.918	80.19
259.151	79.19
259.383	94.19
259.616	75.19
259.849	67.19
260.081	79.19
260.314	89.19
260.547	79.19
260.779	82.19
261.012	80.19
261.244	81.19
261.477	79.19
261.71	95.19
261.942	85.19
262.175	111.19
262.407	93.19
262.64	76.19
262.872	81.19
263.105	79.19
263.337	77.19
263.57	72.19
263.802	88.19
264.035	76.19
264.267	79.19
264.499	88.19
264.732	74.19
264.964	81.19
265.197	87.19
265.429	83.19
265.661	80.19
265.894	81.19
266.126	71.19
266.358	87.19
266.591	79.19
266.823	73.19
267.055	80.19
267.287	80.19
267.52	82.19
267.752	83.19
267.984	71.19
268.216	80.19
268.448	72.19
268.681	92.19
268.913	70.19
269.145	86.19
269.377	94.19
269.609	81.19
269.841	85.19
270.073	80.19
270.306	71.19
270.538	77.19
270.77	87.19
271.002	88.19
271.234	83.19
271.466	68.19
271.698	82.19
271.93	85.19
272.162	73.19
272.394	79.19
272.626	78.19
272.858	84.19
273.09	91.19
273.322	71.19
273.553	81.19
273.785	82.19
274.017	77.19
274.249	62.19
274.481	85.19
274.713	79.19
274.945	71.19
275.176	83.19
275.408	87.19
275.64	86.19
275.872	86.19
276.104	85.19
276.335	84.19
276.567	85.19
276.799	87.19
277.031	94.19
277.262	77.19
277.494	78.19
277.726	88.19
277.957	75.19
278.189	86.19
278.421	89.19
278.652	91.19
278.884	79.19
279.115	77.19
279.347	79.19
279.579	67.19
279.81	92.19
280.042	92.19
280.273	85.19
280.505	77.19
280.736	90.19
280.968	89.19
281.199	83.19
281.431	78.19
281.662	90.19
281.894	89.19
282.125	99.19
282.356	114.19
282.588	146.19
282.819	111.19
283.051	89.19
283.282	68.19
283.513	83.19
283.745	87.19
283.976	83.19
284.207	81.19
284.439	98.19
284.67	81.19
284.901	93.19
285.132	87.19
285.364	85.19
285.595	77.19
285.826	72.19
286.057	80.19
286.288	87.19
286.52	91.19
286.751	88.19
286.982	80.19
287.213	70.19
287.444	63.19
287.675	88.19
287.906	87.19
288.138	85.19
288.369	83.19
288.6	101.19
288.831	86.19
289.062	85.19
289.293	89.19
289.524	86.19
289.755	79.19
289.986	87.19
290.217	90.19
290.448	74.19
290.679	85.19
290.91	82.19
291.141	75.19
291.371	89.19
291.602	79.19
291.833	86.19
292.064	80.19
292.295	77.19
292.526	82.19
292.757	89.19
292.987	78.19
293.218	89.19
293.449	79.19
293.68	74.19
293.91	78.19
294.141	96.19
294.372	81.19
294.603	79.19
294.833	88.19
295.064	84.19
295.295	80.19
295.525	93.19
295.756	92.19
295.987	99.19
296.217	130.19
296.448	134.19
296.679	94.19
296.909	110.19
297.14	91.19
297.37	96.19
297.601	90.19
297.831	82.19
298.062	81.19
298.292	88.19
298.523	83.19
298.753	83.19
298.984	80.19
299.214	97.19
299.445	68.19
299.675	94.19
299.905	90.19
300.136	91.19
300.366	76.19
300.597	76.19
300.827	88.19
301.057	92.19
301.288	88.19
301.518	91.19
301.748	92.19
301.979	97.19
302.209	79.19
302.439	87.19
302.669	99.19
302.9	103.19
303.13	85.19
303.36	87.19
303.59	81.19
303.82	90.19
304.051	78.19
304.281	92.19
304.511	81.19
304.741	70.19
304.971	73.19
305.201	85.19
305.431	90.19
305.661	93.19
305.891	88.19
306.121	94.19
306.352	98.19
306.582	103.19
306.812	80.19
307.042	88.19
307.272	90.19
307.502	101.19
307.731	88.19
307.961	91.19
308.191	83.19
308.421	85.19
308.651	79.19
308.881	94.19
309.111	78.19
309.341	81.19
309.571	95.19
309.8	101.19
310.03	91.19
310.26	100.19
310.49	111.19
310.72	101.19
310.949	105.19
311.179	99.19
311.409	70.19
311.639	84.19
311.868	77.19
312.098	91.19
312.328	88.19
312.557	97.19
312.787	99.19
313.017	90.19
313.246	92.19
313.476	83.19
313.706	79.19
313.935	87.19
314.165	101.19
314.394	91.19
314.624	87.19
314.853	96.19
315.083	69.19
315.312	75.19
315.542	87.19
315.771	96.19
316.001	90.19
316.23	96.19
316.46	82.19
316.689	89.19
316.919	97.19
317.148	95.19
317.377	95.19
317.607	87.19
317.836	92.19
318.065	85.19
318.295	86.19
318.524	86.19
318.753	98.19
318.983	85.19
319.212	102.19
319.441	111.19
319.67	97.19
319.9	91.19
320.129	79.19
320.358	107.19
320.587	85.19
320.816	82.19
321.046	87.19
321.275	73.19
321.504	88.19
321.733	86.19
321.962	99.19
322.191	102.19
322.42	98.19
322.649	114.19
322.878	115.19
323.108	123.19
323.337	133.19
323.566	118.19
323.795	141.19
324.024	191.19
324.253	341.19
324.482	711.19
324.71	1421.19
324.939	1777.19
325.168	657.19
325.397	210.19
325.626	141.19
325.855	122.19
326.084	114.19
326.313	127.19
326.542	165.19
326.77	199.19
326.999	387.19
327.228	772.19
327.457	1369.19
327.686	1089.19
327.914	312.19
328.143	166.19
328.372	134.19
328.6	121.19
328.829	116.19
329.058	112.19
329.287	105.19
329.515	104.19
329.744	106.19
329.972	110.19
330.201	94.19
330.43	85.19
330.658	118.19
330.887	131.19
331.115	105.19
331.344	99.19
331.572	90.19
331.801	91.19
332.03	91.19
332.258	93.19
332.486	95.19
332.715	95.19
332.943	81.19
333.172	87.19
333.4	96.19
333.629	103.19
333.857	103.19
334.085	104.19
334.314	88.19
334.542	96.19
334.771	92.19
334.999	74.19
335.227	98.19
335.455	104.19
335.684	96.19
335.912	94.19
336.14	95.19
336.369	97.19
336.597	82.19
336.825	106.19
337.053	89.19
337.281	84.19
337.51	83.19
337.738	92.19
337.966	101.19
338.194	90.19
338.422	85.19
338.65	71.19
338.878	87.19
339.106	87.19
339.334	87.19
339.562	84.19
339.79	93.19
340.018	105.19
340.246	92.19
340.474	91.19
340.702	86.19
340.93	86.19
341.158	90.19
341.386	86.19
341.614	95.19
341.842	94.19
342.07	94.19
342.298	99.19
342.526	93.19
342.754	91.19
342.981	89.19
343.209	98.19
343.437	96.19
343.665	92.19
343.893	83.19
344.12	109.19
344.348	92.19
344.576	88.19
344.804	84.19
345.031	84.19
345.259	90.19
345.487	93.19
345.714	101.19
345.942	94.19
346.17	80.19
346.397	88.19
346.625	85.19
346.853	88.19
347.08	87.19
347.308	102.19
347.535	99.19
347.763	101.19
347.99	95.19
348.218	96.19
348.445	86.19
348.673	95.19
348.9	83.19
349.128	88.19
349.355	95.19
349.583	102.19
349.81	82.19
350.037	82.19
350.265	80.19
350.492	81.19
350.72	105.19
350.947	96.19
351.174	97.19
351.402	98.19
351.629	100.19
351.856	104.19
352.083	102.19
352.311	89.19
352.538	103.19
352.765	119.19
352.992	114.19
353.22	110.19
353.447	97.19
353.674	91.19
353.901	98.19
354.128	98.19
354.355	103.19
354.583	97.19
354.81	98.19
355.037	95.19
355.264	88.19
355.491	93.19
355.718	95.19
355.945	79.19
356.172	83.19
356.399	95.19
356.626	87.19
356.853	88.19
357.08	89.19
357.307	82.19
357.534	94.19
357.761	93.19
357.988	102.19
358.215	101.19
358.441	73.19
358.668	86.19
358.895	90.19
359.122	91.19
359.349	97.19
359.576	98.19
359.802	104.19
360.029	105.19
360.256	122.19
360.483	99.19
360.709	87.19
360.936	95.19
361.163	108.19
361.39	105.19
361.616	99.19
361.843	88.19
362.07	99.19
362.296	93.19
362.523	94.19
362.749	91.19
362.976	83.19
363.203	88.19
363.429	85.19
363.656	84.19
363.882	89.19
364.109	82.19
364.335	103.19
364.562	78.19
364.788	76.19
365.015	82.19
365.241	90.19
365.468	98.19
365.694	105.19
365.92	97.19
366.147	81.19
366.373	93.19
366.599	91.19
366.826	70.19
367.052	96.19
367.278	93.19
367.505	81.19
367.731	96.19
367.957	80.19
368.184	101.19
368.41	102.19
368.636	98.19
368.862	113.19
369.089	96.19
369.315	100.19
369.541	99.19
369.767	87.19
369.993	89.19
370.219	89.19
370.445	78.19
370.672	86.19
370.898	90.19
371.124	86.19
371.35	78.19
371.576	98.19
371.802	82.19
372.028	83.19
372.254	106.19
372.48	85.19
372.706	80.19
372.932	93.19
373.158	94.19
373.384	80.19
373.61	85.19
373.835	92.19
374.061	89.19
374.287	107.19
374.513	78.19
374.739	100.19
374.965	94.19
375.191	85.19
375.416	90.19
375.642	88.19
375.868	93.19
376.094	94.19
376.319	100.19
376.545	94.19
376.771	81.19
376.997	85.19
377.222	74.19
377.448	85.19
377.674	74.19
377.899	91.19
378.125	88.19
378.35	100.19
378.576	83.19
378.802	82.19
379.027	94.19
379.253	88.19
379.478	89.19
379.704	102.19
379.929	102.19
380.155	81.19
380.38	89.19
380.606	95.19
380.831	81.19
381.057	88.19
381.282	91.19
381.507	102.19
381.733	89.19
381.958	102.19
382.184	101.19
382.409	104.19
382.634	97.19
382.86	93.19
383.085	111.19
383.31	112.19
383.535	105.19
383.761	93.19
383.986	89.19
384.211	111.19
384.436	110.19
384.662	101.19
384.887	105.19
385.112	119.19
385.337	112.19
385.562	119.19
385.787	112.19
386.013	94.19
386.238	108.19
386.463	100.19
386.688	125.19
386.913	106.19
387.138	109.19
387.363	115.19
387.588	105.19
387.813	111.19
388.038	105.19
388.263	109.19
388.488	103.19
388.713	104.19
388.938	94.19
389.163	98.19
389.387	87.19
389.612	103.19
389.837	86.19
390.062	84.19
390.287	89.19
390.512	88.19
390.736	86.19
390.961	94.19
391.186	94.19
391.411	90.19
391.636	96.19
391.86	95.19
392.085	86.19
392.31	88.19
392.534	81.19
392.759	82.19
392.984	79.19
393.208	91.19
393.433	96.19
393.658	101.19
393.882	84.19
394.107	105.19
394.331	87.19
394.556	74.19
394.78	94.19
395.005	98.19
395.229	70.19
395.454	85.19
395.678	78.19
395.903	77.19
396.127	89.19
396.352	87.19
396.576	82.19
396.801	101.19
397.025	106.19
397.249	89.19
397.474	96.19
397.698	89.19
397.922	80.19
398.147	83.19
398.371	79.19
398.595	89.19
398.82	96.19
399.044	88.19
399.268	81.19
399.492	80.19
399.717	90.19
399.941	91.19
400.165	88.19
400.389	81.19
400.613	84.19
400.837	86.19
401.062	87.19
401.286	81.19
401.51	87.19
401.734	102.19
401.958	106.19
402.182	119.19
402.406	139.19
402.63	116.19
402.854	88.19
403.078	71.19
403.302	85.19
403.526	88.19
403.75	92.19
403.974	74.19
404.198	81.19
404.422	95.19
404.645	102.19
404.869	91.19
405.093	91.19
405.317	80.19
405.541	72.19
405.765	87.19
405.988	110.19
406.212	163.19
406.436	193.19
406.66	130.19
406.883	97.19
407.107	87.19
407.331	101.19
407.555	87.19
407.778	86.19
408.002	85.19
408.226	85.19
408.449	74.19
408.673	81.19
408.896	86.19
409.12	87.19
409.344	102.19
409.567	89.19
409.791	89.19
410.014	101.19
410.238	89.19
410.461	83.19
410.685	87.19
410.908	101.19
411.132	95.19
411.355	99.19
411.578	83.19
411.802	87.19
412.025	95.19
412.249	88.19
412.472	90.19
412.695	77.19
412.919	91.19
413.142	89.19
413.365	89.19
413.589	98.19
413.812	85.19
414.035	89.19
414.258	85.19
414.482	106.19
414.705	86.19
414.928	76.19
415.151	101.19
415.374	86.19
415.597	85.19
415.821	80.19
416.044	89.19
416.267	95.19
416.49	88.19
416.713	95.19
416.936	96.19
417.159	77.19
417.382	81.19
417.605	88.19
417.828	110.19
418.051	102.19
418.274	86.19
418.497	94.19
418.72	85.19
418.943	79.19
419.166	90.19
419.389	78.19
419.611	88.19
419.834	91.19
420.057	85.19
420.28	92.19
420.503	108.19
420.726	85.19
420.948	81.19
421.171	95.19
421.394	98.19
421.617	85.19
421.839	84.19
422.062	81.19
422.285	87.19
422.507	96.19
422.73	109.19
422.953	80.19
423.175	96.19
423.398	84.19
423.621	83.19
423.843	86.19
424.066	84.19
424.288	84.19
424.511	96.19
424.733	90.19
424.956	97.19
425.178	90.19
425.401	89.19
425.623	90.19
425.846	93.19
426.068	98.19
426.291	89.19
426.513	96.19
426.735	89.19
426.958	85.19
427.18	91.19
427.402	125.19
427.625	142.19
427.847	115.19
428.069	97.19
428.292	101.19
428.514	85.19
428.736	100.19
428.958	84.19
429.181	81.19
429.403	81.19
429.625	88.19
429.847	91.19
430.069	93.19
430.292	87.19
430.514	80.19
430.736	98.19
430.958	80.19
431.18	97.19
431.402	68.19
431.624	81.19
431.846	84.19
432.068	94.19
432.29	88.19
432.512	82.19
432.734	85.19
432.956	80.19
433.178	90.19
433.4	86.19
433.622	101.19
433.844	102.19
434.066	87.19
434.287	83.19
434.509	96.19
434.731	66.19
434.953	82.19
435.175	84.19
435.397	95.19
435.618	74.19
435.84	95.19
436.062	100.19
436.284	98.19
436.505	87.19
436.727	107.19
436.949	90.19
437.17	84.19
437.392	78.19
437.614	99.19
437.835	101.19
438.057	112.19
438.278	103.19
438.5	100.19
438.721	106.19
438.943	102.19
439.165	85.19
439.386	95.19
439.608	86.19
439.829	84.19
440.05	109.19
440.272	134.19
440.493	101.19
440.715	82.19
440.936	92.19
441.158	89.19
441.379	85.19
441.6	94.19
441.822	82.19
442.043	78.19
442.264	111.19
442.486	113.19
442.707	90.19
442.928	99.19
443.149	111.19
443.371	129.19
443.592	97.19
443.813	109.19
444.034	107.19
444.255	97.19
444.476	92.19
444.698	74.19
444.919	82.19
445.14	136.19
445.361	124.19
445.582	125.19
445.803	110.19
446.024	116.19
446.245	116.19
446.466	106.19
446.687	81.19
446.908	81.19
447.129	86.19
447.35	77.19
447.571	99.19
447.792	85.19
448.013	104.19
448.234	102.19
448.455	96.19
448.675	111.19
448.896	119.19
449.117	99.19
449.338	90.19
449.559	128.19
449.779	135.19
450	93.19
450.221	82.19
450.442	112.19
450.662	86.19
450.883	96.19
451.104	107.19
451.324	103.19
451.545	97.19
451.766	85.19
451.986	88.19
452.207	84.19
452.428	103.19
452.648	110.19
452.869	88.19
453.089	112.19
453.31	104.19
453.53	89.19
453.751	88.19
453.971	105.19
454.192	97.19
454.412	85.19
454.633	84.19
454.853	88.19
455.073	93.19
455.294	97.19
455.514	103.19
455.734	92.19
455.955	85.19
456.175	76.19
456.395	92.19
456.616	85.19
456.836	81.19
457.056	97.19
457.276	80.19
457.497	83.19
457.717	78.19
457.937	81.19
458.157	93.19
458.377	100.19
458.598	103.19
458.818	136.19
459.038	149.19
459.258	107.19
459.478	94.19
459.698	93.19
459.918	66.19
460.138	79.19
460.358	90.19
460.578	95.19
460.798	102.19
461.018	87.19
461.238	80.19
461.458	87.19
461.678	78.19
461.898	81.19
462.118	85.19
462.338	95.19
462.558	89.19
462.777	87.19
462.997	91.19
463.217	98.19
463.437	88.19
463.657	84.19
463.876	85.19
464.096	70.19
464.316	93.19
464.536	87.19
464.755	91.19
464.975	118.19
465.195	149.19
465.414	145.19
465.634	93.19
465.854	86.19
466.073	69.19
466.293	73.19
466.512	70.19
466.732	84.19
466.951	85.19
467.171	85.19
467.391	84.19
467.61	109.19
467.829	79.19
468.049	91.19
468.268	94.19
468.488	95.19
468.707	83.19
468.927	73.19
469.146	88.19
469.365	101.19
469.585	88.19
469.804	101.19
470.023	84.19
470.243	93.19
470.462	100.19
470.681	90.19
470.901	86.19
471.12	93.19
471.339	85.19
471.558	83.19
471.777	72.19
471.997	79.19
472.216	85.19
472.435	88.19
472.654	92.19
472.873	93.19
473.092	87.19
473.311	85.19
473.53	78.19
473.749	91.19
473.968	82.19
474.187	98.19
474.406	103.19
474.625	87.19
474.844	81.19
475.063	83.19
475.282	78.19
475.501	78.19
475.72	83.19
475.939	102.19
476.158	91.19
476.377	88.19
476.596	86.19
476.814	90.19
477.033	81.19
477.252	81.19
477.471	95.19
477.69	86.19
477.908	85.19
478.127	95.19
478.346	95.19
478.564	86.19
478.783	92.19
479.002	90.19
479.22	93.19
479.439	95.19
479.658	106.19
479.876	103.19
480.095	90.19
480.313	81.19
480.532	91.19
480.751	77.19
480.969	100.19
481.188	98.19
481.406	92.19
481.624	104.19
481.843	82.19
482.061	78.19
482.28	95.19
482.498	80.19
482.717	89.19
482.935	79.19
483.153	90.19
483.372	89.19
483.59	97.19
483.808	104.19
484.027	93.19
484.245	95.19
484.463	91.19
484.681	100.19
484.9	98.19
485.118	95.19
485.336	98.19
485.554	96.19
485.772	90.19
485.99	121.19
486.209	99.19
486.427	97.19
486.645	106.19
486.863	105.19
487.081	97.19
487.299	89.19
487.517	115.19
487.735	101.19
487.953	83.19
488.171	87.19
488.389	90.19
488.607	85.19
488.825	95.19
489.043	76.19
489.261	91.19
489.479	88.19
489.696	96.19
489.914	87.19
490.132	92.19
490.35	99.19
490.568	95.19
490.786	89.19
491.003	93.19
491.221	92.19
491.439	84.19
491.657	99.19
491.874	90.19
492.092	79.19
492.31	88.19
492.527	78.19
492.745	91.19
492.963	103.19
493.18	88.19
493.398	95.19
493.615	90.19
493.833	97.19
494.05	81.19
494.268	92.19
494.485	88.19
494.703	77.19
494.92	87.19
495.138	83.19
495.355	83.19
495.573	87.19
495.79	81.19
496.008	65.19
496.225	89.19
496.442	92.19
496.66	97.19
496.877	93.19
497.094	88.19
497.312	88.19
497.529	75.19
497.746	95.19
497.963	90.19
498.181	89.19
498.398	90.19
498.615	118.19
498.832	90.19
499.049	93.19
499.267	93.19
499.484	85.19
499.701	74.19
499.918	100.19
500.135	75.19
500.352	86.19
500.569	81.19
500.786	97.19
501.003	94.19
501.22	82.19
501.437	93.19
501.654	89.19
501.871	97.19
502.088	87.19
502.305	99.19
502.522	84.19
502.739	81.19
502.956	89.19
503.172	83.19
503.389	90.19
503.606	102.19
503.823	97.19
504.04	90.19
504.256	87.19
504.473	87.19
504.69	110.19
504.907	90.19
505.123	92.19
505.34	82.19
505.557	93.19
505.773	90.19
505.99	93.19
506.207	79.19
506.423	76.19
506.64	91.19
506.856	96.19
507.073	93.19
507.289	79.19
507.506	90.19
507.722	98.19
507.939	114.19
508.155	101.19
508.372	86.19
508.588	93.19
508.805	100.19
509.021	94.19
509.238	86.19
509.454	88.19
509.67	88.19
509.887	99.19
510.103	129.19
510.319	205.19
510.536	707.19
510.752	2091.19
510.968	596.19
511.184	143.19
511.401	115.19
511.617	102.19
511.833	101.19
512.049	89.19
512.265	97.19
512.481	93.19
512.698	90.19
512.914	90.19
513.13	98.19
513.346	93.19
513.562	79.19
513.778	103.19
513.994	92.19
514.21	105.19
514.426	109.19
514.642	129.19
514.858	122.19
515.074	163.19
515.29	422.19
515.506	1329.19
515.721	493.19
515.937	129.19
516.153	116.19
516.369	88.19
516.585	73.19
516.801	85.19
517.016	84.19
517.232	85.19
517.448	98.19
517.664	106.19
517.879	84.19
518.095	88.19
518.311	88.19
518.527	90.19
518.742	89.19
518.958	88.19
519.173	86.19
519.389	94.19
519.605	106.19
519.82	91.19
520.036	97.19
520.251	118.19
520.467	108.19
520.682	105.19
520.898	109.19
521.113	111.19
521.329	144.19
521.544	181.19
521.76	526.19
521.975	2178.19
522.19	1293.19
522.406	277.19
522.621	102.19
522.836	114.19
523.052	97.19
523.267	101.19
523.482	104.19
523.698	109.19
523.913	113.19
524.128	103.19
524.343	97.19
524.559	95.19
524.774	79.19
524.989	93.19
525.204	104.19
525.419	107.19
525.634	87.19
525.849	94.19
526.064	77.19
526.28	77.19
526.495	85.19
526.71	84.19
526.925	74.19
527.14	96.19
527.355	87.19
527.57	88.19
527.785	80.19
527.999	76.19
528.214	94.19
528.429	98.19
528.644	94.19
528.859	90.19
529.074	91.19
529.289	123.19
529.503	158.19
529.718	111.19
529.933	95.19
530.148	79.19
530.363	96.19
530.577	88.19
530.792	90.19
531.007	78.19
531.221	85.19
531.436	96.19
531.651	73.19
531.865	82.19
532.08	86.19
532.295	94.19
532.509	86.19
532.724	102.19
532.938	103.19
533.153	105.19
533.367	91.19
533.582	101.19
533.796	89.19
534.011	87.19
534.225	79.19
534.44	93.19
534.654	76.19
534.868	90.19
535.083	85.19
535.297	94.19
535.511	108.19
535.726	94.19
535.94	90.19
536.154	106.19
536.369	94.19
536.583	81.19
536.797	85.19
537.011	85.19
537.225	86.19
537.44	83.19
537.654	81.19
537.868	94.19
538.082	99.19
538.296	77.19
538.51	86.19
538.724	87.19
538.938	92.19
539.153	106.19
539.367	96.19
539.581	89.19
539.795	86.19
540.009	95.19
540.222	104.19
540.436	83.19
540.65	90.19
540.864	91.19
541.078	91.19
541.292	83.19
541.506	86.19
541.72	82.19
541.934	92.19
542.147	87.19
542.361	78.19
542.575	91.19
542.789	82.19
543.002	84.19
543.216	85.19
543.43	92.19
543.644	74.19
543.857	96.19
544.071	97.19
544.285	85.19
544.498	97.19
544.712	67.19
544.925	96.19
545.139	89.19
545.352	89.19
545.566	78.19
545.779	81.19
545.993	84.19
546.206	85.19
546.42	80.19
546.633	94.19
546.847	83.19
547.06	89.19
547.274	82.19
547.487	83.19
547.7	89.19
547.914	90.19
548.127	101.19
548.34	69.19
548.554	83.19
548.767	78.19
548.98	73.19
549.193	81.19
549.407	77.19
549.62	92.19
549.833	77.19
550.046	79.19
550.259	86.19
550.473	83.19
550.686	103.19
550.899	96.19
551.112	92.19
551.325	94.19
551.538	87.19
551.751	87.19
551.964	86.19
552.177	91.19
552.39	77.19
552.603	80.19
552.816	94.19
553.029	88.19
553.242	90.19
553.455	81.19
553.667	97.19
553.88	109.19
554.093	91.19
554.306	102.19
554.519	86.19
554.732	98.19
554.944	92.19
555.157	91.19
555.37	88.19
555.583	104.19
555.795	95.19
556.008	91.19
556.221	91.19
556.433	98.19
556.646	87.19
556.859	102.19
557.071	86.19
557.284	79.19
557.496	86.19
557.709	74.19
557.921	82.19
558.134	82.19
558.346	84.19
558.559	97.19
558.771	87.19
558.984	73.19
559.196	81.19
559.409	90.19
559.621	77.19
559.833	92.19
560.046	85.19
560.258	84.19
560.47	91.19
560.683	90.19
560.895	80.19
561.107	90.19
561.32	95.19
561.532	90.19
561.744	92.19
561.956	91.19
562.168	106.19
562.381	100.19
562.593	96.19
562.805	84.19
563.017	96.19
563.229	83.19
563.441	81.19
563.653	88.19
563.865	89.19
564.077	87.19
564.289	93.19
564.501	97.19
564.713	82.19
564.925	93.19
565.137	91.19
565.349	99.19
565.561	87.19
565.773	85.19
565.985	88.19
566.197	87.19
566.408	86.19
566.62	76.19
566.832	83.19
567.044	82.19
567.255	91.19
567.467	96.19
567.679	91.19
567.891	85.19
568.102	71.19
568.314	103.19
568.526	106.19
568.737	73.19
568.949	94.19
569.161	90.19
569.372	95.19
569.584	91.19
569.795	95.19
570.007	105.19
570.218	222.19
570.43	124.19
570.641	83.19
570.853	88.19
571.064	88.19
571.276	77.19
571.487	89.19
571.698	82.19
571.91	93.19
572.121	88.19
572.333	89.19
572.544	81.19
572.755	88.19
572.966	81.19
573.178	86.19
573.389	100.19
573.6	93.19
573.811	71.19
574.023	91.19
574.234	82.19
574.445	84.19
574.656	100.19
574.867	80.19
575.078	83.19
575.289	74.19
575.501	87.19
575.712	63.19
575.923	89.19
576.134	99.19
576.345	88.19
576.556	83.19
576.767	78.19
576.978	100.19
577.188	86.19
577.399	90.19
577.61	96.19
577.821	94.19
578.032	125.19
578.243	267.19
578.454	709.19
578.665	196.19
578.875	103.19
579.086	81.19
579.297	97.19
579.508	83.19
579.718	94.19
579.929	81.19
580.14	81.19
580.35	95.19
580.561	86.19
580.772	83.19
580.982	96.19
581.193	80.19
581.403	80.19
581.614	59.19
581.825	85.19
582.035	83.19
582.246	87.19
582.456	82.19
582.667	87.19
582.877	91.19
583.087	83.19
583.298	78.19
583.508	71.19
583.719	87.19
583.929	84.19
584.139	81.19
584.35	80.19
584.56	96.19
584.77	87.19
584.981	82.19
585.191	85.19
585.401	72.19
585.611	86.19
585.821	88.19
586.032	76.19
586.242	88.19
586.452	75.19
586.662	92.19
586.872	85.19
587.082	66.19
587.292	76.19
587.502	94.19
587.713	89.19
587.923	94.19
588.133	91.19
588.343	77.19
588.553	73.19
588.762	76.19
588.972	93.19
589.182	86.19
589.392	83.19
589.602	98.19
589.812	91.19
590.022	95.19
590.232	80.19
590.441	82.19
590.651	89.19
590.861	78.19
591.071	82.19
591.281	89.19
591.49	74.19
591.7	95.19
591.91	99.19
592.119	90.19
592.329	93.19
592.539	82.19
592.748	74.19
592.958	77.19
593.167	86.19
593.377	81.19
593.587	95.19
593.796	83.19
594.006	81.19
594.215	89.19
594.424	69.19
594.634	97.19
594.843	76.19
595.053	74.19
595.262	98.19
595.472	98.19
595.681	87.19
595.89	83.19
596.1	83.19
596.309	74.19
596.518	79.19
596.727	83.19
596.937	91.19
597.146	77.19
597.355	73.19
597.564	87.19
597.774	82.19
597.983	90.19
598.192	80.19
598.401	80.19
598.61	92.19
598.819	74.19
599.028	88.19
599.237	74.19
599.446	79.19
599.655	79.19
599.864	90.19
600.073	85.19
600.282	85.19
600.491	94.19
600.7	87.19
600.909	87.19
601.118	74.19
601.327	88.19
601.536	86.19
601.745	79.19
601.953	88.19
602.162	78.19
602.371	77.19
602.58	77.19
602.789	69.19
602.997	91.19
603.206	85.19
603.415	83.19
603.623	77.19
603.832	74.19
604.041	82.19
604.249	87.19
604.458	81.19
604.666	86.19
604.875	77.19
605.084	84.19
605.292	78.19
605.501	91.19
605.709	83.19
605.918	93.19
606.126	89.19
606.334	82.19
606.543	86.19
606.751	77.19
606.96	88.19
607.168	91.19
607.376	88.19
607.585	90.19
607.793	76.19
608.001	79.19
608.21	89.19
608.418	97.19
608.626	74.19
608.834	62.19
609.043	84.19
609.251	79.19
609.459	70.19
609.667	83.19
609.875	72.19
610.083	87.19
610.291	84.19
610.499	86.19
610.707	87.19
610.916	75.19
611.124	93.19
611.332	87.19
611.54	79.19
611.748	64.19
611.955	90.19
612.163	74.19
612.371	77.19
612.579	85.19
612.787	71.19
612.995	82.19
613.203	88.19
613.411	86.19
613.618	86.19
613.826	91.19
614.034	78.19
614.242	79.19
614.449	74.19
614.657	77.19
614.865	78.19
615.072	94.19
615.28	98.19
615.488	88.19
615.695	89.19
615.903	99.19
616.111	92.19
616.318	88.19
616.526	97.19
616.733	101.19
616.941	87.19
617.148	95.19
617.356	86.19
617.563	78.19
617.771	86.19
617.978	80.19
618.185	85.19
618.393	79.19
618.6	65.19
618.807	72.19
619.015	92.19
619.222	95.19
619.429	89.19
619.637	87.19
619.844	67.19
620.051	93.19
620.258	76.19
620.466	77.19
620.673	81.19
620.88	88.19
621.087	75.19
621.294	94.19
621.501	82.19
621.708	77.19
621.915	77.19
622.122	93.19
622.329	79.19
622.536	73.19
622.743	97.19
622.95	85.19
623.157	74.19
623.364	81.19
623.571	89.19
623.778	84.19
623.985	76.19
624.192	87.19
624.399	72.19
624.606	92.19
624.812	65.19
625.019	85.19
625.226	69.19
625.433	72.19
625.639	73.19
625.846	75.19
626.053	85.19
626.259	89.19
626.466	84.19
626.673	82.19
626.879	76.19
627.086	102.19
627.293	101.19
627.499	98.19
627.706	95.19
627.912	93.19
628.119	78.19
628.325	79.19
628.532	82.19
628.738	75.19
628.945	91.19
629.151	80.19
629.357	99.19
629.564	90.19
629.77	89.19
629.976	85.19
630.183	84.19
630.389	80.19
630.595	77.19
630.802	97.19
631.008	80.19
631.214	69.19
631.42	91.19
631.627	86.19
631.833	74.19
632.039	73.19
632.245	84.19
632.451	79.19
632.657	71.19
632.863	83.19
633.069	78.19
633.275	87.19
633.481	82.19
633.688	86.19
633.893	80.19
634.099	86.19
634.305	67.19
634.511	73.19
634.717	95.19
634.923	88.19
635.129	90.19
635.335	83.19
635.541	74.19
635.747	82.19
635.952	77.19
636.158	87.19
636.364	87.19
636.57	85.19
636.775	95.19
636.981	101.19
637.187	95.19
637.392	85.19
637.598	95.19
637.804	95.19
638.009	73.19
638.215	73.19
638.421	72.19
638.626	85.19
638.832	72.19
639.037	82.19
639.243	70.19
639.448	81.19
639.654	79.19
639.859	85.19
640.065	95.19
640.27	101.19
640.475	79.19
640.681	76.19
640.886	86.19
641.091	79.19
641.297	75.19
641.502	81.19
641.707	78.19
641.913	81.19
642.118	82.19
642.323	81.19
642.528	89.19
642.733	87.19
642.939	77.19
643.144	77.19
643.349	95.19
643.554	84.19
643.759	87.19
643.964	80.19
644.169	95.19
644.374	88.19
644.579	73.19
644.784	72.19
644.989	83.19
645.194	73.19
645.399	93.19
645.604	76.19
645.809	86.19
646.014	80.19
646.219	84.19
646.423	98.19
646.628	89.19
646.833	93.19
647.038	78.19
647.243	79.19
647.447	72.19
647.652	92.19
647.857	75.19
648.062	77.19
648.266	81.19
648.471	72.19
648.676	86.19
648.88	77.19
649.085	71.19
649.289	93.19
649.494	112.19
649.698	119.19
649.903	89.19
650.107	92.19
650.312	82.19
650.516	85.19
650.721	81.19
650.925	89.19
651.13	93.19
651.334	91.19
651.539	77.19
651.743	77.19
651.947	77.19
652.152	89.19
652.356	70.19
652.56	76.19
652.764	86.19
652.969	79.19
653.173	78.19
653.377	66.19
653.581	77.19
653.785	94.19
653.99	91.19
654.194	90.19
654.398	88.19
654.602	94.19
654.806	83.19
655.01	109.19
655.214	88.19
655.418	90.19
655.622	87.19
655.826	75.19
656.03	82.19
656.234	92.19
656.438	95.19
656.642	85.19
656.846	82.19
657.049	84.19
657.253	95.19
657.457	82.19
657.661	75.19
657.865	85.19
658.068	93.19
658.272	80.19
658.476	87.19
658.68	84.19
658.883	73.19
659.087	84.19
659.291	71.19
659.494	82.19
659.698	72.19
659.901	77.19
660.105	89.19
660.309	87.19
660.512	82.19
660.716	79.19
660.919	81.19
661.123	93.19
661.326	87.19
661.53	90.19
661.733	93.19
661.936	72.19
662.14	67.19
662.343	76.19
662.546	79.19
662.75	85.19
662.953	98.19
663.156	85.19
663.36	69.19
663.563	88.19
663.766	79.19
663.969	77.19
664.173	85.19
664.376	70.19
664.579	88.19
664.782	70.19
664.985	83.19
665.188	86.19
665.391	83.19
665.594	77.19
665.797	63.19
666	71.19
666.203	73.19
666.406	79.19
666.609	90.19
666.812	83.19
667.015	86.19
667.218	78.19
667.421	81.19
667.624	77.19
667.827	80.19
668.03	83.19
668.232	79.19
668.435	80.19
668.638	79.19
668.841	79.19
669.043	86.19
669.246	73.19
669.449	65.19
669.651	64.19
669.854	69.19
670.057	74.19
670.259	81.19
670.462	85.19
670.665	77.19
670.867	77.19
671.07	75.19
671.272	74.19
671.475	71.19
671.677	77.19
671.88	72.19
672.082	75.19
672.284	74.19
672.487	72.19
672.689	71.19
672.892	81.19
