Data from Uncirc_2001_H10_HRD10591_00012.txt Node
Date: Wed Jan 03 10:43:59 EST 2024
User: Yrep
Spectrometer: HR+D1059
Trigger mode: 1
Integration Time (sec): 1.000000E-1
Scans to average: 1
Electric dark correction enabled: true
Nonlinearity correction enabled: false
Boxcar width: 0
XAxis mode: Wavelengths
Number of Pixels in Spectrum: 2048
>>>>>Begin Spectral Data<<<<<
223.165	-10.12
223.4	-10.12
223.635	-10.12
223.869	7.88
224.104	-26.12
224.338	-21.12
224.573	-16.12
224.808	-3.12
225.042	-6.12
225.277	3.88
225.511	-10.12
225.746	-13.12
225.98	6.88
226.215	10.88
226.449	7.88
226.683	20.88
226.918	30.88
227.152	16.88
227.387	20.88
227.621	37.88
227.856	47.88
228.09	48.88
228.324	52.88
228.559	40.88
228.793	75.88
229.027	65.88
229.262	66.88
229.496	83.88
229.73	74.88
229.964	82.88
230.199	85.88
230.433	59.88
230.667	91.88
230.901	82.88
231.136	81.88
231.37	92.88
231.604	77.88
231.838	90.88
232.072	84.88
232.306	76.88
232.541	88.88
232.775	68.88
233.009	68.88
233.243	89.88
233.477	73.88
233.711	71.88
233.945	89.88
234.179	76.88
234.413	66.88
234.647	85.88
234.881	69.88
235.115	96.88
235.349	72.88
235.583	77.88
235.817	76.88
236.051	73.88
236.285	91.88
236.519	76.88
236.753	74.88
236.987	72.88
237.221	72.88
237.455	81.88
237.689	76.88
237.922	75.88
238.156	78.88
238.39	83.88
238.624	67.88
238.858	69.88
239.091	77.88
239.325	82.88
239.559	87.88
239.793	65.88
240.027	69.88
240.26	71.88
240.494	82.88
240.728	73.88
240.961	78.88
241.195	76.88
241.429	73.88
241.662	82.88
241.896	88.88
242.13	91.88
242.363	80.88
242.597	66.88
242.83	72.88
243.064	76.88
243.298	80.88
243.531	66.88
243.765	91.88
243.998	86.88
244.232	70.88
244.465	79.88
244.699	64.88
244.932	67.88
245.166	77.88
245.399	85.88
245.633	87.88
245.866	83.88
246.099	79.88
246.333	75.88
246.566	91.88
246.8	79.88
247.033	80.88
247.266	79.88
247.5	75.88
247.733	77.88
247.966	73.88
248.2	76.88
248.433	68.88
248.666	85.88
248.899	71.88
249.133	75.88
249.366	88.88
249.599	95.88
249.832	78.88
250.066	72.88
250.299	77.88
250.532	82.88
250.765	74.88
250.998	72.88
251.231	77.88
251.465	79.88
251.698	81.88
251.931	69.88
252.164	71.88
252.397	80.88
252.63	69.88
252.863	77.88
253.096	91.88
253.329	85.88
253.562	82.88
253.795	80.88
254.028	80.88
254.261	76.88
254.494	93.88
254.727	77.88
254.96	90.88
255.193	72.88
255.426	77.88
255.659	81.88
255.892	83.88
256.124	90.88
256.357	84.88
256.59	81.88
256.823	84.88
257.056	74.88
257.289	80.88
257.521	84.88
257.754	87.88
257.987	79.88
258.22	82.88
258.452	95.88
258.685	71.88
258.918	75.88
259.151	77.88
259.383	85.88
259.616	75.88
259.849	85.88
260.081	85.88
260.314	83.88
260.547	68.88
260.779	77.88
261.012	70.88
261.244	67.88
261.477	92.88
261.71	73.88
261.942	100.88
262.175	115.88
262.407	76.88
262.64	82.88
262.872	76.88
263.105	90.88
263.337	85.88
263.57	86.88
263.802	76.88
264.035	87.88
264.267	87.88
264.499	84.88
264.732	71.88
264.964	89.88
265.197	82.88
265.429	78.88
265.661	69.88
265.894	67.88
266.126	85.88
266.358	69.88
266.591	84.88
266.823	78.88
267.055	69.88
267.287	89.88
267.52	90.88
267.752	86.88
267.984	88.88
268.216	80.88
268.448	85.88
268.681	87.88
268.913	81.88
269.145	91.88
269.377	77.88
269.609	86.88
269.841	88.88
270.073	72.88
270.306	95.88
270.538	87.88
270.77	77.88
271.002	83.88
271.234	95.88
271.466	83.88
271.698	90.88
271.93	82.88
272.162	106.88
272.394	92.88
272.626	91.88
272.858	73.88
273.09	75.88
273.322	75.88
273.553	95.88
273.785	95.88
274.017	73.88
274.249	68.88
274.481	83.88
274.713	88.88
274.945	79.88
275.176	76.88
275.408	76.88
275.64	74.88
275.872	92.88
276.104	88.88
276.335	92.88
276.567	96.88
276.799	87.88
277.031	90.88
277.262	96.88
277.494	80.88
277.726	74.88
277.957	92.88
278.189	77.88
278.421	79.88
278.652	98.88
278.884	81.88
279.115	79.88
279.347	84.88
279.579	98.88
279.81	88.88
280.042	87.88
280.273	87.88
280.505	98.88
280.736	80.88
280.968	87.88
281.199	100.88
281.431	87.88
281.662	94.88
281.894	96.88
282.125	84.88
282.356	115.88
282.588	138.88
282.819	109.88
283.051	83.88
283.282	86.88
283.513	73.88
283.745	82.88
283.976	84.88
284.207	69.88
284.439	82.88
284.67	88.88
284.901	95.88
285.132	87.88
285.364	76.88
285.595	92.88
285.826	83.88
286.057	91.88
286.288	108.88
286.52	81.88
286.751	85.88
286.982	81.88
287.213	82.88
287.444	85.88
287.675	88.88
287.906	104.88
288.138	91.88
288.369	100.88
288.6	71.88
288.831	88.88
289.062	92.88
289.293	84.88
289.524	84.88
289.755	76.88
289.986	57.88
290.217	70.88
290.448	101.88
290.679	100.88
290.91	85.88
291.141	81.88
291.371	86.88
291.602	86.88
291.833	83.88
292.064	76.88
292.295	87.88
292.526	74.88
292.757	81.88
292.987	76.88
293.218	84.88
293.449	80.88
293.68	79.88
293.91	86.88
294.141	85.88
294.372	89.88
294.603	88.88
294.833	89.88
295.064	83.88
295.295	93.88
295.525	90.88
295.756	101.88
295.987	101.88
296.217	132.88
296.448	123.88
296.679	99.88
296.909	81.88
297.14	77.88
297.37	90.88
297.601	97.88
297.831	88.88
298.062	97.88
298.292	84.88
298.523	69.88
298.753	89.88
298.984	94.88
299.214	101.88
299.445	96.88
299.675	90.88
299.905	89.88
300.136	102.88
300.366	94.88
300.597	91.88
300.827	95.88
301.057	93.88
301.288	94.88
301.518	87.88
301.748	95.88
301.979	98.88
302.209	108.88
302.439	91.88
302.669	79.88
302.9	82.88
303.13	86.88
303.36	105.88
303.59	105.88
303.82	100.88
304.051	87.88
304.281	97.88
304.511	101.88
304.741	97.88
304.971	90.88
305.201	84.88
305.431	91.88
305.661	97.88
305.891	99.88
306.121	92.88
306.352	99.88
306.582	83.88
306.812	78.88
307.042	80.88
307.272	88.88
307.502	95.88
307.731	88.88
307.961	79.88
308.191	87.88
308.421	101.88
308.651	86.88
308.881	88.88
309.111	96.88
309.341	82.88
309.571	109.88
309.8	90.88
310.03	101.88
310.26	102.88
310.49	76.88
310.72	96.88
310.949	94.88
311.179	86.88
311.409	83.88
311.639	88.88
311.868	102.88
312.098	103.88
312.328	93.88
312.557	101.88
312.787	102.88
313.017	82.88
313.246	101.88
313.476	108.88
313.706	94.88
313.935	86.88
314.165	100.88
314.394	93.88
314.624	101.88
314.853	83.88
315.083	83.88
315.312	91.88
315.542	100.88
315.771	89.88
316.001	100.88
316.23	99.88
316.46	82.88
316.689	89.88
316.919	97.88
317.148	91.88
317.377	93.88
317.607	98.88
317.836	87.88
318.065	69.88
318.295	97.88
318.524	96.88
318.753	96.88
318.983	98.88
319.212	98.88
319.441	84.88
319.67	120.88
319.9	100.88
320.129	92.88
320.358	98.88
320.587	97.88
320.816	102.88
321.046	94.88
321.275	98.88
321.504	97.88
321.733	89.88
321.962	105.88
322.191	103.88
322.42	92.88
322.649	102.88
322.878	103.88
323.108	106.88
323.337	107.88
323.566	137.88
323.795	137.88
324.024	174.88
324.253	326.88
324.482	671.88
324.71	1359.88
324.939	1690.88
325.168	658.88
325.397	213.88
325.626	129.88
325.855	145.88
326.084	133.88
326.313	125.88
326.542	134.88
326.77	195.88
326.999	385.88
327.228	767.88
327.457	1287.88
327.686	1028.88
327.914	288.88
328.143	161.88
328.372	129.88
328.6	116.88
328.829	124.88
329.058	111.88
329.287	112.88
329.515	103.88
329.744	104.88
329.972	90.88
330.201	100.88
330.43	110.88
330.658	107.88
330.887	129.88
331.115	118.88
331.344	94.88
331.572	102.88
331.801	100.88
332.03	97.88
332.258	89.88
332.486	88.88
332.715	96.88
332.943	81.88
333.172	103.88
333.4	89.88
333.629	120.88
333.857	102.88
334.085	91.88
334.314	99.88
334.542	92.88
334.771	103.88
334.999	91.88
335.227	92.88
335.455	96.88
335.684	96.88
335.912	93.88
336.14	77.88
336.369	113.88
336.597	107.88
336.825	87.88
337.053	86.88
337.281	83.88
337.51	87.88
337.738	88.88
337.966	95.88
338.194	96.88
338.422	103.88
338.65	99.88
338.878	97.88
339.106	100.88
339.334	84.88
339.562	93.88
339.79	103.88
340.018	95.88
340.246	93.88
340.474	88.88
340.702	91.88
340.93	82.88
341.158	90.88
341.386	90.88
341.614	105.88
341.842	96.88
342.07	87.88
342.298	92.88
342.526	85.88
342.754	81.88
342.981	85.88
343.209	79.88
343.437	98.88
343.665	98.88
343.893	82.88
344.12	91.88
344.348	83.88
344.576	83.88
344.804	95.88
345.031	100.88
345.259	104.88
345.487	84.88
345.714	92.88
345.942	83.88
346.17	95.88
346.397	90.88
346.625	92.88
346.853	100.88
347.08	88.88
347.308	111.88
347.535	102.88
347.763	94.88
347.99	108.88
348.218	101.88
348.445	101.88
348.673	85.88
348.9	113.88
349.128	92.88
349.355	99.88
349.583	102.88
349.81	97.88
350.037	99.88
350.265	88.88
350.492	103.88
350.72	92.88
350.947	86.88
351.174	113.88
351.402	107.88
351.629	92.88
351.856	95.88
352.083	99.88
352.311	108.88
352.538	102.88
352.765	96.88
352.992	102.88
353.22	100.88
353.447	99.88
353.674	101.88
353.901	108.88
354.128	104.88
354.355	92.88
354.583	95.88
354.81	104.88
355.037	103.88
355.264	99.88
355.491	112.88
355.718	102.88
355.945	105.88
356.172	103.88
356.399	100.88
356.626	110.88
356.853	92.88
357.08	90.88
357.307	99.88
357.534	103.88
357.761	106.88
357.988	96.88
358.215	103.88
358.441	88.88
358.668	100.88
358.895	96.88
359.122	92.88
359.349	83.88
359.576	79.88
359.802	94.88
360.029	108.88
360.256	111.88
360.483	107.88
360.709	87.88
360.936	106.88
361.163	107.88
361.39	97.88
361.616	96.88
361.843	100.88
362.07	88.88
362.296	95.88
362.523	93.88
362.749	84.88
362.976	87.88
363.203	93.88
363.429	77.88
363.656	99.88
363.882	93.88
364.109	93.88
364.335	87.88
364.562	85.88
364.788	87.88
365.015	100.88
365.241	93.88
365.468	99.88
365.694	109.88
365.92	88.88
366.147	93.88
366.373	84.88
366.599	89.88
366.826	92.88
367.052	83.88
367.278	86.88
367.505	93.88
367.731	71.88
367.957	83.88
368.184	97.88
368.41	103.88
368.636	113.88
368.862	112.88
369.089	98.88
369.315	107.88
369.541	87.88
369.767	95.88
369.993	96.88
370.219	89.88
370.445	76.88
370.672	81.88
370.898	81.88
371.124	85.88
371.35	90.88
371.576	89.88
371.802	91.88
372.028	86.88
372.254	86.88
372.48	93.88
372.706	85.88
372.932	89.88
373.158	87.88
373.384	100.88
373.61	93.88
373.835	106.88
374.061	100.88
374.287	94.88
374.513	82.88
374.739	89.88
374.965	69.88
375.191	86.88
375.416	74.88
375.642	90.88
375.868	85.88
376.094	97.88
376.319	92.88
376.545	86.88
376.771	92.88
376.997	92.88
377.222	98.88
377.448	90.88
377.674	100.88
377.899	95.88
378.125	92.88
378.35	83.88
378.576	92.88
378.802	84.88
379.027	85.88
379.253	77.88
379.478	96.88
379.704	110.88
379.929	112.88
380.155	96.88
380.38	96.88
380.606	97.88
380.831	90.88
381.057	89.88
381.282	96.88
381.507	95.88
381.733	103.88
381.958	99.88
382.184	100.88
382.409	100.88
382.634	103.88
382.86	107.88
383.085	110.88
383.31	111.88
383.535	100.88
383.761	96.88
383.986	98.88
384.211	102.88
384.436	88.88
384.662	103.88
384.887	108.88
385.112	99.88
385.337	117.88
385.562	119.88
385.787	113.88
386.013	104.88
386.238	119.88
386.463	109.88
386.688	105.88
386.913	107.88
387.138	127.88
387.363	100.88
387.588	110.88
387.813	109.88
388.038	114.88
388.263	116.88
388.488	118.88
388.713	94.88
388.938	108.88
389.163	95.88
389.387	107.88
389.612	93.88
389.837	109.88
390.062	96.88
390.287	85.88
390.512	79.88
390.736	97.88
390.961	91.88
391.186	88.88
391.411	98.88
391.636	93.88
391.86	87.88
392.085	75.88
392.31	80.88
392.534	80.88
392.759	84.88
392.984	75.88
393.208	100.88
393.433	112.88
393.658	93.88
393.882	90.88
394.107	79.88
394.331	95.88
394.556	89.88
394.78	90.88
395.005	90.88
395.229	95.88
395.454	83.88
395.678	76.88
395.903	95.88
396.127	99.88
396.352	94.88
396.576	95.88
396.801	87.88
397.025	88.88
397.249	80.88
397.474	90.88
397.698	100.88
397.922	96.88
398.147	93.88
398.371	99.88
398.595	95.88
398.82	84.88
399.044	89.88
399.268	84.88
399.492	74.88
399.717	71.88
399.941	98.88
400.165	96.88
400.389	90.88
400.613	99.88
400.837	85.88
401.062	99.88
401.286	93.88
401.51	77.88
401.734	79.88
401.958	87.88
402.182	117.88
402.406	141.88
402.63	106.88
402.854	105.88
403.078	97.88
403.302	82.88
403.526	89.88
403.75	86.88
403.974	90.88
404.198	89.88
404.422	97.88
404.645	86.88
404.869	77.88
405.093	85.88
405.317	96.88
405.541	82.88
405.765	91.88
405.988	120.88
406.212	153.88
406.436	204.88
406.66	139.88
406.883	95.88
407.107	97.88
407.331	86.88
407.555	88.88
407.778	78.88
408.002	82.88
408.226	98.88
408.449	80.88
408.673	94.88
408.896	108.88
409.12	103.88
409.344	84.88
409.567	93.88
409.791	82.88
410.014	97.88
410.238	102.88
410.461	91.88
410.685	96.88
410.908	103.88
411.132	112.88
411.355	86.88
411.578	106.88
411.802	86.88
412.025	93.88
412.249	76.88
412.472	104.88
412.695	100.88
412.919	82.88
413.142	100.88
413.365	95.88
413.589	104.88
413.812	89.88
414.035	89.88
414.258	82.88
414.482	82.88
414.705	84.88
414.928	88.88
415.151	97.88
415.374	100.88
415.597	83.88
415.821	86.88
416.044	78.88
416.267	89.88
416.49	82.88
416.713	81.88
416.936	88.88
417.159	85.88
417.382	97.88
417.605	74.88
417.828	93.88
418.051	100.88
418.274	84.88
418.497	87.88
418.72	88.88
418.943	71.88
419.166	92.88
419.389	84.88
419.611	89.88
419.834	75.88
420.057	82.88
420.28	86.88
420.503	85.88
420.726	85.88
420.948	83.88
421.171	87.88
421.394	87.88
421.617	84.88
421.839	95.88
422.062	87.88
422.285	107.88
422.507	111.88
422.73	109.88
422.953	78.88
423.175	89.88
423.398	100.88
423.621	112.88
423.843	83.88
424.066	84.88
424.288	93.88
424.511	80.88
424.733	89.88
424.956	102.88
425.178	94.88
425.401	87.88
425.623	90.88
425.846	94.88
426.068	100.88
426.291	86.88
426.513	88.88
426.735	91.88
426.958	102.88
427.18	116.88
427.402	138.88
427.625	151.88
427.847	121.88
428.069	91.88
428.292	73.88
428.514	79.88
428.736	75.88
428.958	90.88
429.181	83.88
429.403	96.88
429.625	89.88
429.847	80.88
430.069	95.88
430.292	95.88
430.514	84.88
430.736	93.88
430.958	84.88
431.18	83.88
431.402	84.88
431.624	92.88
431.846	83.88
432.068	91.88
432.29	88.88
432.512	83.88
432.734	76.88
432.956	81.88
433.178	86.88
433.4	93.88
433.622	83.88
433.844	87.88
434.066	84.88
434.287	100.88
434.509	89.88
434.731	73.88
434.953	95.88
435.175	86.88
435.397	97.88
435.618	101.88
435.84	116.88
436.062	115.88
436.284	99.88
436.505	91.88
436.727	87.88
436.949	84.88
437.17	90.88
437.392	86.88
437.614	97.88
437.835	102.88
438.057	105.88
438.278	102.88
438.5	92.88
438.721	115.88
438.943	96.88
439.165	98.88
439.386	76.88
439.608	102.88
439.829	91.88
440.05	111.88
440.272	137.88
440.493	97.88
440.715	89.88
440.936	89.88
441.158	107.88
441.379	67.88
441.6	85.88
441.822	90.88
442.043	75.88
442.264	98.88
442.486	89.88
442.707	75.88
442.928	108.88
443.149	111.88
443.371	113.88
443.592	113.88
443.813	110.88
444.034	103.88
444.255	95.88
444.476	67.88
444.698	75.88
444.919	96.88
445.14	123.88
445.361	117.88
445.582	110.88
445.803	123.88
446.024	120.88
446.245	121.88
446.466	95.88
446.687	96.88
446.908	76.88
447.129	83.88
447.35	87.88
447.571	96.88
447.792	99.88
448.013	100.88
448.234	100.88
448.455	112.88
448.675	103.88
448.896	116.88
449.117	93.88
449.338	90.88
449.559	118.88
449.779	122.88
450	82.88
450.221	84.88
450.442	79.88
450.662	90.88
450.883	91.88
451.104	97.88
451.324	96.88
451.545	91.88
451.766	85.88
451.986	88.88
452.207	87.88
452.428	93.88
452.648	84.88
452.869	115.88
453.089	112.88
453.31	118.88
453.53	102.88
453.751	84.88
453.971	104.88
454.192	110.88
454.412	92.88
454.633	81.88
454.853	92.88
455.073	82.88
455.294	90.88
455.514	105.88
455.734	81.88
455.955	82.88
456.175	93.88
456.395	87.88
456.616	84.88
456.836	94.88
457.056	95.88
457.276	85.88
457.497	73.88
457.717	83.88
457.937	86.88
458.157	85.88
458.377	106.88
458.598	127.88
458.818	144.88
459.038	149.88
459.258	95.88
459.478	83.88
459.698	87.88
459.918	83.88
460.138	76.88
460.358	81.88
460.578	90.88
460.798	83.88
461.018	88.88
461.238	98.88
461.458	89.88
461.678	87.88
461.898	84.88
462.118	87.88
462.338	92.88
462.558	100.88
462.777	88.88
462.997	104.88
463.217	76.88
463.437	90.88
463.657	74.88
463.876	95.88
464.096	84.88
464.316	94.88
464.536	107.88
464.755	83.88
464.975	93.88
465.195	143.88
465.414	144.88
465.634	96.88
465.854	91.88
466.073	101.88
466.293	91.88
466.512	86.88
466.732	82.88
466.951	88.88
467.171	86.88
467.391	91.88
467.61	93.88
467.829	97.88
468.049	87.88
468.268	79.88
468.488	93.88
468.707	89.88
468.927	81.88
469.146	98.88
469.365	76.88
469.585	80.88
469.804	91.88
470.023	100.88
470.243	103.88
470.462	83.88
470.681	108.88
470.901	71.88
471.12	83.88
471.339	85.88
471.558	90.88
471.777	102.88
471.997	74.88
472.216	79.88
472.435	76.88
472.654	89.88
472.873	77.88
473.092	82.88
473.311	88.88
473.53	74.88
473.749	90.88
473.968	83.88
474.187	87.88
474.406	99.88
474.625	96.88
474.844	84.88
475.063	84.88
475.282	85.88
475.501	82.88
475.72	86.88
475.939	111.88
476.158	105.88
476.377	87.88
476.596	88.88
476.814	90.88
477.033	91.88
477.252	93.88
477.471	94.88
477.69	97.88
477.908	101.88
478.127	95.88
478.346	85.88
478.564	104.88
478.783	89.88
479.002	90.88
479.22	87.88
479.439	95.88
479.658	101.88
479.876	104.88
480.095	85.88
480.313	93.88
480.532	93.88
480.751	81.88
480.969	80.88
481.188	88.88
481.406	94.88
481.624	85.88
481.843	98.88
482.061	92.88
482.28	84.88
482.498	88.88
482.717	95.88
482.935	86.88
483.153	90.88
483.372	99.88
483.59	93.88
483.808	91.88
484.027	88.88
484.245	85.88
484.463	99.88
484.681	106.88
484.9	83.88
485.118	84.88
485.336	90.88
485.554	96.88
485.772	99.88
485.99	93.88
486.209	101.88
486.427	101.88
486.645	100.88
486.863	114.88
487.081	92.88
487.299	99.88
487.517	100.88
487.735	98.88
487.953	82.88
488.171	88.88
488.389	86.88
488.607	116.88
488.825	95.88
489.043	91.88
489.261	83.88
489.479	96.88
489.696	84.88
489.914	92.88
490.132	96.88
490.35	69.88
490.568	91.88
490.786	87.88
491.003	99.88
491.221	95.88
491.439	90.88
491.657	104.88
491.874	91.88
492.092	99.88
492.31	89.88
492.527	90.88
492.745	82.88
492.963	80.88
493.18	101.88
493.398	91.88
493.615	95.88
493.833	93.88
494.05	100.88
494.268	74.88
494.485	91.88
494.703	86.88
494.92	87.88
495.138	90.88
495.355	91.88
495.573	87.88
495.79	74.88
496.008	104.88
496.225	99.88
496.442	95.88
496.66	89.88
496.877	84.88
497.094	91.88
497.312	84.88
497.529	93.88
497.746	97.88
497.963	86.88
498.181	89.88
498.398	93.88
498.615	109.88
498.832	84.88
499.049	99.88
499.267	102.88
499.484	77.88
499.701	85.88
499.918	87.88
500.135	96.88
500.352	87.88
500.569	88.88
500.786	84.88
501.003	87.88
501.22	75.88
501.437	90.88
501.654	79.88
501.871	114.88
502.088	99.88
502.305	91.88
502.522	79.88
502.739	92.88
502.956	84.88
503.172	93.88
503.389	100.88
503.606	102.88
503.823	94.88
504.04	112.88
504.256	101.88
504.473	90.88
504.69	69.88
504.907	90.88
505.123	79.88
505.34	73.88
505.557	93.88
505.773	85.88
505.99	87.88
506.207	84.88
506.423	82.88
506.64	80.88
506.856	90.88
507.073	89.88
507.289	97.88
507.506	108.88
507.722	119.88
507.939	100.88
508.155	83.88
508.372	92.88
508.588	92.88
508.805	84.88
509.021	106.88
509.238	110.88
509.454	99.88
509.67	99.88
509.887	102.88
510.103	136.88
510.319	221.88
510.536	680.88
510.752	2069.88
510.968	579.88
511.184	143.88
511.401	103.88
511.617	90.88
511.833	79.88
512.049	98.88
512.265	83.88
512.481	88.88
512.698	88.88
512.914	91.88
513.13	98.88
513.346	95.88
513.562	81.88
513.778	97.88
513.994	87.88
514.21	86.88
514.426	123.88
514.642	120.88
514.858	120.88
515.074	143.88
515.29	413.88
515.506	1307.88
515.721	496.88
515.937	149.88
516.153	99.88
516.369	93.88
516.585	83.88
516.801	83.88
517.016	98.88
517.232	103.88
517.448	91.88
517.664	102.88
517.879	89.88
518.095	90.88
518.311	87.88
518.527	97.88
518.742	93.88
518.958	85.88
519.173	90.88
519.389	86.88
519.605	102.88
519.82	96.88
520.036	109.88
520.251	113.88
520.467	100.88
520.682	108.88
520.898	107.88
521.113	125.88
521.329	131.88
521.544	183.88
521.76	515.88
521.975	2162.88
522.19	1279.88
522.406	268.88
522.621	115.88
522.836	102.88
523.052	106.88
523.267	91.88
523.482	107.88
523.698	98.88
523.913	99.88
524.128	90.88
524.343	81.88
524.559	105.88
524.774	84.88
524.989	85.88
525.204	118.88
525.419	102.88
525.634	107.88
525.849	80.88
526.064	88.88
526.28	101.88
526.495	100.88
526.71	81.88
526.925	100.88
527.14	83.88
527.355	90.88
527.57	79.88
527.785	84.88
527.999	85.88
528.214	99.88
528.429	100.88
528.644	98.88
528.859	89.88
529.074	81.88
529.289	115.88
529.503	156.88
529.718	89.88
529.933	87.88
530.148	79.88
530.363	94.88
530.577	97.88
530.792	89.88
531.007	90.88
531.221	88.88
531.436	78.88
531.651	93.88
531.865	87.88
532.08	86.88
532.295	98.88
532.509	85.88
532.724	93.88
532.938	106.88
533.153	88.88
533.367	91.88
533.582	95.88
533.796	83.88
534.011	87.88
534.225	93.88
534.44	92.88
534.654	94.88
534.868	91.88
535.083	82.88
535.297	92.88
535.511	92.88
535.726	94.88
535.94	100.88
536.154	96.88
536.369	84.88
536.583	81.88
536.797	83.88
537.011	94.88
537.225	85.88
537.44	87.88
537.654	81.88
537.868	87.88
538.082	92.88
538.296	83.88
538.51	83.88
538.724	90.88
538.938	78.88
539.153	104.88
539.367	106.88
539.581	97.88
539.795	95.88
540.009	82.88
540.222	108.88
540.436	84.88
540.65	101.88
540.864	96.88
541.078	93.88
541.292	98.88
541.506	91.88
541.72	96.88
541.934	92.88
542.147	97.88
542.361	83.88
542.575	86.88
542.789	94.88
543.002	79.88
543.216	105.88
543.43	96.88
543.644	83.88
543.857	79.88
544.071	83.88
544.285	94.88
544.498	97.88
544.712	92.88
544.925	86.88
545.139	85.88
545.352	101.88
545.566	83.88
545.779	90.88
545.993	92.88
546.206	94.88
546.42	92.88
546.633	96.88
546.847	96.88
547.06	86.88
547.274	92.88
547.487	91.88
547.7	75.88
547.914	85.88
548.127	98.88
548.34	89.88
548.554	95.88
548.767	88.88
548.98	93.88
549.193	88.88
549.407	88.88
549.62	79.88
549.833	105.88
550.046	91.88
550.259	79.88
550.473	91.88
550.686	92.88
550.899	75.88
551.112	79.88
551.325	81.88
551.538	81.88
551.751	80.88
551.964	91.88
552.177	79.88
552.39	72.88
552.603	88.88
552.816	93.88
553.029	88.88
553.242	79.88
553.455	89.88
553.667	99.88
553.88	105.88
554.093	82.88
554.306	86.88
554.519	79.88
554.732	81.88
554.944	83.88
555.157	84.88
555.37	90.88
555.583	100.88
555.795	88.88
556.008	86.88
556.221	92.88
556.433	88.88
556.646	79.88
556.859	105.88
557.071	91.88
557.284	88.88
557.496	91.88
557.709	84.88
557.921	95.88
558.134	88.88
558.346	82.88
558.559	90.88
558.771	101.88
558.984	89.88
559.196	85.88
559.409	87.88
559.621	97.88
559.833	75.88
560.046	77.88
560.258	85.88
560.47	105.88
560.683	82.88
560.895	83.88
561.107	72.88
561.32	86.88
561.532	85.88
561.744	103.88
561.956	81.88
562.168	86.88
562.381	92.88
562.593	81.88
562.805	89.88
563.017	97.88
563.229	106.88
563.441	94.88
563.653	90.88
563.865	87.88
564.077	73.88
564.289	96.88
564.501	81.88
564.713	87.88
564.925	82.88
565.137	90.88
565.349	91.88
565.561	77.88
565.773	100.88
565.985	101.88
566.197	92.88
566.408	91.88
566.62	81.88
566.832	95.88
567.044	85.88
567.255	92.88
567.467	89.88
567.679	80.88
567.891	76.88
568.102	86.88
568.314	83.88
568.526	88.88
568.737	86.88
568.949	91.88
569.161	81.88
569.372	81.88
569.584	91.88
569.795	92.88
570.007	103.88
570.218	223.88
570.43	142.88
570.641	82.88
570.853	91.88
571.064	103.88
571.276	76.88
571.487	88.88
571.698	67.88
571.91	74.88
572.121	79.88
572.333	87.88
572.544	101.88
572.755	89.88
572.966	88.88
573.178	87.88
573.389	92.88
573.6	82.88
573.811	79.88
574.023	76.88
574.234	72.88
574.445	80.88
574.656	77.88
574.867	100.88
575.078	105.88
575.289	93.88
575.501	95.88
575.712	96.88
575.923	88.88
576.134	95.88
576.345	85.88
576.556	86.88
576.767	91.88
576.978	83.88
577.188	96.88
577.399	74.88
577.61	98.88
577.821	99.88
578.032	116.88
578.243	271.88
578.454	727.88
578.665	205.88
578.875	124.88
579.086	93.88
579.297	96.88
579.508	81.88
579.718	88.88
579.929	82.88
580.14	84.88
580.35	88.88
580.561	83.88
580.772	84.88
580.982	76.88
581.193	84.88
581.403	78.88
581.614	90.88
581.825	86.88
582.035	88.88
582.246	87.88
582.456	94.88
582.667	76.88
582.877	83.88
583.087	76.88
583.298	92.88
583.508	96.88
583.719	84.88
583.929	74.88
584.139	106.88
584.35	71.88
584.56	87.88
584.77	83.88
584.981	99.88
585.191	96.88
585.401	93.88
585.611	83.88
585.821	81.88
586.032	93.88
586.242	84.88
586.452	77.88
586.662	85.88
586.872	93.88
587.082	85.88
587.292	87.88
587.502	79.88
587.713	93.88
587.923	91.88
588.133	82.88
588.343	94.88
588.553	70.88
588.762	81.88
588.972	97.88
589.182	92.88
589.392	96.88
589.602	103.88
589.812	82.88
590.022	101.88
590.232	80.88
590.441	93.88
590.651	87.88
590.861	82.88
591.071	77.88
591.281	85.88
591.49	82.88
591.7	98.88
591.91	88.88
592.119	76.88
592.329	82.88
592.539	86.88
592.748	89.88
592.958	92.88
593.167	83.88
593.377	87.88
593.587	93.88
593.796	95.88
594.006	79.88
594.215	81.88
594.424	90.88
594.634	93.88
594.843	90.88
595.053	87.88
595.262	79.88
595.472	89.88
595.681	88.88
595.89	72.88
596.1	85.88
596.309	75.88
596.518	80.88
596.727	77.88
596.937	95.88
597.146	72.88
597.355	97.88
597.564	75.88
597.774	85.88
597.983	88.88
598.192	85.88
598.401	77.88
598.61	88.88
598.819	92.88
599.028	89.88
599.237	91.88
599.446	95.88
599.655	86.88
599.864	91.88
600.073	90.88
600.282	88.88
600.491	86.88
600.7	75.88
600.909	103.88
601.118	109.88
601.327	103.88
601.536	79.88
601.745	98.88
601.953	77.88
602.162	93.88
602.371	80.88
602.58	86.88
602.789	77.88
602.997	79.88
603.206	85.88
603.415	96.88
603.623	90.88
603.832	88.88
604.041	100.88
604.249	96.88
604.458	83.88
604.666	84.88
604.875	82.88
605.084	95.88
605.292	83.88
605.501	88.88
605.709	82.88
605.918	74.88
606.126	87.88
606.334	82.88
606.543	85.88
606.751	82.88
606.96	89.88
607.168	85.88
607.376	80.88
607.585	80.88
607.793	87.88
608.001	81.88
608.21	93.88
608.418	95.88
608.626	76.88
608.834	90.88
609.043	76.88
609.251	91.88
609.459	86.88
609.667	88.88
609.875	87.88
610.083	89.88
610.291	95.88
610.499	87.88
610.707	84.88
610.916	81.88
611.124	89.88
611.332	85.88
611.54	76.88
611.748	85.88
611.955	75.88
612.163	92.88
612.371	88.88
612.579	88.88
612.787	85.88
612.995	90.88
613.203	75.88
613.411	84.88
613.618	82.88
613.826	86.88
614.034	78.88
614.242	93.88
614.449	83.88
614.657	82.88
614.865	96.88
615.072	95.88
615.28	86.88
615.488	81.88
615.695	93.88
615.903	100.88
616.111	98.88
616.318	88.88
616.526	91.88
616.733	106.88
616.941	98.88
617.148	88.88
617.356	87.88
617.563	69.88
617.771	81.88
617.978	83.88
618.185	93.88
618.393	95.88
618.6	83.88
618.807	81.88
619.015	95.88
619.222	86.88
619.429	100.88
619.637	78.88
619.844	81.88
620.051	82.88
620.258	85.88
620.466	88.88
620.673	76.88
620.88	79.88
621.087	67.88
621.294	74.88
621.501	87.88
621.708	90.88
621.915	77.88
622.122	90.88
622.329	97.88
622.536	96.88
622.743	83.88
622.95	89.88
623.157	82.88
623.364	84.88
623.571	87.88
623.778	92.88
623.985	78.88
624.192	99.88
624.399	106.88
624.606	80.88
624.812	85.88
625.019	87.88
625.226	87.88
625.433	86.88
625.639	84.88
625.846	80.88
626.053	89.88
626.259	89.88
626.466	90.88
626.673	74.88
626.879	95.88
627.086	87.88
627.293	79.88
627.499	80.88
627.706	87.88
627.912	91.88
628.119	99.88
628.325	90.88
628.532	89.88
628.738	85.88
628.945	81.88
629.151	87.88
629.357	82.88
629.564	79.88
629.77	84.88
629.976	88.88
630.183	80.88
630.389	86.88
630.595	103.88
630.802	84.88
631.008	78.88
631.214	88.88
631.42	89.88
631.627	81.88
631.833	86.88
632.039	90.88
632.245	84.88
632.451	85.88
632.657	78.88
632.863	92.88
633.069	90.88
633.275	67.88
633.481	83.88
633.688	68.88
633.893	81.88
634.099	86.88
634.305	89.88
634.511	84.88
634.717	89.88
634.923	89.88
635.129	79.88
635.335	89.88
635.541	77.88
635.747	86.88
635.952	86.88
636.158	80.88
636.364	98.88
636.57	71.88
636.775	83.88
636.981	90.88
637.187	73.88
637.392	99.88
637.598	89.88
637.804	79.88
638.009	99.88
638.215	90.88
638.421	69.88
638.626	85.88
638.832	86.88
639.037	78.88
639.243	91.88
639.448	80.88
639.654	82.88
639.859	92.88
640.065	80.88
640.27	102.88
640.475	91.88
640.681	93.88
640.886	91.88
641.091	88.88
641.297	88.88
641.502	79.88
641.707	92.88
641.913	85.88
642.118	80.88
642.323	78.88
642.528	89.88
642.733	86.88
642.939	90.88
643.144	87.88
643.349	86.88
643.554	87.88
643.759	83.88
643.964	85.88
644.169	80.88
644.374	73.88
644.579	93.88
644.784	93.88
644.989	93.88
645.194	91.88
645.399	88.88
645.604	86.88
645.809	88.88
646.014	90.88
646.219	101.88
646.423	109.88
646.628	74.88
646.833	67.88
647.038	89.88
647.243	81.88
647.447	94.88
647.652	76.88
647.857	74.88
648.062	86.88
648.266	81.88
648.471	94.88
648.676	95.88
648.88	91.88
649.085	98.88
649.289	91.88
649.494	94.88
649.698	101.88
649.903	85.88
650.107	106.88
650.312	97.88
650.516	89.88
650.721	79.88
650.925	81.88
651.13	97.88
651.334	76.88
651.539	81.88
651.743	77.88
651.947	97.88
652.152	71.88
652.356	75.88
652.56	92.88
652.764	59.88
652.969	80.88
653.173	75.88
653.377	93.88
653.581	94.88
653.785	85.88
653.99	85.88
654.194	75.88
654.398	88.88
654.602	89.88
654.806	83.88
655.01	117.88
655.214	80.88
655.418	73.88
655.622	99.88
655.826	97.88
656.03	88.88
656.234	89.88
656.438	87.88
656.642	90.88
656.846	70.88
657.049	75.88
657.253	75.88
657.457	81.88
657.661	84.88
657.865	89.88
658.068	75.88
658.272	77.88
658.476	77.88
658.68	73.88
658.883	72.88
659.087	71.88
659.291	84.88
659.494	73.88
659.698	84.88
659.901	84.88
660.105	69.88
660.309	76.88
660.512	81.88
660.716	72.88
660.919	76.88
661.123	81.88
661.326	78.88
661.53	83.88
661.733	87.88
661.936	89.88
662.14	78.88
662.343	97.88
662.546	87.88
662.75	85.88
662.953	84.88
663.156	77.88
663.36	78.88
663.563	85.88
663.766	86.88
663.969	60.88
664.173	91.88
664.376	77.88
664.579	88.88
664.782	78.88
664.985	80.88
665.188	87.88
665.391	69.88
665.594	87.88
665.797	85.88
666	97.88
666.203	74.88
666.406	70.88
666.609	83.88
666.812	72.88
667.015	87.88
667.218	93.88
667.421	83.88
667.624	79.88
667.827	71.88
668.03	83.88
668.232	76.88
668.435	84.88
668.638	88.88
668.841	91.88
669.043	73.88
669.246	99.88
669.449	78.88
669.651	91.88
669.854	79.88
670.057	99.88
670.259	80.88
670.462	98.88
670.665	90.88
670.867	93.88
671.07	84.88
671.272	81.88
671.475	85.88
671.677	67.88
671.88	65.88
672.082	99.88
672.284	84.88
672.487	74.88
672.689	78.88
672.892	72.88
