Data from Circ_2014_H10_HRD10591_00068.txt Node
Date: Wed Jan 03 10:02:22 EST 2024
User: Yrep
Spectrometer: HR+D1059
Trigger mode: 1
Integration Time (sec): 1.000000E-1
Scans to average: 1
Electric dark correction enabled: true
Nonlinearity correction enabled: false
Boxcar width: 0
XAxis mode: Wavelengths
Number of Pixels in Spectrum: 2048
>>>>>Begin Spectral Data<<<<<
223.165	-8.88
223.4	-8.88
223.635	-8.88
223.869	-37.88
224.104	-25.88
224.338	-17.88
224.573	-22.88
224.808	-2.88
225.042	1.12
225.277	-9.88
225.511	1.12
225.746	6.12
225.98	10.12
226.215	9.12
226.449	9.12
226.683	18.12
226.918	31.12
227.152	40.12
227.387	34.12
227.621	35.12
227.856	43.12
228.09	45.12
228.324	34.12
228.559	42.12
228.793	56.12
229.027	77.12
229.262	54.12
229.496	70.12
229.73	72.12
229.964	74.12
230.199	74.12
230.433	49.12
230.667	73.12
230.901	78.12
231.136	69.12
231.37	69.12
231.604	72.12
231.838	87.12
232.072	78.12
232.306	71.12
232.541	61.12
232.775	88.12
233.009	70.12
233.243	82.12
233.477	69.12
233.711	97.12
233.945	88.12
234.179	79.12
234.413	74.12
234.647	72.12
234.881	68.12
235.115	93.12
235.349	69.12
235.583	84.12
235.817	78.12
236.051	63.12
236.285	74.12
236.519	85.12
236.753	64.12
236.987	85.12
237.221	81.12
237.455	80.12
237.689	76.12
237.922	75.12
238.156	74.12
238.39	73.12
238.624	73.12
238.858	78.12
239.091	74.12
239.325	64.12
239.559	77.12
239.793	80.12
240.027	70.12
240.26	78.12
240.494	79.12
240.728	79.12
240.961	90.12
241.195	75.12
241.429	79.12
241.662	76.12
241.896	80.12
242.13	76.12
242.363	70.12
242.597	60.12
242.83	79.12
243.064	73.12
243.298	77.12
243.531	71.12
243.765	78.12
243.998	86.12
244.232	81.12
244.465	86.12
244.699	72.12
244.932	63.12
245.166	79.12
245.399	84.12
245.633	65.12
245.866	61.12
246.099	82.12
246.333	79.12
246.566	74.12
246.8	70.12
247.033	80.12
247.266	78.12
247.5	85.12
247.733	72.12
247.966	75.12
248.2	59.12
248.433	70.12
248.666	72.12
248.899	75.12
249.133	71.12
249.366	89.12
249.599	111.12
249.832	74.12
250.066	74.12
250.299	90.12
250.532	66.12
250.765	79.12
250.998	82.12
251.231	76.12
251.465	90.12
251.698	66.12
251.931	77.12
252.164	79.12
252.397	79.12
252.63	65.12
252.863	89.12
253.096	79.12
253.329	77.12
253.562	71.12
253.795	81.12
254.028	66.12
254.261	64.12
254.494	70.12
254.727	82.12
254.96	76.12
255.193	73.12
255.426	87.12
255.659	69.12
255.892	70.12
256.124	83.12
256.357	80.12
256.59	77.12
256.823	70.12
257.056	81.12
257.289	89.12
257.521	76.12
257.754	69.12
257.987	77.12
258.22	83.12
258.452	72.12
258.685	73.12
258.918	67.12
259.151	76.12
259.383	68.12
259.616	88.12
259.849	89.12
260.081	71.12
260.314	85.12
260.547	85.12
260.779	88.12
261.012	92.12
261.244	89.12
261.477	74.12
261.71	85.12
261.942	112.12
262.175	117.12
262.407	83.12
262.64	83.12
262.872	76.12
263.105	75.12
263.337	70.12
263.57	71.12
263.802	88.12
264.035	80.12
264.267	83.12
264.499	81.12
264.732	80.12
264.964	67.12
265.197	71.12
265.429	74.12
265.661	81.12
265.894	94.12
266.126	96.12
266.358	68.12
266.591	77.12
266.823	68.12
267.055	65.12
267.287	83.12
267.52	75.12
267.752	71.12
267.984	85.12
268.216	72.12
268.448	83.12
268.681	96.12
268.913	87.12
269.145	69.12
269.377	73.12
269.609	74.12
269.841	79.12
270.073	83.12
270.306	74.12
270.538	86.12
270.77	88.12
271.002	73.12
271.234	91.12
271.466	77.12
271.698	79.12
271.93	80.12
272.162	78.12
272.394	72.12
272.626	73.12
272.858	87.12
273.09	85.12
273.322	74.12
273.553	80.12
273.785	79.12
274.017	69.12
274.249	74.12
274.481	83.12
274.713	97.12
274.945	80.12
275.176	87.12
275.408	92.12
275.64	93.12
275.872	81.12
276.104	74.12
276.335	64.12
276.567	97.12
276.799	94.12
277.031	98.12
277.262	90.12
277.494	98.12
277.726	92.12
277.957	83.12
278.189	71.12
278.421	81.12
278.652	88.12
278.884	89.12
279.115	85.12
279.347	71.12
279.579	69.12
279.81	77.12
280.042	85.12
280.273	95.12
280.505	65.12
280.736	81.12
280.968	74.12
281.199	85.12
281.431	90.12
281.662	77.12
281.894	70.12
282.125	81.12
282.356	117.12
282.588	136.12
282.819	111.12
283.051	83.12
283.282	78.12
283.513	88.12
283.745	70.12
283.976	88.12
284.207	76.12
284.439	87.12
284.67	70.12
284.901	79.12
285.132	80.12
285.364	86.12
285.595	80.12
285.826	85.12
286.057	82.12
286.288	62.12
286.52	85.12
286.751	82.12
286.982	69.12
287.213	84.12
287.444	75.12
287.675	84.12
287.906	88.12
288.138	91.12
288.369	85.12
288.6	74.12
288.831	84.12
289.062	96.12
289.293	79.12
289.524	81.12
289.755	79.12
289.986	81.12
290.217	82.12
290.448	83.12
290.679	70.12
290.91	79.12
291.141	95.12
291.371	87.12
291.602	76.12
291.833	80.12
292.064	90.12
292.295	74.12
292.526	76.12
292.757	81.12
292.987	81.12
293.218	91.12
293.449	74.12
293.68	82.12
293.91	93.12
294.141	88.12
294.372	92.12
294.603	96.12
294.833	80.12
295.064	85.12
295.295	87.12
295.525	78.12
295.756	96.12
295.987	117.12
296.217	124.12
296.448	111.12
296.679	77.12
296.909	81.12
297.14	83.12
297.37	79.12
297.601	84.12
297.831	79.12
298.062	87.12
298.292	82.12
298.523	102.12
298.753	98.12
298.984	86.12
299.214	75.12
299.445	88.12
299.675	90.12
299.905	93.12
300.136	79.12
300.366	75.12
300.597	74.12
300.827	81.12
301.057	101.12
301.288	95.12
301.518	99.12
301.748	91.12
301.979	102.12
302.209	97.12
302.439	87.12
302.669	85.12
302.9	79.12
303.13	85.12
303.36	97.12
303.59	97.12
303.82	85.12
304.051	97.12
304.281	91.12
304.511	86.12
304.741	79.12
304.971	82.12
305.201	76.12
305.431	79.12
305.661	88.12
305.891	107.12
306.121	86.12
306.352	84.12
306.582	96.12
306.812	87.12
307.042	99.12
307.272	102.12
307.502	103.12
307.731	90.12
307.961	96.12
308.191	75.12
308.421	80.12
308.651	81.12
308.881	87.12
309.111	81.12
309.341	96.12
309.571	77.12
309.8	78.12
310.03	80.12
310.26	83.12
310.49	85.12
310.72	97.12
310.949	96.12
311.179	93.12
311.409	85.12
311.639	99.12
311.868	98.12
312.098	86.12
312.328	83.12
312.557	102.12
312.787	113.12
313.017	98.12
313.246	85.12
313.476	86.12
313.706	87.12
313.935	93.12
314.165	83.12
314.394	98.12
314.624	73.12
314.853	101.12
315.083	94.12
315.312	104.12
315.542	79.12
315.771	95.12
316.001	82.12
316.23	82.12
316.46	78.12
316.689	83.12
316.919	73.12
317.148	76.12
317.377	103.12
317.607	95.12
317.836	81.12
318.065	82.12
318.295	91.12
318.524	95.12
318.753	90.12
318.983	94.12
319.212	87.12
319.441	107.12
319.67	104.12
319.9	111.12
320.129	85.12
320.358	83.12
320.587	96.12
320.816	97.12
321.046	105.12
321.275	86.12
321.504	79.12
321.733	86.12
321.962	95.12
322.191	85.12
322.42	103.12
322.649	107.12
322.878	112.12
323.108	105.12
323.337	112.12
323.566	129.12
323.795	133.12
324.024	177.12
324.253	357.12
324.482	721.12
324.71	1466.12
324.939	1905.12
325.168	711.12
325.397	229.12
325.626	147.12
325.855	112.12
326.084	116.12
326.313	127.12
326.542	135.12
326.77	201.12
326.999	400.12
327.228	789.12
327.457	1400.12
327.686	1138.12
327.914	325.12
328.143	202.12
328.372	162.12
328.6	140.12
328.829	110.12
329.058	114.12
329.287	128.12
329.515	89.12
329.744	99.12
329.972	97.12
330.201	149.12
330.43	162.12
330.658	127.12
330.887	137.12
331.115	130.12
331.344	109.12
331.572	87.12
331.801	107.12
332.03	93.12
332.258	82.12
332.486	75.12
332.715	98.12
332.943	90.12
333.172	85.12
333.4	91.12
333.629	104.12
333.857	101.12
334.085	126.12
334.314	135.12
334.542	178.12
334.771	185.12
334.999	115.12
335.227	97.12
335.455	75.12
335.684	86.12
335.912	90.12
336.14	90.12
336.369	97.12
336.597	98.12
336.825	91.12
337.053	80.12
337.281	95.12
337.51	85.12
337.738	74.12
337.966	77.12
338.194	89.12
338.422	102.12
338.65	82.12
338.878	93.12
339.106	73.12
339.334	89.12
339.562	77.12
339.79	90.12
340.018	83.12
340.246	91.12
340.474	90.12
340.702	89.12
340.93	92.12
341.158	93.12
341.386	87.12
341.614	86.12
341.842	111.12
342.07	95.12
342.298	84.12
342.526	96.12
342.754	81.12
342.981	72.12
343.209	75.12
343.437	100.12
343.665	96.12
343.893	91.12
344.12	88.12
344.348	86.12
344.576	91.12
344.804	100.12
345.031	93.12
345.259	77.12
345.487	96.12
345.714	91.12
345.942	69.12
346.17	91.12
346.397	101.12
346.625	90.12
346.853	104.12
347.08	85.12
347.308	89.12
347.535	79.12
347.763	97.12
347.99	105.12
348.218	102.12
348.445	94.12
348.673	84.12
348.9	85.12
349.128	79.12
349.355	101.12
349.583	92.12
349.81	74.12
350.037	98.12
350.265	87.12
350.492	82.12
350.72	86.12
350.947	100.12
351.174	89.12
351.402	107.12
351.629	93.12
351.856	92.12
352.083	88.12
352.311	95.12
352.538	85.12
352.765	113.12
352.992	106.12
353.22	109.12
353.447	112.12
353.674	109.12
353.901	89.12
354.128	90.12
354.355	102.12
354.583	106.12
354.81	102.12
355.037	86.12
355.264	79.12
355.491	85.12
355.718	91.12
355.945	97.12
356.172	86.12
356.399	90.12
356.626	88.12
356.853	93.12
357.08	96.12
357.307	67.12
357.534	81.12
357.761	102.12
357.988	94.12
358.215	91.12
358.441	72.12
358.668	79.12
358.895	96.12
359.122	75.12
359.349	95.12
359.576	90.12
359.802	95.12
360.029	105.12
360.256	96.12
360.483	75.12
360.709	75.12
360.936	68.12
361.163	76.12
361.39	94.12
361.616	89.12
361.843	84.12
362.07	90.12
362.296	98.12
362.523	85.12
362.749	90.12
362.976	87.12
363.203	91.12
363.429	87.12
363.656	82.12
363.882	76.12
364.109	93.12
364.335	83.12
364.562	89.12
364.788	78.12
365.015	87.12
365.241	97.12
365.468	87.12
365.694	85.12
365.92	82.12
366.147	97.12
366.373	67.12
366.599	83.12
366.826	94.12
367.052	91.12
367.278	93.12
367.505	91.12
367.731	95.12
367.957	83.12
368.184	103.12
368.41	88.12
368.636	113.12
368.862	100.12
369.089	103.12
369.315	94.12
369.541	87.12
369.767	91.12
369.993	84.12
370.219	91.12
370.445	89.12
370.672	70.12
370.898	88.12
371.124	77.12
371.35	82.12
371.576	81.12
371.802	92.12
372.028	80.12
372.254	100.12
372.48	84.12
372.706	88.12
372.932	82.12
373.158	88.12
373.384	93.12
373.61	86.12
373.835	96.12
374.061	85.12
374.287	87.12
374.513	79.12
374.739	87.12
374.965	102.12
375.191	85.12
375.416	89.12
375.642	88.12
375.868	85.12
376.094	90.12
376.319	72.12
376.545	78.12
376.771	81.12
376.997	85.12
377.222	91.12
377.448	79.12
377.674	86.12
377.899	81.12
378.125	78.12
378.35	90.12
378.576	106.12
378.802	97.12
379.027	81.12
379.253	79.12
379.478	80.12
379.704	88.12
379.929	84.12
380.155	98.12
380.38	90.12
380.606	88.12
380.831	88.12
381.057	91.12
381.282	89.12
381.507	96.12
381.733	82.12
381.958	93.12
382.184	90.12
382.409	115.12
382.634	85.12
382.86	85.12
383.085	89.12
383.31	90.12
383.535	114.12
383.761	90.12
383.986	96.12
384.211	96.12
384.436	90.12
384.662	107.12
384.887	111.12
385.112	98.12
385.337	98.12
385.562	96.12
385.787	108.12
386.013	106.12
386.238	118.12
386.463	94.12
386.688	91.12
386.913	105.12
387.138	107.12
387.363	97.12
387.588	94.12
387.813	97.12
388.038	95.12
388.263	103.12
388.488	95.12
388.713	90.12
388.938	85.12
389.163	96.12
389.387	96.12
389.612	79.12
389.837	78.12
390.062	78.12
390.287	98.12
390.512	97.12
390.736	85.12
390.961	94.12
391.186	99.12
391.411	85.12
391.636	81.12
391.86	88.12
392.085	77.12
392.31	91.12
392.534	78.12
392.759	78.12
392.984	83.12
393.208	87.12
393.433	93.12
393.658	87.12
393.882	72.12
394.107	88.12
394.331	79.12
394.556	91.12
394.78	82.12
395.005	81.12
395.229	86.12
395.454	78.12
395.678	74.12
395.903	74.12
396.127	90.12
396.352	86.12
396.576	67.12
396.801	65.12
397.025	79.12
397.249	85.12
397.474	89.12
397.698	74.12
397.922	98.12
398.147	85.12
398.371	90.12
398.595	91.12
398.82	91.12
399.044	85.12
399.268	83.12
399.492	78.12
399.717	81.12
399.941	84.12
400.165	87.12
400.389	81.12
400.613	89.12
400.837	73.12
401.062	75.12
401.286	63.12
401.51	81.12
401.734	94.12
401.958	107.12
402.182	123.12
402.406	156.12
402.63	110.12
402.854	87.12
403.078	81.12
403.302	89.12
403.526	80.12
403.75	81.12
403.974	70.12
404.198	90.12
404.422	78.12
404.645	88.12
404.869	96.12
405.093	89.12
405.317	95.12
405.541	90.12
405.765	85.12
405.988	110.12
406.212	169.12
406.436	239.12
406.66	157.12
406.883	100.12
407.107	88.12
407.331	86.12
407.555	82.12
407.778	95.12
408.002	94.12
408.226	86.12
408.449	87.12
408.673	84.12
408.896	96.12
409.12	87.12
409.344	78.12
409.567	77.12
409.791	83.12
410.014	86.12
410.238	87.12
410.461	82.12
410.685	78.12
410.908	85.12
411.132	98.12
411.355	110.12
411.578	95.12
411.802	71.12
412.025	73.12
412.249	80.12
412.472	82.12
412.695	98.12
412.919	75.12
413.142	85.12
413.365	89.12
413.589	79.12
413.812	88.12
414.035	79.12
414.258	88.12
414.482	82.12
414.705	85.12
414.928	76.12
415.151	82.12
415.374	89.12
415.597	78.12
415.821	74.12
416.044	70.12
416.267	75.12
416.49	77.12
416.713	86.12
416.936	77.12
417.159	95.12
417.382	98.12
417.605	87.12
417.828	84.12
418.051	85.12
418.274	92.12
418.497	78.12
418.72	93.12
418.943	90.12
419.166	82.12
419.389	66.12
419.611	96.12
419.834	88.12
420.057	86.12
420.28	91.12
420.503	68.12
420.726	101.12
420.948	73.12
421.171	69.12
421.394	97.12
421.617	97.12
421.839	93.12
422.062	81.12
422.285	85.12
422.507	90.12
422.73	102.12
422.953	104.12
423.175	82.12
423.398	78.12
423.621	91.12
423.843	93.12
424.066	88.12
424.288	88.12
424.511	72.12
424.733	95.12
424.956	89.12
425.178	96.12
425.401	103.12
425.623	105.12
425.846	88.12
426.068	103.12
426.291	90.12
426.513	69.12
426.735	83.12
426.958	91.12
427.18	86.12
427.402	129.12
427.625	154.12
427.847	128.12
428.069	105.12
428.292	105.12
428.514	88.12
428.736	85.12
428.958	79.12
429.181	89.12
429.403	81.12
429.625	83.12
429.847	86.12
430.069	86.12
430.292	80.12
430.514	92.12
430.736	102.12
430.958	88.12
431.18	82.12
431.402	73.12
431.624	80.12
431.846	79.12
432.068	84.12
432.29	86.12
432.512	84.12
432.734	77.12
432.956	90.12
433.178	89.12
433.4	82.12
433.622	90.12
433.844	93.12
434.066	87.12
434.287	88.12
434.509	95.12
434.731	84.12
434.953	79.12
435.175	78.12
435.397	84.12
435.618	91.12
435.84	90.12
436.062	103.12
436.284	99.12
436.505	87.12
436.727	94.12
436.949	98.12
437.17	98.12
437.392	82.12
437.614	90.12
437.835	112.12
438.057	117.12
438.278	90.12
438.5	86.12
438.721	98.12
438.943	83.12
439.165	86.12
439.386	91.12
439.608	88.12
439.829	94.12
440.05	114.12
440.272	121.12
440.493	82.12
440.715	74.12
440.936	67.12
441.158	96.12
441.379	82.12
441.6	90.12
441.822	87.12
442.043	82.12
442.264	89.12
442.486	83.12
442.707	105.12
442.928	102.12
443.149	116.12
443.371	127.12
443.592	94.12
443.813	102.12
444.034	88.12
444.255	92.12
444.476	84.12
444.698	90.12
444.919	86.12
445.14	120.12
445.361	118.12
445.582	100.12
445.803	116.12
446.024	127.12
446.245	129.12
446.466	103.12
446.687	74.12
446.908	80.12
447.129	84.12
447.35	90.12
447.571	85.12
447.792	97.12
448.013	100.12
448.234	96.12
448.455	86.12
448.675	105.12
448.896	111.12
449.117	85.12
449.338	95.12
449.559	127.12
449.779	124.12
450	76.12
450.221	84.12
450.442	79.12
450.662	95.12
450.883	94.12
451.104	106.12
451.324	106.12
451.545	86.12
451.766	84.12
451.986	66.12
452.207	91.12
452.428	86.12
452.648	95.12
452.869	94.12
453.089	105.12
453.31	98.12
453.53	99.12
453.751	91.12
453.971	93.12
454.192	112.12
454.412	91.12
454.633	75.12
454.853	89.12
455.073	88.12
455.294	88.12
455.514	94.12
455.734	91.12
455.955	85.12
456.175	93.12
456.395	77.12
456.616	89.12
456.836	80.12
457.056	71.12
457.276	86.12
457.497	93.12
457.717	70.12
457.937	80.12
458.157	87.12
458.377	84.12
458.598	106.12
458.818	143.12
459.038	143.12
459.258	107.12
459.478	83.12
459.698	90.12
459.918	82.12
460.138	79.12
460.358	68.12
460.578	73.12
460.798	89.12
461.018	83.12
461.238	81.12
461.458	87.12
461.678	84.12
461.898	95.12
462.118	94.12
462.338	85.12
462.558	71.12
462.777	79.12
462.997	74.12
463.217	79.12
463.437	81.12
463.657	80.12
463.876	84.12
464.096	72.12
464.316	85.12
464.536	81.12
464.755	98.12
464.975	106.12
465.195	149.12
465.414	143.12
465.634	97.12
465.854	90.12
466.073	101.12
466.293	90.12
466.512	82.12
466.732	93.12
466.951	92.12
467.171	101.12
467.391	97.12
467.61	104.12
467.829	117.12
468.049	97.12
468.268	135.12
468.488	88.12
468.707	72.12
468.927	78.12
469.146	81.12
469.365	74.12
469.585	84.12
469.804	90.12
470.023	87.12
470.243	81.12
470.462	102.12
470.681	100.12
470.901	94.12
471.12	96.12
471.339	88.12
471.558	93.12
471.777	78.12
471.997	96.12
472.216	157.12
472.435	222.12
472.654	111.12
472.873	83.12
473.092	94.12
473.311	77.12
473.53	78.12
473.749	89.12
473.968	92.12
474.187	85.12
474.406	94.12
474.625	83.12
474.844	68.12
475.063	89.12
475.282	95.12
475.501	77.12
475.72	86.12
475.939	98.12
476.158	89.12
476.377	93.12
476.596	75.12
476.814	95.12
477.033	93.12
477.252	88.12
477.471	77.12
477.69	82.12
477.908	86.12
478.127	83.12
478.346	89.12
478.564	79.12
478.783	87.12
479.002	86.12
479.22	104.12
479.439	95.12
479.658	100.12
479.876	93.12
480.095	80.12
480.313	89.12
480.532	79.12
480.751	90.12
480.969	139.12
481.188	331.12
481.406	248.12
481.624	104.12
481.843	85.12
482.061	79.12
482.28	87.12
482.498	80.12
482.717	89.12
482.935	84.12
483.153	72.12
483.372	84.12
483.59	87.12
483.808	88.12
484.027	85.12
484.245	82.12
484.463	86.12
484.681	79.12
484.9	85.12
485.118	78.12
485.336	87.12
485.554	75.12
485.772	87.12
485.99	104.12
486.209	96.12
486.427	80.12
486.645	105.12
486.863	94.12
487.081	90.12
487.299	104.12
487.517	107.12
487.735	92.12
487.953	92.12
488.171	87.12
488.389	98.12
488.607	99.12
488.825	85.12
489.043	86.12
489.261	93.12
489.479	82.12
489.696	79.12
489.914	85.12
490.132	93.12
490.35	86.12
490.568	87.12
490.786	86.12
491.003	75.12
491.221	88.12
491.439	80.12
491.657	80.12
491.874	81.12
492.092	88.12
492.31	84.12
492.527	86.12
492.745	107.12
492.963	82.12
493.18	99.12
493.398	89.12
493.615	94.12
493.833	90.12
494.05	85.12
494.268	90.12
494.485	91.12
494.703	78.12
494.92	85.12
495.138	81.12
495.355	85.12
495.573	73.12
495.79	83.12
496.008	81.12
496.225	98.12
496.442	89.12
496.66	93.12
496.877	79.12
497.094	83.12
497.312	95.12
497.529	85.12
497.746	79.12
497.963	85.12
498.181	98.12
498.398	96.12
498.615	114.12
498.832	107.12
499.049	87.12
499.267	79.12
499.484	80.12
499.701	92.12
499.918	76.12
500.135	84.12
500.352	83.12
500.569	91.12
500.786	88.12
501.003	86.12
501.22	90.12
501.437	78.12
501.654	85.12
501.871	102.12
502.088	83.12
502.305	85.12
502.522	99.12
502.739	84.12
502.956	73.12
503.172	82.12
503.389	92.12
503.606	97.12
503.823	86.12
504.04	91.12
504.256	99.12
504.473	74.12
504.69	81.12
504.907	98.12
505.123	85.12
505.34	81.12
505.557	92.12
505.773	89.12
505.99	93.12
506.207	85.12
506.423	96.12
506.64	84.12
506.856	101.12
507.073	81.12
507.289	82.12
507.506	86.12
507.722	101.12
507.939	117.12
508.155	105.12
508.372	84.12
508.588	87.12
508.805	102.12
509.021	96.12
509.238	98.12
509.454	89.12
509.67	96.12
509.887	90.12
510.103	133.12
510.319	202.12
510.536	740.12
510.752	2388.12
510.968	711.12
511.184	157.12
511.401	106.12
511.617	100.12
511.833	82.12
512.049	94.12
512.265	81.12
512.481	91.12
512.698	81.12
512.914	75.12
513.13	88.12
513.346	79.12
513.562	87.12
513.778	103.12
513.994	91.12
514.21	88.12
514.426	120.12
514.642	125.12
514.858	122.12
515.074	158.12
515.29	451.12
515.506	1565.12
515.721	590.12
515.937	150.12
516.153	114.12
516.369	91.12
516.585	92.12
516.801	78.12
517.016	86.12
517.232	94.12
517.448	97.12
517.664	83.12
517.879	80.12
518.095	101.12
518.311	90.12
518.527	91.12
518.742	82.12
518.958	83.12
519.173	85.12
519.389	86.12
519.605	94.12
519.82	97.12
520.036	91.12
520.251	110.12
520.467	103.12
520.682	98.12
520.898	96.12
521.113	98.12
521.329	129.12
521.544	195.12
521.76	544.12
521.975	2489.12
522.19	1570.12
522.406	337.12
522.621	127.12
522.836	110.12
523.052	100.12
523.267	88.12
523.482	102.12
523.698	104.12
523.913	117.12
524.128	106.12
524.343	83.12
524.559	87.12
524.774	101.12
524.989	99.12
525.204	105.12
525.419	89.12
525.634	92.12
525.849	99.12
526.064	95.12
526.28	89.12
526.495	83.12
526.71	104.12
526.925	86.12
527.14	97.12
527.355	94.12
527.57	84.12
527.785	83.12
527.999	82.12
528.214	90.12
528.429	82.12
528.644	84.12
528.859	85.12
529.074	84.12
529.289	102.12
529.503	176.12
529.718	107.12
529.933	84.12
530.148	78.12
530.363	91.12
530.577	87.12
530.792	90.12
531.007	86.12
531.221	81.12
531.436	81.12
531.651	88.12
531.865	98.12
532.08	83.12
532.295	88.12
532.509	88.12
532.724	97.12
532.938	82.12
533.153	89.12
533.367	83.12
533.582	78.12
533.796	87.12
534.011	82.12
534.225	91.12
534.44	98.12
534.654	95.12
534.868	93.12
535.083	78.12
535.297	85.12
535.511	101.12
535.726	96.12
535.94	94.12
536.154	90.12
536.369	92.12
536.583	85.12
536.797	98.12
537.011	75.12
537.225	89.12
537.44	90.12
537.654	94.12
537.868	77.12
538.082	83.12
538.296	69.12
538.51	66.12
538.724	73.12
538.938	83.12
539.153	87.12
539.367	106.12
539.581	83.12
539.795	87.12
540.009	88.12
540.222	96.12
540.436	83.12
540.65	80.12
540.864	81.12
541.078	85.12
541.292	95.12
541.506	103.12
541.72	84.12
541.934	95.12
542.147	85.12
542.361	68.12
542.575	77.12
542.789	84.12
543.002	93.12
543.216	81.12
543.43	109.12
543.644	99.12
543.857	75.12
544.071	81.12
544.285	89.12
544.498	80.12
544.712	94.12
544.925	87.12
545.139	75.12
545.352	85.12
545.566	88.12
545.779	96.12
545.993	78.12
546.206	92.12
546.42	89.12
546.633	76.12
546.847	89.12
547.06	82.12
547.274	90.12
547.487	82.12
547.7	90.12
547.914	82.12
548.127	80.12
548.34	75.12
548.554	74.12
548.767	84.12
548.98	86.12
549.193	85.12
549.407	80.12
549.62	74.12
549.833	89.12
550.046	79.12
550.259	77.12
550.473	96.12
550.686	79.12
550.899	78.12
551.112	88.12
551.325	92.12
551.538	86.12
551.751	86.12
551.964	87.12
552.177	94.12
552.39	100.12
552.603	78.12
552.816	93.12
553.029	91.12
553.242	70.12
553.455	82.12
553.667	107.12
553.88	89.12
554.093	88.12
554.306	93.12
554.519	93.12
554.732	83.12
554.944	96.12
555.157	85.12
555.37	84.12
555.583	90.12
555.795	74.12
556.008	71.12
556.221	96.12
556.433	99.12
556.646	76.12
556.859	86.12
557.071	76.12
557.284	79.12
557.496	77.12
557.709	80.12
557.921	90.12
558.134	100.12
558.346	91.12
558.559	67.12
558.771	86.12
558.984	82.12
559.196	104.12
559.409	90.12
559.621	82.12
559.833	89.12
560.046	95.12
560.258	87.12
560.47	79.12
560.683	94.12
560.895	82.12
561.107	84.12
561.32	95.12
561.532	93.12
561.744	96.12
561.956	97.12
562.168	99.12
562.381	79.12
562.593	81.12
562.805	91.12
563.017	87.12
563.229	85.12
563.441	74.12
563.653	86.12
563.865	86.12
564.077	88.12
564.289	90.12
564.501	74.12
564.713	71.12
564.925	88.12
565.137	113.12
565.349	95.12
565.561	95.12
565.773	82.12
565.985	88.12
566.197	91.12
566.408	86.12
566.62	100.12
566.832	77.12
567.044	80.12
567.255	79.12
567.467	90.12
567.679	90.12
567.891	90.12
568.102	87.12
568.314	106.12
568.526	86.12
568.737	83.12
568.949	88.12
569.161	95.12
569.372	92.12
569.584	89.12
569.795	85.12
570.007	110.12
570.218	238.12
570.43	122.12
570.641	90.12
570.853	80.12
571.064	70.12
571.276	77.12
571.487	74.12
571.698	80.12
571.91	69.12
572.121	75.12
572.333	72.12
572.544	83.12
572.755	94.12
572.966	105.12
573.178	80.12
573.389	83.12
573.6	86.12
573.811	81.12
574.023	97.12
574.234	88.12
574.445	80.12
574.656	93.12
574.867	91.12
575.078	95.12
575.289	88.12
575.501	94.12
575.712	78.12
575.923	70.12
576.134	86.12
576.345	93.12
576.556	82.12
576.767	78.12
576.978	84.12
577.188	95.12
577.399	94.12
577.61	95.12
577.821	89.12
578.032	103.12
578.243	257.12
578.454	801.12
578.665	223.12
578.875	100.12
579.086	89.12
579.297	76.12
579.508	68.12
579.718	85.12
579.929	86.12
580.14	70.12
580.35	81.12
580.561	74.12
580.772	79.12
580.982	84.12
581.193	86.12
581.403	92.12
581.614	79.12
581.825	73.12
582.035	75.12
582.246	73.12
582.456	78.12
582.667	75.12
582.877	86.12
583.087	79.12
583.298	80.12
583.508	79.12
583.719	85.12
583.929	96.12
584.139	69.12
584.35	83.12
584.56	81.12
584.77	84.12
584.981	80.12
585.191	86.12
585.401	71.12
585.611	87.12
585.821	86.12
586.032	82.12
586.242	82.12
586.452	84.12
586.662	79.12
586.872	74.12
587.082	69.12
587.292	82.12
587.502	81.12
587.713	73.12
587.923	90.12
588.133	88.12
588.343	96.12
588.553	81.12
588.762	82.12
588.972	88.12
589.182	125.12
589.392	93.12
589.602	85.12
589.812	89.12
590.022	76.12
590.232	72.12
590.441	86.12
590.651	92.12
590.861	85.12
591.071	84.12
591.281	76.12
591.49	71.12
591.7	94.12
591.91	73.12
592.119	69.12
592.329	91.12
592.539	85.12
592.748	82.12
592.958	82.12
593.167	83.12
593.377	75.12
593.587	78.12
593.796	104.12
594.006	87.12
594.215	84.12
594.424	97.12
594.634	81.12
594.843	57.12
595.053	71.12
595.262	79.12
595.472	83.12
595.681	87.12
595.89	86.12
596.1	87.12
596.309	89.12
596.518	85.12
596.727	96.12
596.937	89.12
597.146	85.12
597.355	83.12
597.564	88.12
597.774	73.12
597.983	79.12
598.192	88.12
598.401	74.12
598.61	93.12
598.819	87.12
599.028	80.12
599.237	86.12
599.446	85.12
599.655	79.12
599.864	80.12
600.073	101.12
600.282	88.12
600.491	68.12
600.7	76.12
600.909	74.12
601.118	74.12
601.327	80.12
601.536	84.12
601.745	88.12
601.953	89.12
602.162	90.12
602.371	79.12
602.58	77.12
602.789	70.12
602.997	67.12
603.206	78.12
603.415	75.12
603.623	76.12
603.832	69.12
604.041	79.12
604.249	80.12
604.458	81.12
604.666	84.12
604.875	82.12
605.084	97.12
605.292	79.12
605.501	81.12
605.709	90.12
605.918	80.12
606.126	81.12
606.334	83.12
606.543	79.12
606.751	86.12
606.96	87.12
607.168	89.12
607.376	85.12
607.585	85.12
607.793	81.12
608.001	65.12
608.21	78.12
608.418	85.12
608.626	64.12
608.834	89.12
609.043	102.12
609.251	77.12
609.459	74.12
609.667	80.12
609.875	73.12
610.083	91.12
610.291	75.12
610.499	91.12
610.707	84.12
610.916	82.12
611.124	85.12
611.332	82.12
611.54	86.12
611.748	97.12
611.955	77.12
612.163	84.12
612.371	89.12
612.579	83.12
612.787	85.12
612.995	82.12
613.203	93.12
613.411	81.12
613.618	79.12
613.826	93.12
614.034	83.12
614.242	86.12
614.449	82.12
614.657	94.12
614.865	106.12
615.072	71.12
615.28	75.12
615.488	75.12
615.695	82.12
615.903	80.12
616.111	91.12
616.318	94.12
616.526	64.12
616.733	77.12
616.941	89.12
617.148	87.12
617.356	87.12
617.563	89.12
617.771	77.12
617.978	92.12
618.185	88.12
618.393	71.12
618.6	98.12
618.807	85.12
619.015	86.12
619.222	93.12
619.429	89.12
619.637	82.12
619.844	87.12
620.051	72.12
620.258	82.12
620.466	85.12
620.673	89.12
620.88	78.12
621.087	81.12
621.294	78.12
621.501	85.12
621.708	67.12
621.915	84.12
622.122	79.12
622.329	69.12
622.536	85.12
622.743	83.12
622.95	72.12
623.157	74.12
623.364	75.12
623.571	70.12
623.778	78.12
623.985	82.12
624.192	68.12
624.399	70.12
624.606	72.12
624.812	85.12
625.019	92.12
625.226	90.12
625.433	72.12
625.639	83.12
625.846	78.12
626.053	82.12
626.259	81.12
626.466	72.12
626.673	79.12
626.879	79.12
627.086	84.12
627.293	90.12
627.499	68.12
627.706	81.12
627.912	82.12
628.119	72.12
628.325	83.12
628.532	81.12
628.738	78.12
628.945	86.12
629.151	83.12
629.357	79.12
629.564	91.12
629.77	80.12
629.976	70.12
630.183	96.12
630.389	81.12
630.595	57.12
630.802	72.12
631.008	85.12
631.214	75.12
631.42	90.12
631.627	88.12
631.833	72.12
632.039	83.12
632.245	79.12
632.451	93.12
632.657	82.12
632.863	92.12
633.069	78.12
633.275	73.12
633.481	90.12
633.688	85.12
633.893	73.12
634.099	82.12
634.305	83.12
634.511	76.12
634.717	69.12
634.923	81.12
635.129	80.12
635.335	81.12
635.541	82.12
635.747	78.12
635.952	84.12
636.158	69.12
636.364	93.12
636.57	87.12
636.775	86.12
636.981	77.12
637.187	80.12
637.392	82.12
637.598	83.12
637.804	88.12
638.009	70.12
638.215	63.12
638.421	86.12
638.626	87.12
638.832	89.12
639.037	73.12
639.243	80.12
639.448	64.12
639.654	74.12
639.859	68.12
640.065	70.12
640.27	74.12
640.475	73.12
640.681	67.12
640.886	79.12
641.091	77.12
641.297	81.12
641.502	82.12
641.707	81.12
641.913	78.12
642.118	71.12
642.323	66.12
642.528	88.12
642.733	76.12
642.939	92.12
643.144	82.12
643.349	72.12
643.554	58.12
643.759	91.12
643.964	80.12
644.169	75.12
644.374	73.12
644.579	69.12
644.784	69.12
644.989	76.12
645.194	74.12
645.399	80.12
645.604	86.12
645.809	84.12
646.014	97.12
646.219	82.12
646.423	66.12
646.628	68.12
646.833	72.12
647.038	79.12
647.243	77.12
647.447	81.12
647.652	73.12
647.857	94.12
648.062	79.12
648.266	70.12
648.471	88.12
648.676	76.12
648.88	87.12
649.085	79.12
649.289	93.12
649.494	110.12
649.698	116.12
649.903	82.12
650.107	91.12
650.312	90.12
650.516	73.12
650.721	74.12
650.925	69.12
651.13	81.12
651.334	88.12
651.539	88.12
651.743	88.12
651.947	79.12
652.152	78.12
652.356	85.12
652.56	84.12
652.764	82.12
652.969	80.12
653.173	84.12
653.377	73.12
653.581	81.12
653.785	71.12
653.99	77.12
654.194	79.12
654.398	75.12
654.602	80.12
654.806	88.12
655.01	84.12
655.214	71.12
655.418	82.12
655.622	68.12
655.826	87.12
656.03	80.12
656.234	84.12
656.438	98.12
656.642	100.12
656.846	89.12
657.049	66.12
657.253	84.12
657.457	83.12
657.661	79.12
657.865	87.12
658.068	93.12
658.272	79.12
658.476	81.12
658.68	83.12
658.883	87.12
659.087	81.12
659.291	68.12
659.494	61.12
659.698	66.12
659.901	66.12
660.105	85.12
660.309	90.12
660.512	72.12
660.716	80.12
660.919	86.12
661.123	87.12
661.326	76.12
661.53	84.12
661.733	78.12
661.936	80.12
662.14	78.12
662.343	83.12
662.546	72.12
662.75	75.12
662.953	78.12
663.156	74.12
663.36	70.12
663.563	70.12
663.766	65.12
663.969	68.12
664.173	89.12
664.376	69.12
664.579	68.12
664.782	65.12
664.985	83.12
665.188	75.12
665.391	64.12
665.594	64.12
665.797	66.12
666	72.12
666.203	68.12
666.406	73.12
666.609	88.12
666.812	82.12
667.015	79.12
667.218	79.12
667.421	80.12
667.624	72.12
667.827	69.12
668.03	89.12
668.232	89.12
668.435	74.12
668.638	82.12
668.841	86.12
669.043	76.12
669.246	78.12
669.449	95.12
669.651	74.12
669.854	68.12
670.057	71.12
670.259	74.12
670.462	71.12
670.665	68.12
670.867	79.12
671.07	71.12
671.272	76.12
671.475	83.12
671.677	73.12
671.88	77.12
672.082	71.12
672.284	79.12
672.487	68.12
672.689	73.12
672.892	80.12
