Data from Circ_2022_H10_HRD10591_00015.txt Node
Date: Wed Jan 03 09:53:40 EST 2024
User: Yrep
Spectrometer: HR+D1059
Trigger mode: 1
Integration Time (sec): 1.000000E-1
Scans to average: 1
Electric dark correction enabled: true
Nonlinearity correction enabled: false
Boxcar width: 0
XAxis mode: Wavelengths
Number of Pixels in Spectrum: 2048
>>>>>Begin Spectral Data<<<<<
223.165	-13.38
223.4	-13.38
223.635	-13.38
223.869	-14.38
224.104	-12.38
224.338	-9.38
224.573	-20.38
224.808	-11.38
225.042	-2.38
225.277	-15.38
225.511	-5.38
225.746	5.62
225.98	0.62
226.215	16.62
226.449	17.62
226.683	16.62
226.918	25.62
227.152	21.62
227.387	47.62
227.621	43.62
227.856	54.62
228.09	53.62
228.324	51.62
228.559	64.62
228.793	58.62
229.027	72.62
229.262	62.62
229.496	79.62
229.73	98.62
229.964	76.62
230.199	72.62
230.433	71.62
230.667	68.62
230.901	81.62
231.136	76.62
231.37	81.62
231.604	81.62
231.838	83.62
232.072	98.62
232.306	71.62
232.541	77.62
232.775	72.62
233.009	72.62
233.243	75.62
233.477	84.62
233.711	79.62
233.945	83.62
234.179	71.62
234.413	83.62
234.647	76.62
234.881	72.62
235.115	96.62
235.349	69.62
235.583	77.62
235.817	68.62
236.051	75.62
236.285	81.62
236.519	89.62
236.753	75.62
236.987	76.62
237.221	90.62
237.455	71.62
237.689	83.62
237.922	81.62
238.156	95.62
238.39	74.62
238.624	81.62
238.858	67.62
239.091	74.62
239.325	84.62
239.559	80.62
239.793	76.62
240.027	77.62
240.26	87.62
240.494	71.62
240.728	91.62
240.961	73.62
241.195	91.62
241.429	74.62
241.662	74.62
241.896	70.62
242.13	80.62
242.363	81.62
242.597	72.62
242.83	81.62
243.064	66.62
243.298	84.62
243.531	82.62
243.765	92.62
243.998	82.62
244.232	77.62
244.465	77.62
244.699	78.62
244.932	67.62
245.166	77.62
245.399	91.62
245.633	91.62
245.866	93.62
246.099	80.62
246.333	80.62
246.566	65.62
246.8	76.62
247.033	77.62
247.266	91.62
247.5	68.62
247.733	79.62
247.966	73.62
248.2	81.62
248.433	77.62
248.666	93.62
248.899	82.62
249.133	80.62
249.366	90.62
249.599	100.62
249.832	92.62
250.066	81.62
250.299	78.62
250.532	69.62
250.765	79.62
250.998	82.62
251.231	77.62
251.465	93.62
251.698	81.62
251.931	77.62
252.164	71.62
252.397	81.62
252.63	78.62
252.863	68.62
253.096	83.62
253.329	77.62
253.562	76.62
253.795	91.62
254.028	84.62
254.261	76.62
254.494	85.62
254.727	90.62
254.96	74.62
255.193	88.62
255.426	82.62
255.659	91.62
255.892	64.62
256.124	71.62
256.357	69.62
256.59	81.62
256.823	77.62
257.056	81.62
257.289	87.62
257.521	85.62
257.754	80.62
257.987	87.62
258.22	74.62
258.452	90.62
258.685	79.62
258.918	99.62
259.151	78.62
259.383	87.62
259.616	89.62
259.849	79.62
260.081	86.62
260.314	88.62
260.547	79.62
260.779	73.62
261.012	88.62
261.244	75.62
261.477	84.62
261.71	89.62
261.942	118.62
262.175	106.62
262.407	91.62
262.64	75.62
262.872	90.62
263.105	86.62
263.337	94.62
263.57	70.62
263.802	98.62
264.035	87.62
264.267	89.62
264.499	93.62
264.732	68.62
264.964	73.62
265.197	77.62
265.429	89.62
265.661	96.62
265.894	95.62
266.126	84.62
266.358	87.62
266.591	86.62
266.823	72.62
267.055	93.62
267.287	76.62
267.52	74.62
267.752	85.62
267.984	90.62
268.216	87.62
268.448	94.62
268.681	84.62
268.913	77.62
269.145	69.62
269.377	71.62
269.609	76.62
269.841	85.62
270.073	77.62
270.306	96.62
270.538	82.62
270.77	88.62
271.002	89.62
271.234	87.62
271.466	66.62
271.698	82.62
271.93	89.62
272.162	92.62
272.394	86.62
272.626	88.62
272.858	86.62
273.09	89.62
273.322	88.62
273.553	84.62
273.785	77.62
274.017	82.62
274.249	84.62
274.481	79.62
274.713	91.62
274.945	91.62
275.176	88.62
275.408	100.62
275.64	91.62
275.872	103.62
276.104	90.62
276.335	91.62
276.567	109.62
276.799	115.62
277.031	94.62
277.262	76.62
277.494	91.62
277.726	84.62
277.957	89.62
278.189	73.62
278.421	89.62
278.652	80.62
278.884	84.62
279.115	72.62
279.347	84.62
279.579	87.62
279.81	87.62
280.042	94.62
280.273	81.62
280.505	75.62
280.736	78.62
280.968	90.62
281.199	93.62
281.431	106.62
281.662	101.62
281.894	92.62
282.125	79.62
282.356	129.62
282.588	145.62
282.819	128.62
283.051	90.62
283.282	90.62
283.513	95.62
283.745	84.62
283.976	87.62
284.207	87.62
284.439	100.62
284.67	76.62
284.901	92.62
285.132	79.62
285.364	91.62
285.595	90.62
285.826	100.62
286.057	86.62
286.288	83.62
286.52	98.62
286.751	89.62
286.982	81.62
287.213	89.62
287.444	87.62
287.675	67.62
287.906	86.62
288.138	86.62
288.369	102.62
288.6	106.62
288.831	82.62
289.062	77.62
289.293	97.62
289.524	101.62
289.755	86.62
289.986	92.62
290.217	86.62
290.448	83.62
290.679	89.62
290.91	81.62
291.141	75.62
291.371	101.62
291.602	76.62
291.833	75.62
292.064	88.62
292.295	83.62
292.526	89.62
292.757	90.62
292.987	85.62
293.218	85.62
293.449	90.62
293.68	85.62
293.91	84.62
294.141	101.62
294.372	96.62
294.603	86.62
294.833	92.62
295.064	85.62
295.295	94.62
295.525	90.62
295.756	103.62
295.987	115.62
296.217	146.62
296.448	127.62
296.679	90.62
296.909	99.62
297.14	89.62
297.37	102.62
297.601	89.62
297.831	95.62
298.062	100.62
298.292	98.62
298.523	90.62
298.753	87.62
298.984	87.62
299.214	98.62
299.445	95.62
299.675	87.62
299.905	108.62
300.136	92.62
300.366	77.62
300.597	71.62
300.827	95.62
301.057	106.62
301.288	111.62
301.518	91.62
301.748	87.62
301.979	86.62
302.209	88.62
302.439	98.62
302.669	100.62
302.9	99.62
303.13	81.62
303.36	87.62
303.59	103.62
303.82	103.62
304.051	93.62
304.281	91.62
304.511	85.62
304.741	74.62
304.971	90.62
305.201	76.62
305.431	97.62
305.661	82.62
305.891	107.62
306.121	116.62
306.352	98.62
306.582	105.62
306.812	91.62
307.042	97.62
307.272	90.62
307.502	100.62
307.731	99.62
307.961	104.62
308.191	76.62
308.421	75.62
308.651	96.62
308.881	99.62
309.111	91.62
309.341	113.62
309.571	105.62
309.8	90.62
310.03	108.62
310.26	111.62
310.49	89.62
310.72	101.62
310.949	92.62
311.179	94.62
311.409	101.62
311.639	85.62
311.868	99.62
312.098	101.62
312.328	87.62
312.557	98.62
312.787	102.62
313.017	111.62
313.246	99.62
313.476	86.62
313.706	87.62
313.935	95.62
314.165	103.62
314.394	98.62
314.624	101.62
314.853	93.62
315.083	103.62
315.312	95.62
315.542	94.62
315.771	77.62
316.001	91.62
316.23	84.62
316.46	90.62
316.689	102.62
316.919	92.62
317.148	94.62
317.377	88.62
317.607	93.62
317.836	92.62
318.065	98.62
318.295	87.62
318.524	81.62
318.753	81.62
318.983	73.62
319.212	113.62
319.441	118.62
319.67	116.62
319.9	88.62
320.129	91.62
320.358	102.62
320.587	105.62
320.816	102.62
321.046	96.62
321.275	103.62
321.504	101.62
321.733	111.62
321.962	111.62
322.191	108.62
322.42	116.62
322.649	114.62
322.878	117.62
323.108	127.62
323.337	123.62
323.566	143.62
323.795	150.62
324.024	198.62
324.253	429.62
324.482	876.62
324.71	1802.62
324.939	2329.62
325.168	872.62
325.397	253.62
325.626	158.62
325.855	149.62
326.084	130.62
326.313	137.62
326.542	169.62
326.77	244.62
326.999	496.62
327.228	963.62
327.457	1731.62
327.686	1366.62
327.914	395.62
328.143	209.62
328.372	164.62
328.6	139.62
328.829	120.62
329.058	140.62
329.287	148.62
329.515	124.62
329.744	111.62
329.972	99.62
330.201	102.62
330.43	111.62
330.658	120.62
330.887	144.62
331.115	144.62
331.344	114.62
331.572	107.62
331.801	108.62
332.03	103.62
332.258	97.62
332.486	99.62
332.715	102.62
332.943	93.62
333.172	107.62
333.4	95.62
333.629	105.62
333.857	104.62
334.085	101.62
334.314	92.62
334.542	101.62
334.771	102.62
334.999	99.62
335.227	103.62
335.455	111.62
335.684	97.62
335.912	98.62
336.14	106.62
336.369	116.62
336.597	109.62
336.825	92.62
337.053	99.62
337.281	74.62
337.51	87.62
337.738	93.62
337.966	114.62
338.194	108.62
338.422	113.62
338.65	95.62
338.878	98.62
339.106	97.62
339.334	86.62
339.562	99.62
339.79	95.62
340.018	96.62
340.246	101.62
340.474	115.62
340.702	100.62
340.93	89.62
341.158	98.62
341.386	102.62
341.614	90.62
341.842	102.62
342.07	88.62
342.298	98.62
342.526	98.62
342.754	79.62
342.981	115.62
343.209	89.62
343.437	92.62
343.665	98.62
343.893	73.62
344.12	93.62
344.348	100.62
344.576	95.62
344.804	98.62
345.031	108.62
345.259	101.62
345.487	104.62
345.714	91.62
345.942	98.62
346.17	96.62
346.397	106.62
346.625	93.62
346.853	89.62
347.08	81.62
347.308	91.62
347.535	89.62
347.763	114.62
347.99	106.62
348.218	100.62
348.445	106.62
348.673	105.62
348.9	93.62
349.128	91.62
349.355	96.62
349.583	85.62
349.81	89.62
350.037	92.62
350.265	99.62
350.492	98.62
350.72	92.62
350.947	95.62
351.174	106.62
351.402	105.62
351.629	119.62
351.856	102.62
352.083	114.62
352.311	121.62
352.538	99.62
352.765	117.62
352.992	109.62
353.22	105.62
353.447	106.62
353.674	112.62
353.901	104.62
354.128	104.62
354.355	108.62
354.583	102.62
354.81	102.62
355.037	92.62
355.264	95.62
355.491	77.62
355.718	93.62
355.945	84.62
356.172	101.62
356.399	93.62
356.626	122.62
356.853	88.62
357.08	91.62
357.307	86.62
357.534	93.62
357.761	97.62
357.988	88.62
358.215	93.62
358.441	97.62
358.668	99.62
358.895	92.62
359.122	101.62
359.349	101.62
359.576	106.62
359.802	111.62
360.029	136.62
360.256	131.62
360.483	101.62
360.709	74.62
360.936	96.62
361.163	97.62
361.39	102.62
361.616	118.62
361.843	101.62
362.07	107.62
362.296	99.62
362.523	86.62
362.749	94.62
362.976	102.62
363.203	107.62
363.429	89.62
363.656	106.62
363.882	95.62
364.109	99.62
364.335	99.62
364.562	99.62
364.788	95.62
365.015	76.62
365.241	97.62
365.468	110.62
365.694	107.62
365.92	108.62
366.147	88.62
366.373	94.62
366.599	101.62
366.826	89.62
367.052	87.62
367.278	84.62
367.505	79.62
367.731	102.62
367.957	81.62
368.184	105.62
368.41	96.62
368.636	100.62
368.862	143.62
369.089	111.62
369.315	79.62
369.541	84.62
369.767	90.62
369.993	85.62
370.219	88.62
370.445	95.62
370.672	82.62
370.898	99.62
371.124	95.62
371.35	81.62
371.576	95.62
371.802	98.62
372.028	94.62
372.254	101.62
372.48	86.62
372.706	99.62
372.932	85.62
373.158	97.62
373.384	86.62
373.61	88.62
373.835	90.62
374.061	85.62
374.287	108.62
374.513	103.62
374.739	82.62
374.965	88.62
375.191	85.62
375.416	83.62
375.642	92.62
375.868	97.62
376.094	97.62
376.319	86.62
376.545	91.62
376.771	89.62
376.997	92.62
377.222	100.62
377.448	81.62
377.674	91.62
377.899	97.62
378.125	91.62
378.35	90.62
378.576	112.62
378.802	98.62
379.027	87.62
379.253	92.62
379.478	102.62
379.704	97.62
379.929	97.62
380.155	90.62
380.38	91.62
380.606	88.62
380.831	108.62
381.057	97.62
381.282	100.62
381.507	85.62
381.733	98.62
381.958	86.62
382.184	104.62
382.409	101.62
382.634	103.62
382.86	101.62
383.085	107.62
383.31	101.62
383.535	127.62
383.761	110.62
383.986	96.62
384.211	85.62
384.436	106.62
384.662	116.62
384.887	111.62
385.112	117.62
385.337	113.62
385.562	107.62
385.787	113.62
386.013	129.62
386.238	141.62
386.463	108.62
386.688	113.62
386.913	100.62
387.138	124.62
387.363	99.62
387.588	98.62
387.813	102.62
388.038	115.62
388.263	119.62
388.488	119.62
388.713	101.62
388.938	88.62
389.163	89.62
389.387	95.62
389.612	105.62
389.837	106.62
390.062	98.62
390.287	102.62
390.512	92.62
390.736	106.62
390.961	105.62
391.186	91.62
391.411	93.62
391.636	74.62
391.86	94.62
392.085	87.62
392.31	82.62
392.534	93.62
392.759	95.62
392.984	83.62
393.208	95.62
393.433	99.62
393.658	94.62
393.882	75.62
394.107	96.62
394.331	81.62
394.556	84.62
394.78	84.62
395.005	92.62
395.229	91.62
395.454	103.62
395.678	98.62
395.903	93.62
396.127	98.62
396.352	86.62
396.576	94.62
396.801	87.62
397.025	86.62
397.249	80.62
397.474	77.62
397.698	95.62
397.922	87.62
398.147	77.62
398.371	93.62
398.595	97.62
398.82	97.62
399.044	77.62
399.268	77.62
399.492	97.62
399.717	87.62
399.941	90.62
400.165	103.62
400.389	103.62
400.613	87.62
400.837	84.62
401.062	97.62
401.286	98.62
401.51	99.62
401.734	97.62
401.958	106.62
402.182	151.62
402.406	172.62
402.63	134.62
402.854	92.62
403.078	75.62
403.302	90.62
403.526	86.62
403.75	82.62
403.974	82.62
404.198	94.62
404.422	94.62
404.645	98.62
404.869	91.62
405.093	101.62
405.317	104.62
405.541	92.62
405.765	116.62
405.988	115.62
406.212	185.62
406.436	255.62
406.66	175.62
406.883	96.62
407.107	99.62
407.331	88.62
407.555	117.62
407.778	111.62
408.002	99.62
408.226	95.62
408.449	90.62
408.673	93.62
408.896	88.62
409.12	97.62
409.344	75.62
409.567	87.62
409.791	95.62
410.014	91.62
410.238	99.62
410.461	78.62
410.685	88.62
410.908	94.62
411.132	100.62
411.355	103.62
411.578	88.62
411.802	85.62
412.025	88.62
412.249	92.62
412.472	100.62
412.695	98.62
412.919	91.62
413.142	74.62
413.365	94.62
413.589	86.62
413.812	93.62
414.035	89.62
414.258	87.62
414.482	81.62
414.705	97.62
414.928	89.62
415.151	109.62
415.374	99.62
415.597	88.62
415.821	97.62
416.044	100.62
416.267	99.62
416.49	85.62
416.713	88.62
416.936	86.62
417.159	86.62
417.382	86.62
417.605	74.62
417.828	94.62
418.051	98.62
418.274	85.62
418.497	91.62
418.72	96.62
418.943	98.62
419.166	86.62
419.389	93.62
419.611	94.62
419.834	98.62
420.057	77.62
420.28	88.62
420.503	105.62
420.726	78.62
420.948	88.62
421.171	103.62
421.394	101.62
421.617	99.62
421.839	92.62
422.062	92.62
422.285	99.62
422.507	111.62
422.73	101.62
422.953	105.62
423.175	113.62
423.398	91.62
423.621	93.62
423.843	94.62
424.066	90.62
424.288	103.62
424.511	90.62
424.733	92.62
424.956	97.62
425.178	112.62
425.401	96.62
425.623	89.62
425.846	97.62
426.068	70.62
426.291	89.62
426.513	97.62
426.735	99.62
426.958	89.62
427.18	105.62
427.402	144.62
427.625	178.62
427.847	138.62
428.069	101.62
428.292	95.62
428.514	88.62
428.736	91.62
428.958	87.62
429.181	100.62
429.403	83.62
429.625	98.62
429.847	95.62
430.069	100.62
430.292	89.62
430.514	88.62
430.736	81.62
430.958	91.62
431.18	96.62
431.402	100.62
431.624	96.62
431.846	86.62
432.068	97.62
432.29	86.62
432.512	86.62
432.734	81.62
432.956	87.62
433.178	89.62
433.4	100.62
433.622	83.62
433.844	105.62
434.066	93.62
434.287	98.62
434.509	94.62
434.731	102.62
434.953	96.62
435.175	94.62
435.397	101.62
435.618	88.62
435.84	103.62
436.062	114.62
436.284	120.62
436.505	99.62
436.727	104.62
436.949	91.62
437.17	98.62
437.392	91.62
437.614	88.62
437.835	119.62
438.057	120.62
438.278	98.62
438.5	103.62
438.721	119.62
438.943	102.62
439.165	91.62
439.386	90.62
439.608	100.62
439.829	101.62
440.05	138.62
440.272	143.62
440.493	104.62
440.715	83.62
440.936	88.62
441.158	74.62
441.379	95.62
441.6	83.62
441.822	91.62
442.043	83.62
442.264	96.62
442.486	109.62
442.707	83.62
442.928	112.62
443.149	140.62
443.371	148.62
443.592	131.62
443.813	117.62
444.034	100.62
444.255	90.62
444.476	85.62
444.698	91.62
444.919	98.62
445.14	127.62
445.361	117.62
445.582	120.62
445.803	144.62
446.024	137.62
446.245	129.62
446.466	107.62
446.687	77.62
446.908	94.62
447.129	95.62
447.35	87.62
447.571	92.62
447.792	80.62
448.013	91.62
448.234	119.62
448.455	102.62
448.675	117.62
448.896	123.62
449.117	103.62
449.338	102.62
449.559	120.62
449.779	145.62
450	98.62
450.221	104.62
450.442	76.62
450.662	74.62
450.883	111.62
451.104	94.62
451.324	92.62
451.545	88.62
451.766	89.62
451.986	100.62
452.207	97.62
452.428	80.62
452.648	117.62
452.869	127.62
453.089	116.62
453.31	115.62
453.53	84.62
453.751	98.62
453.971	103.62
454.192	124.62
454.412	98.62
454.633	87.62
454.853	85.62
455.073	78.62
455.294	90.62
455.514	101.62
455.734	95.62
455.955	87.62
456.175	75.62
456.395	99.62
456.616	86.62
456.836	87.62
457.056	92.62
457.276	84.62
457.497	78.62
457.717	96.62
457.937	80.62
458.157	88.62
458.377	84.62
458.598	118.62
458.818	169.62
459.038	183.62
459.258	121.62
459.478	86.62
459.698	90.62
459.918	82.62
460.138	87.62
460.358	82.62
460.578	87.62
460.798	94.62
461.018	91.62
461.238	95.62
461.458	73.62
461.678	92.62
461.898	86.62
462.118	84.62
462.338	88.62
462.558	99.62
462.777	89.62
462.997	88.62
463.217	88.62
463.437	85.62
463.657	88.62
463.876	93.62
464.096	90.62
464.316	84.62
464.536	95.62
464.755	99.62
464.975	108.62
465.195	181.62
465.414	169.62
465.634	104.62
465.854	98.62
466.073	79.62
466.293	93.62
466.512	83.62
466.732	84.62
466.951	97.62
467.171	99.62
467.391	100.62
467.61	110.62
467.829	100.62
468.049	95.62
468.268	95.62
468.488	90.62
468.707	93.62
468.927	92.62
469.146	94.62
469.365	80.62
469.585	92.62
469.804	102.62
470.023	111.62
470.243	106.62
470.462	77.62
470.681	100.62
470.901	77.62
471.12	83.62
471.339	78.62
471.558	74.62
471.777	90.62
471.997	90.62
472.216	90.62
472.435	90.62
472.654	86.62
472.873	83.62
473.092	88.62
473.311	103.62
473.53	97.62
473.749	92.62
473.968	96.62
474.187	98.62
474.406	101.62
474.625	89.62
474.844	86.62
475.063	90.62
475.282	88.62
475.501	88.62
475.72	93.62
475.939	93.62
476.158	92.62
476.377	83.62
476.596	88.62
476.814	88.62
477.033	76.62
477.252	87.62
477.471	98.62
477.69	90.62
477.908	88.62
478.127	87.62
478.346	78.62
478.564	91.62
478.783	102.62
479.002	112.62
479.22	88.62
479.439	99.62
479.658	99.62
479.876	106.62
480.095	88.62
480.313	88.62
480.532	85.62
480.751	100.62
480.969	97.62
481.188	124.62
481.406	103.62
481.624	96.62
481.843	94.62
482.061	91.62
482.28	94.62
482.498	89.62
482.717	101.62
482.935	94.62
483.153	99.62
483.372	86.62
483.59	79.62
483.808	96.62
484.027	94.62
484.245	77.62
484.463	96.62
484.681	100.62
484.9	90.62
485.118	92.62
485.336	97.62
485.554	88.62
485.772	112.62
485.99	105.62
486.209	114.62
486.427	99.62
486.645	127.62
486.863	131.62
487.081	106.62
487.299	108.62
487.517	108.62
487.735	87.62
487.953	98.62
488.171	93.62
488.389	90.62
488.607	86.62
488.825	95.62
489.043	86.62
489.261	85.62
489.479	100.62
489.696	90.62
489.914	80.62
490.132	88.62
490.35	84.62
490.568	96.62
490.786	89.62
491.003	81.62
491.221	97.62
491.439	96.62
491.657	97.62
491.874	85.62
492.092	86.62
492.31	88.62
492.527	96.62
492.745	89.62
492.963	74.62
493.18	100.62
493.398	79.62
493.615	104.62
493.833	95.62
494.05	100.62
494.268	83.62
494.485	84.62
494.703	93.62
494.92	96.62
495.138	72.62
495.355	82.62
495.573	74.62
495.79	85.62
496.008	95.62
496.225	93.62
496.442	104.62
496.66	94.62
496.877	103.62
497.094	88.62
497.312	92.62
497.529	98.62
497.746	95.62
497.963	89.62
498.181	88.62
498.398	90.62
498.615	121.62
498.832	118.62
499.049	92.62
499.267	99.62
499.484	102.62
499.701	81.62
499.918	81.62
500.135	91.62
500.352	90.62
500.569	84.62
500.786	95.62
501.003	97.62
501.22	95.62
501.437	92.62
501.654	95.62
501.871	108.62
502.088	101.62
502.305	95.62
502.522	103.62
502.739	108.62
502.956	88.62
503.172	90.62
503.389	87.62
503.606	104.62
503.823	101.62
504.04	86.62
504.256	77.62
504.473	104.62
504.69	89.62
504.907	101.62
505.123	78.62
505.34	86.62
505.557	80.62
505.773	89.62
505.99	83.62
506.207	98.62
506.423	96.62
506.64	91.62
506.856	88.62
507.073	83.62
507.289	93.62
507.506	100.62
507.722	91.62
507.939	114.62
508.155	108.62
508.372	82.62
508.588	83.62
508.805	103.62
509.021	99.62
509.238	93.62
509.454	93.62
509.67	100.62
509.887	101.62
510.103	136.62
510.319	217.62
510.536	864.62
510.752	2933.62
510.968	847.62
511.184	168.62
511.401	133.62
511.617	115.62
511.833	108.62
512.049	102.62
512.265	111.62
512.481	101.62
512.698	89.62
512.914	93.62
513.13	93.62
513.346	91.62
513.562	99.62
513.778	107.62
513.994	80.62
514.21	118.62
514.426	118.62
514.642	160.62
514.858	141.62
515.074	186.62
515.29	540.62
515.506	1916.62
515.721	723.62
515.937	175.62
516.153	123.62
516.369	104.62
516.585	99.62
516.801	80.62
517.016	89.62
517.232	93.62
517.448	91.62
517.664	99.62
517.879	83.62
518.095	94.62
518.311	86.62
518.527	96.62
518.742	88.62
518.958	98.62
519.173	98.62
519.389	90.62
519.605	105.62
519.82	88.62
520.036	119.62
520.251	133.62
520.467	119.62
520.682	112.62
520.898	107.62
521.113	117.62
521.329	137.62
521.544	220.62
521.76	663.62
521.975	3089.62
522.19	1920.62
522.406	402.62
522.621	143.62
522.836	112.62
523.052	101.62
523.267	98.62
523.482	107.62
523.698	109.62
523.913	121.62
524.128	107.62
524.343	97.62
524.559	87.62
524.774	97.62
524.989	104.62
525.204	126.62
525.419	111.62
525.634	92.62
525.849	85.62
526.064	79.62
526.28	89.62
526.495	101.62
526.71	83.62
526.925	93.62
527.14	92.62
527.355	86.62
527.57	90.62
527.785	89.62
527.999	76.62
528.214	96.62
528.429	82.62
528.644	92.62
528.859	105.62
529.074	103.62
529.289	114.62
529.503	202.62
529.718	111.62
529.933	101.62
530.148	90.62
530.363	101.62
530.577	107.62
530.792	101.62
531.007	90.62
531.221	86.62
531.436	99.62
531.651	103.62
531.865	87.62
532.08	80.62
532.295	77.62
532.509	87.62
532.724	88.62
532.938	94.62
533.153	105.62
533.367	105.62
533.582	91.62
533.796	96.62
534.011	91.62
534.225	94.62
534.44	103.62
534.654	88.62
534.868	87.62
535.083	95.62
535.297	80.62
535.511	101.62
535.726	111.62
535.94	91.62
536.154	107.62
536.369	89.62
536.583	73.62
536.797	103.62
537.011	99.62
537.225	98.62
537.44	104.62
537.654	84.62
537.868	88.62
538.082	104.62
538.296	82.62
538.51	89.62
538.724	97.62
538.938	83.62
539.153	107.62
539.367	92.62
539.581	93.62
539.795	99.62
540.009	98.62
540.222	103.62
540.436	77.62
540.65	103.62
540.864	90.62
541.078	104.62
541.292	101.62
541.506	97.62
541.72	81.62
541.934	90.62
542.147	92.62
542.361	96.62
542.575	99.62
542.789	107.62
543.002	95.62
543.216	92.62
543.43	94.62
543.644	92.62
543.857	93.62
544.071	101.62
544.285	103.62
544.498	95.62
544.712	89.62
544.925	90.62
545.139	84.62
545.352	100.62
545.566	101.62
545.779	91.62
545.993	77.62
546.206	87.62
546.42	90.62
546.633	102.62
546.847	81.62
547.06	95.62
547.274	97.62
547.487	89.62
547.7	80.62
547.914	96.62
548.127	80.62
548.34	79.62
548.554	95.62
548.767	88.62
548.98	99.62
549.193	93.62
549.407	85.62
549.62	82.62
549.833	91.62
550.046	96.62
550.259	98.62
550.473	83.62
550.686	86.62
550.899	67.62
551.112	91.62
551.325	89.62
551.538	84.62
551.751	94.62
551.964	79.62
552.177	76.62
552.39	87.62
552.603	72.62
552.816	76.62
553.029	88.62
553.242	78.62
553.455	92.62
553.667	122.62
553.88	112.62
554.093	112.62
554.306	86.62
554.519	96.62
554.732	89.62
554.944	101.62
555.157	90.62
555.37	91.62
555.583	107.62
555.795	87.62
556.008	84.62
556.221	93.62
556.433	93.62
556.646	88.62
556.859	89.62
557.071	82.62
557.284	92.62
557.496	84.62
557.709	88.62
557.921	102.62
558.134	91.62
558.346	86.62
558.559	106.62
558.771	80.62
558.984	89.62
559.196	98.62
559.409	81.62
559.621	83.62
559.833	88.62
560.046	84.62
560.258	81.62
560.47	98.62
560.683	88.62
560.895	92.62
561.107	91.62
561.32	83.62
561.532	82.62
561.744	89.62
561.956	98.62
562.168	81.62
562.381	98.62
562.593	98.62
562.805	83.62
563.017	103.62
563.229	87.62
563.441	92.62
563.653	87.62
563.865	84.62
564.077	89.62
564.289	85.62
564.501	96.62
564.713	98.62
564.925	108.62
565.137	90.62
565.349	107.62
565.561	84.62
565.773	89.62
565.985	88.62
566.197	92.62
566.408	88.62
566.62	82.62
566.832	95.62
567.044	89.62
567.255	93.62
567.467	98.62
567.679	91.62
567.891	79.62
568.102	89.62
568.314	91.62
568.526	81.62
568.737	79.62
568.949	85.62
569.161	83.62
569.372	77.62
569.584	90.62
569.795	85.62
570.007	115.62
570.218	303.62
570.43	145.62
570.641	98.62
570.853	87.62
571.064	77.62
571.276	83.62
571.487	85.62
571.698	77.62
571.91	87.62
572.121	89.62
572.333	89.62
572.544	88.62
572.755	80.62
572.966	83.62
573.178	76.62
573.389	92.62
573.6	92.62
573.811	82.62
574.023	87.62
574.234	91.62
574.445	96.62
574.656	88.62
574.867	95.62
575.078	92.62
575.289	92.62
575.501	106.62
575.712	105.62
575.923	95.62
576.134	94.62
576.345	103.62
576.556	87.62
576.767	85.62
576.978	97.62
577.188	93.62
577.399	90.62
577.61	89.62
577.821	102.62
578.032	120.62
578.243	295.62
578.454	934.62
578.665	247.62
578.875	119.62
579.086	102.62
579.297	90.62
579.508	97.62
579.718	83.62
579.929	85.62
580.14	105.62
580.35	94.62
580.561	89.62
580.772	106.62
580.982	90.62
581.193	85.62
581.403	88.62
581.614	105.62
581.825	78.62
582.035	87.62
582.246	80.62
582.456	90.62
582.667	79.62
582.877	96.62
583.087	84.62
583.298	85.62
583.508	73.62
583.719	89.62
583.929	97.62
584.139	102.62
584.35	94.62
584.56	101.62
584.77	83.62
584.981	96.62
585.191	92.62
585.401	84.62
585.611	108.62
585.821	107.62
586.032	85.62
586.242	87.62
586.452	87.62
586.662	90.62
586.872	92.62
587.082	80.62
587.292	89.62
587.502	87.62
587.713	91.62
587.923	85.62
588.133	90.62
588.343	92.62
588.553	90.62
588.762	89.62
588.972	107.62
589.182	224.62
589.392	138.62
589.602	135.62
589.812	177.62
590.022	107.62
590.232	84.62
590.441	97.62
590.651	87.62
590.861	85.62
591.071	79.62
591.281	98.62
591.49	81.62
591.7	84.62
591.91	90.62
592.119	84.62
592.329	80.62
592.539	91.62
592.748	93.62
592.958	78.62
593.167	77.62
593.377	92.62
593.587	105.62
593.796	78.62
594.006	82.62
594.215	89.62
594.424	83.62
594.634	89.62
594.843	79.62
595.053	87.62
595.262	87.62
595.472	77.62
595.681	87.62
595.89	92.62
596.1	86.62
596.309	75.62
596.518	84.62
596.727	102.62
596.937	89.62
597.146	83.62
597.355	115.62
597.564	89.62
597.774	94.62
597.983	88.62
598.192	75.62
598.401	102.62
598.61	73.62
598.819	100.62
599.028	90.62
599.237	99.62
599.446	91.62
599.655	80.62
599.864	98.62
600.073	90.62
600.282	81.62
600.491	83.62
600.7	85.62
600.909	93.62
601.118	96.62
601.327	89.62
601.536	88.62
601.745	96.62
601.953	87.62
602.162	83.62
602.371	81.62
602.58	96.62
602.789	85.62
602.997	81.62
603.206	82.62
603.415	88.62
603.623	93.62
603.832	87.62
604.041	99.62
604.249	95.62
604.458	94.62
604.666	95.62
604.875	77.62
605.084	88.62
605.292	75.62
605.501	84.62
605.709	86.62
605.918	99.62
606.126	83.62
606.334	81.62
606.543	97.62
606.751	92.62
606.96	90.62
607.168	101.62
607.376	97.62
607.585	97.62
607.793	84.62
608.001	82.62
608.21	82.62
608.418	86.62
608.626	84.62
608.834	91.62
609.043	82.62
609.251	93.62
609.459	75.62
609.667	83.62
609.875	102.62
610.083	72.62
610.291	82.62
610.499	91.62
610.707	87.62
610.916	88.62
611.124	90.62
611.332	61.62
611.54	83.62
611.748	83.62
611.955	86.62
612.163	90.62
612.371	83.62
612.579	89.62
612.787	86.62
612.995	91.62
613.203	88.62
613.411	72.62
613.618	76.62
613.826	80.62
614.034	92.62
614.242	98.62
614.449	94.62
614.657	86.62
614.865	93.62
615.072	90.62
615.28	86.62
615.488	75.62
615.695	91.62
615.903	87.62
616.111	89.62
616.318	107.62
616.526	100.62
616.733	99.62
616.941	91.62
617.148	86.62
617.356	81.62
617.563	82.62
617.771	64.62
617.978	88.62
618.185	89.62
618.393	87.62
618.6	95.62
618.807	77.62
619.015	76.62
619.222	103.62
619.429	69.62
619.637	69.62
619.844	103.62
620.051	70.62
620.258	87.62
620.466	95.62
620.673	86.62
620.88	77.62
621.087	83.62
621.294	89.62
621.501	71.62
621.708	79.62
621.915	81.62
622.122	90.62
622.329	82.62
622.536	96.62
622.743	91.62
622.95	87.62
623.157	74.62
623.364	76.62
623.571	90.62
623.778	97.62
623.985	90.62
624.192	83.62
624.399	77.62
624.606	72.62
624.812	88.62
625.019	88.62
625.226	87.62
625.433	91.62
625.639	97.62
625.846	86.62
626.053	104.62
626.259	95.62
626.466	89.62
626.673	96.62
626.879	83.62
627.086	85.62
627.293	89.62
627.499	81.62
627.706	75.62
627.912	83.62
628.119	83.62
628.325	85.62
628.532	84.62
628.738	103.62
628.945	92.62
629.151	89.62
629.357	85.62
629.564	89.62
629.77	82.62
629.976	84.62
630.183	85.62
630.389	91.62
630.595	91.62
630.802	91.62
631.008	79.62
631.214	92.62
631.42	78.62
631.627	85.62
631.833	81.62
632.039	94.62
632.245	88.62
632.451	77.62
632.657	86.62
632.863	99.62
633.069	93.62
633.275	100.62
633.481	80.62
633.688	90.62
633.893	94.62
634.099	86.62
634.305	80.62
634.511	73.62
634.717	85.62
634.923	81.62
635.129	82.62
635.335	96.62
635.541	78.62
635.747	86.62
635.952	95.62
636.158	90.62
636.364	86.62
636.57	90.62
636.775	89.62
636.981	79.62
637.187	87.62
637.392	81.62
637.598	83.62
637.804	94.62
638.009	75.62
638.215	82.62
638.421	89.62
638.626	82.62
638.832	92.62
639.037	90.62
639.243	89.62
639.448	86.62
639.654	101.62
639.859	85.62
640.065	81.62
640.27	90.62
640.475	75.62
640.681	92.62
640.886	86.62
641.091	84.62
641.297	88.62
641.502	92.62
641.707	100.62
641.913	82.62
642.118	93.62
642.323	89.62
642.528	90.62
642.733	88.62
642.939	93.62
643.144	88.62
643.349	85.62
643.554	91.62
643.759	83.62
643.964	82.62
644.169	77.62
644.374	96.62
644.579	84.62
644.784	83.62
644.989	83.62
645.194	76.62
645.399	91.62
645.604	79.62
645.809	90.62
646.014	88.62
646.219	98.62
646.423	86.62
646.628	97.62
646.833	86.62
647.038	73.62
647.243	81.62
647.447	96.62
647.652	78.62
647.857	89.62
648.062	84.62
648.266	91.62
648.471	111.62
648.676	92.62
648.88	89.62
649.085	92.62
649.289	88.62
649.494	111.62
649.698	116.62
649.903	106.62
650.107	82.62
650.312	87.62
650.516	83.62
650.721	88.62
650.925	94.62
651.13	82.62
651.334	84.62
651.539	89.62
651.743	90.62
651.947	83.62
652.152	93.62
652.356	81.62
652.56	73.62
652.764	75.62
652.969	94.62
653.173	87.62
653.377	87.62
653.581	97.62
653.785	89.62
653.99	99.62
654.194	78.62
654.398	92.62
654.602	93.62
654.806	92.62
655.01	98.62
655.214	85.62
655.418	74.62
655.622	88.62
655.826	91.62
656.03	94.62
656.234	99.62
656.438	100.62
656.642	96.62
656.846	93.62
657.049	101.62
657.253	87.62
657.457	89.62
657.661	98.62
657.865	95.62
658.068	74.62
658.272	89.62
658.476	81.62
658.68	83.62
658.883	92.62
659.087	84.62
659.291	81.62
659.494	77.62
659.698	69.62
659.901	97.62
660.105	88.62
660.309	73.62
660.512	75.62
660.716	85.62
660.919	89.62
661.123	84.62
661.326	79.62
661.53	82.62
661.733	67.62
661.936	89.62
662.14	85.62
662.343	74.62
662.546	94.62
662.75	78.62
662.953	88.62
663.156	87.62
663.36	71.62
663.563	70.62
663.766	87.62
663.969	68.62
664.173	82.62
664.376	82.62
664.579	76.62
664.782	89.62
664.985	89.62
665.188	75.62
665.391	84.62
665.594	83.62
665.797	90.62
666	85.62
666.203	80.62
666.406	90.62
666.609	70.62
666.812	75.62
667.015	82.62
667.218	90.62
667.421	80.62
667.624	82.62
667.827	80.62
668.03	84.62
668.232	81.62
668.435	70.62
668.638	89.62
668.841	82.62
669.043	84.62
669.246	70.62
669.449	85.62
669.651	93.62
669.854	82.62
670.057	72.62
670.259	82.62
670.462	85.62
670.665	88.62
670.867	80.62
671.07	92.62
671.272	98.62
671.475	81.62
671.677	82.62
671.88	83.62
672.082	74.62
672.284	87.62
672.487	79.62
672.689	86.62
672.892	95.62
