Data from StdC_HRD10591_050.txt Node
Date: Fri May 16 15:29:05 EDT 2025
User: Yrep
Spectrometer: HR+D1059
Trigger mode: 1
Integration Time (sec): 1.000000E-1
Scans to average: 1
Electric dark correction enabled: true
Nonlinearity correction enabled: false
Boxcar width: 0
XAxis mode: Wavelengths
Number of Pixels in Spectrum: 2048
>>>>>Begin Spectral Data<<<<<
223.165	-25.5
223.4	-25.5
223.635	-25.5
223.869	-26.5
224.104	-18.5
224.338	-4.5
224.573	-17.5
224.808	-7.5
225.042	-24.5
225.277	-16.5
225.511	-0.5
225.746	6.5
225.98	7.5
226.215	24.5
226.449	34.5
226.683	12.5
226.918	29.5
227.152	26.5
227.387	36.5
227.621	46.5
227.856	41.5
228.09	43.5
228.324	57.5
228.559	58.5
228.793	51.5
229.027	59.5
229.262	70.5
229.496	65.5
229.73	78.5
229.964	80.5
230.199	73.5
230.433	91.5
230.667	80.5
230.901	91.5
231.136	104.5
231.37	86.5
231.604	83.5
231.838	82.5
232.072	82.5
232.306	78.5
232.541	92.5
232.775	103.5
233.009	87.5
233.243	86.5
233.477	83.5
233.711	79.5
233.945	106.5
234.179	98.5
234.413	91.5
234.647	107.5
234.881	86.5
235.115	72.5
235.349	85.5
235.583	92.5
235.817	79.5
236.051	76.5
236.285	86.5
236.519	94.5
236.753	89.5
236.987	87.5
237.221	85.5
237.455	86.5
237.689	79.5
237.922	71.5
238.156	88.5
238.39	90.5
238.624	86.5
238.858	77.5
239.091	95.5
239.325	85.5
239.559	92.5
239.793	80.5
240.027	98.5
240.26	85.5
240.494	94.5
240.728	95.5
240.961	100.5
241.195	95.5
241.429	86.5
241.662	97.5
241.896	104.5
242.13	97.5
242.363	93.5
242.597	98.5
242.83	94.5
243.064	96.5
243.298	92.5
243.531	83.5
243.765	94.5
243.998	88.5
244.232	88.5
244.465	90.5
244.699	86.5
244.932	108.5
245.166	98.5
245.399	95.5
245.633	104.5
245.866	91.5
246.099	92.5
246.333	102.5
246.566	104.5
246.8	103.5
247.033	114.5
247.266	95.5
247.5	97.5
247.733	112.5
247.966	110.5
248.2	103.5
248.433	95.5
248.666	108.5
248.899	98.5
249.133	126.5
249.366	121.5
249.599	118.5
249.832	124.5
250.066	136.5
250.299	164.5
250.532	194.5
250.765	171.5
250.998	135.5
251.231	141.5
251.465	125.5
251.698	122.5
251.931	125.5
252.164	115.5
252.397	124.5
252.63	117.5
252.863	130.5
253.096	118.5
253.329	109.5
253.562	130.5
253.795	119.5
254.028	126.5
254.261	126.5
254.494	132.5
254.727	114.5
254.96	137.5
255.193	137.5
255.426	147.5
255.659	184.5
255.892	256.5
256.124	303.5
256.357	253.5
256.59	199.5
256.823	163.5
257.056	169.5
257.289	151.5
257.521	146.5
257.754	142.5
257.987	134.5
258.22	138.5
258.452	123.5
258.685	147.5
258.918	135.5
259.151	134.5
259.383	134.5
259.616	119.5
259.849	142.5
260.081	128.5
260.314	142.5
260.547	121.5
260.779	127.5
261.012	146.5
261.244	142.5
261.477	131.5
261.71	126.5
261.942	132.5
262.175	138.5
262.407	131.5
262.64	120.5
262.872	135.5
263.105	117.5
263.337	117.5
263.57	119.5
263.802	129.5
264.035	141.5
264.267	114.5
264.499	138.5
264.732	135.5
264.964	128.5
265.197	111.5
265.429	116.5
265.661	115.5
265.894	118.5
266.126	135.5
266.358	127.5
266.591	112.5
266.823	127.5
267.055	140.5
267.287	130.5
267.52	143.5
267.752	112.5
267.984	132.5
268.216	132.5
268.448	135.5
268.681	144.5
268.913	136.5
269.145	135.5
269.377	142.5
269.609	120.5
269.841	127.5
270.073	128.5
270.306	131.5
270.538	122.5
270.77	138.5
271.002	138.5
271.234	136.5
271.466	141.5
271.698	139.5
271.93	128.5
272.162	153.5
272.394	144.5
272.626	139.5
272.858	132.5
273.09	149.5
273.322	146.5
273.553	138.5
273.785	150.5
274.017	159.5
274.249	156.5
274.481	135.5
274.713	146.5
274.945	149.5
275.176	155.5
275.408	178.5
275.64	154.5
275.872	188.5
276.104	178.5
276.335	179.5
276.567	175.5
276.799	187.5
277.031	201.5
277.262	228.5
277.494	213.5
277.726	196.5
277.957	198.5
278.189	185.5
278.421	183.5
278.652	153.5
278.884	166.5
279.115	173.5
279.347	197.5
279.579	197.5
279.81	218.5
280.042	255.5
280.273	288.5
280.505	258.5
280.736	198.5
280.968	193.5
281.199	176.5
281.431	173.5
281.662	174.5
281.894	182.5
282.125	166.5
282.356	156.5
282.588	155.5
282.819	163.5
283.051	155.5
283.282	143.5
283.513	163.5
283.745	170.5
283.976	154.5
284.207	149.5
284.439	161.5
284.67	166.5
284.901	141.5
285.132	141.5
285.364	150.5
285.595	151.5
285.826	142.5
286.057	141.5
286.288	174.5
286.52	160.5
286.751	152.5
286.982	151.5
287.213	165.5
287.444	164.5
287.675	144.5
287.906	153.5
288.138	162.5
288.369	168.5
288.6	167.5
288.831	147.5
289.062	161.5
289.293	154.5
289.524	162.5
289.755	138.5
289.986	149.5
290.217	154.5
290.448	153.5
290.679	165.5
290.91	165.5
291.141	160.5
291.371	164.5
291.602	152.5
291.833	150.5
292.064	134.5
292.295	143.5
292.526	141.5
292.757	159.5
292.987	157.5
293.218	143.5
293.449	152.5
293.68	167.5
293.91	141.5
294.141	162.5
294.372	153.5
294.603	156.5
294.833	165.5
295.064	156.5
295.295	164.5
295.525	150.5
295.756	151.5
295.987	144.5
296.217	168.5
296.448	149.5
296.679	150.5
296.909	160.5
297.14	154.5
297.37	155.5
297.601	157.5
297.831	149.5
298.062	142.5
298.292	174.5
298.523	161.5
298.753	158.5
298.984	156.5
299.214	160.5
299.445	152.5
299.675	153.5
299.905	159.5
300.136	169.5
300.366	160.5
300.597	153.5
300.827	164.5
301.057	170.5
301.288	158.5
301.518	158.5
301.748	169.5
301.979	192.5
302.209	166.5
302.439	176.5
302.669	159.5
302.9	169.5
303.13	187.5
303.36	183.5
303.59	196.5
303.82	218.5
304.051	192.5
304.281	177.5
304.511	173.5
304.741	178.5
304.971	168.5
305.201	175.5
305.431	163.5
305.661	156.5
305.891	165.5
306.121	156.5
306.352	170.5
306.582	153.5
306.812	184.5
307.042	176.5
307.272	228.5
307.502	241.5
307.731	211.5
307.961	205.5
308.191	172.5
308.421	166.5
308.651	152.5
308.881	168.5
309.111	153.5
309.341	160.5
309.571	159.5
309.8	154.5
310.03	175.5
310.26	156.5
310.49	162.5
310.72	180.5
310.949	160.5
311.179	176.5
311.409	172.5
311.639	162.5
311.868	170.5
312.098	174.5
312.328	187.5
312.557	187.5
312.787	179.5
313.017	179.5
313.246	180.5
313.476	162.5
313.706	159.5
313.935	159.5
314.165	164.5
314.394	186.5
314.624	182.5
314.853	170.5
315.083	172.5
315.312	188.5
315.542	187.5
315.771	170.5
316.001	183.5
316.23	180.5
316.46	167.5
316.689	182.5
316.919	173.5
317.148	177.5
317.377	187.5
317.607	199.5
317.836	186.5
318.065	176.5
318.295	167.5
318.524	180.5
318.753	189.5
318.983	195.5
319.212	187.5
319.441	182.5
319.67	184.5
319.9	173.5
320.129	194.5
320.358	186.5
320.587	168.5
320.816	189.5
321.046	189.5
321.275	206.5
321.504	192.5
321.733	173.5
321.962	182.5
322.191	201.5
322.42	181.5
322.649	194.5
322.878	204.5
323.108	207.5
323.337	206.5
323.566	229.5
323.795	204.5
324.024	221.5
324.253	221.5
324.482	204.5
324.71	207.5
324.939	239.5
325.168	216.5
325.397	226.5
325.626	226.5
325.855	215.5
326.084	246.5
326.313	250.5
326.542	253.5
326.77	262.5
326.999	263.5
327.228	287.5
327.457	334.5
327.686	395.5
327.914	537.5
328.143	698.5
328.372	742.5
328.6	541.5
328.829	402.5
329.058	389.5
329.287	411.5
329.515	517.5
329.744	694.5
329.972	957.5
330.201	1301.5
330.43	1348.5
330.658	794.5
330.887	474.5
331.115	374.5
331.344	358.5
331.572	326.5
331.801	306.5
332.03	321.5
332.258	313.5
332.486	341.5
332.715	318.5
332.943	375.5
333.172	381.5
333.4	440.5
333.629	518.5
333.857	703.5
334.085	1059.5
334.314	1530.5
334.542	1857.5
334.771	1500.5
334.999	773.5
335.227	516.5
335.455	398.5
335.684	345.5
335.912	321.5
336.14	301.5
336.369	280.5
336.597	260.5
336.825	267.5
337.053	259.5
337.281	254.5
337.51	236.5
337.738	239.5
337.966	232.5
338.194	243.5
338.422	216.5
338.65	221.5
338.878	220.5
339.106	212.5
339.334	214.5
339.562	221.5
339.79	209.5
340.018	198.5
340.246	198.5
340.474	211.5
340.702	204.5
340.93	190.5
341.158	205.5
341.386	206.5
341.614	195.5
341.842	198.5
342.07	188.5
342.298	206.5
342.526	186.5
342.754	194.5
342.981	194.5
343.209	210.5
343.437	183.5
343.665	213.5
343.893	207.5
344.12	189.5
344.348	185.5
344.576	201.5
344.804	190.5
345.031	182.5
345.259	196.5
345.487	186.5
345.714	201.5
345.942	180.5
346.17	192.5
346.397	203.5
346.625	171.5
346.853	190.5
347.08	185.5
347.308	198.5
347.535	178.5
347.763	179.5
347.99	184.5
348.218	163.5
348.445	175.5
348.673	185.5
348.9	175.5
349.128	194.5
349.355	179.5
349.583	189.5
349.81	182.5
350.037	174.5
350.265	174.5
350.492	178.5
350.72	171.5
350.947	171.5
351.174	176.5
351.402	190.5
351.629	186.5
351.856	196.5
352.083	178.5
352.311	178.5
352.538	171.5
352.765	186.5
352.992	190.5
353.22	171.5
353.447	181.5
353.674	184.5
353.901	184.5
354.128	187.5
354.355	179.5
354.583	178.5
354.81	165.5
355.037	196.5
355.264	177.5
355.491	186.5
355.718	188.5
355.945	165.5
356.172	183.5
356.399	171.5
356.626	161.5
356.853	185.5
357.08	186.5
357.307	200.5
357.534	162.5
357.761	173.5
357.988	169.5
358.215	183.5
358.441	187.5
358.668	171.5
358.895	184.5
359.122	185.5
359.349	178.5
359.576	183.5
359.802	186.5
360.029	178.5
360.256	178.5
360.483	181.5
360.709	167.5
360.936	186.5
361.163	184.5
361.39	179.5
361.616	178.5
361.843	181.5
362.07	170.5
362.296	182.5
362.523	178.5
362.749	173.5
362.976	179.5
363.203	205.5
363.429	170.5
363.656	182.5
363.882	160.5
364.109	170.5
364.335	166.5
364.562	167.5
364.788	167.5
365.015	179.5
365.241	188.5
365.468	192.5
365.694	191.5
365.92	167.5
366.147	188.5
366.373	189.5
366.599	184.5
366.826	166.5
367.052	167.5
367.278	185.5
367.505	176.5
367.731	191.5
367.957	180.5
368.184	178.5
368.41	170.5
368.636	169.5
368.862	199.5
369.089	173.5
369.315	175.5
369.541	162.5
369.767	182.5
369.993	188.5
370.219	185.5
370.445	183.5
370.672	189.5
370.898	185.5
371.124	190.5
371.35	182.5
371.576	189.5
371.802	195.5
372.028	184.5
372.254	200.5
372.48	196.5
372.706	186.5
372.932	178.5
373.158	184.5
373.384	191.5
373.61	190.5
373.835	178.5
374.061	179.5
374.287	191.5
374.513	184.5
374.739	191.5
374.965	185.5
375.191	196.5
375.416	199.5
375.642	188.5
375.868	175.5
376.094	191.5
376.319	183.5
376.545	158.5
376.771	193.5
376.997	181.5
377.222	187.5
377.448	175.5
377.674	194.5
377.899	168.5
378.125	183.5
378.35	183.5
378.576	184.5
378.802	195.5
379.027	198.5
379.253	182.5
379.478	179.5
379.704	175.5
379.929	181.5
380.155	204.5
380.38	185.5
380.606	183.5
380.831	204.5
381.057	189.5
381.282	186.5
381.507	195.5
381.733	197.5
381.958	198.5
382.184	193.5
382.409	188.5
382.634	182.5
382.86	179.5
383.085	202.5
383.31	200.5
383.535	223.5
383.761	204.5
383.986	186.5
384.211	212.5
384.436	192.5
384.662	196.5
384.887	203.5
385.112	207.5
385.337	194.5
385.562	207.5
385.787	197.5
386.013	191.5
386.238	206.5
386.463	206.5
386.688	205.5
386.913	207.5
387.138	198.5
387.363	204.5
387.588	203.5
387.813	217.5
388.038	198.5
388.263	195.5
388.488	205.5
388.713	205.5
388.938	208.5
389.163	198.5
389.387	206.5
389.612	211.5
389.837	209.5
390.062	211.5
390.287	203.5
390.512	204.5
390.736	205.5
390.961	206.5
391.186	211.5
391.411	207.5
391.636	203.5
391.86	219.5
392.085	206.5
392.31	200.5
392.534	205.5
392.759	216.5
392.984	219.5
393.208	216.5
393.433	194.5
393.658	210.5
393.882	216.5
394.107	234.5
394.331	208.5
394.556	204.5
394.78	193.5
395.005	229.5
395.229	230.5
395.454	215.5
395.678	234.5
395.903	225.5
396.127	208.5
396.352	226.5
396.576	212.5
396.801	223.5
397.025	224.5
397.249	220.5
397.474	224.5
397.698	240.5
397.922	227.5
398.147	223.5
398.371	236.5
398.595	228.5
398.82	242.5
399.044	251.5
399.268	264.5
399.492	272.5
399.717	278.5
399.941	270.5
400.165	254.5
400.389	251.5
400.613	250.5
400.837	231.5
401.062	247.5
401.286	227.5
401.51	246.5
401.734	218.5
401.958	261.5
402.182	245.5
402.406	235.5
402.63	239.5
402.854	239.5
403.078	231.5
403.302	242.5
403.526	238.5
403.75	255.5
403.974	261.5
404.198	263.5
404.422	249.5
404.645	270.5
404.869	291.5
405.093	308.5
405.317	314.5
405.541	328.5
405.765	283.5
405.988	263.5
406.212	261.5
406.436	250.5
406.66	268.5
406.883	244.5
407.107	265.5
407.331	246.5
407.555	277.5
407.778	270.5
408.002	248.5
408.226	254.5
408.449	260.5
408.673	243.5
408.896	246.5
409.12	240.5
409.344	245.5
409.567	245.5
409.791	246.5
410.014	264.5
410.238	256.5
410.461	262.5
410.685	245.5
410.908	244.5
411.132	240.5
411.355	244.5
411.578	253.5
411.802	268.5
412.025	283.5
412.249	280.5
412.472	312.5
412.695	335.5
412.919	310.5
413.142	298.5
413.365	276.5
413.589	264.5
413.812	267.5
414.035	268.5
414.258	274.5
414.482	258.5
414.705	274.5
414.928	253.5
415.151	249.5
415.374	232.5
415.597	250.5
415.821	236.5
416.044	243.5
416.267	244.5
416.49	244.5
416.713	232.5
416.936	234.5
417.159	242.5
417.382	260.5
417.605	267.5
417.828	269.5
418.051	227.5
418.274	240.5
418.497	240.5
418.72	241.5
418.943	240.5
419.166	263.5
419.389	262.5
419.611	277.5
419.834	257.5
420.057	295.5
420.28	304.5
420.503	298.5
420.726	277.5
420.948	281.5
421.171	272.5
421.394	255.5
421.617	259.5
421.839	256.5
422.062	257.5
422.285	241.5
422.507	231.5
422.73	244.5
422.953	232.5
423.175	245.5
423.398	254.5
423.621	247.5
423.843	237.5
424.066	248.5
424.288	241.5
424.511	251.5
424.733	242.5
424.956	217.5
425.178	232.5
425.401	252.5
425.623	237.5
425.846	236.5
426.068	223.5
426.291	241.5
426.513	244.5
426.735	230.5
426.958	240.5
427.18	244.5
427.402	250.5
427.625	311.5
427.847	322.5
428.069	332.5
428.292	292.5
428.514	273.5
428.736	246.5
428.958	233.5
429.181	229.5
429.403	238.5
429.625	222.5
429.847	219.5
430.069	217.5
430.292	220.5
430.514	228.5
430.736	221.5
430.958	221.5
431.18	214.5
431.402	226.5
431.624	200.5
431.846	204.5
432.068	234.5
432.29	202.5
432.512	201.5
432.734	206.5
432.956	238.5
433.178	223.5
433.4	212.5
433.622	214.5
433.844	220.5
434.066	235.5
434.287	222.5
434.509	218.5
434.731	223.5
434.953	214.5
435.175	219.5
435.397	234.5
435.618	225.5
435.84	205.5
436.062	207.5
436.284	226.5
436.505	204.5
436.727	215.5
436.949	220.5
437.17	210.5
437.392	211.5
437.614	215.5
437.835	214.5
438.057	214.5
438.278	211.5
438.5	211.5
438.721	206.5
438.943	196.5
439.165	223.5
439.386	217.5
439.608	226.5
439.829	228.5
440.05	221.5
440.272	217.5
440.493	211.5
440.715	232.5
440.936	218.5
441.158	220.5
441.379	235.5
441.6	227.5
441.822	228.5
442.043	230.5
442.264	228.5
442.486	219.5
442.707	236.5
442.928	231.5
443.149	226.5
443.371	234.5
443.592	233.5
443.813	237.5
444.034	232.5
444.255	238.5
444.476	235.5
444.698	237.5
444.919	243.5
445.14	322.5
445.361	261.5
445.582	232.5
445.803	239.5
446.024	215.5
446.245	215.5
446.466	216.5
446.687	233.5
446.908	221.5
447.129	216.5
447.35	216.5
447.571	206.5
447.792	206.5
448.013	222.5
448.234	221.5
448.455	181.5
448.675	216.5
448.896	220.5
449.117	199.5
449.338	206.5
449.559	218.5
449.779	226.5
450	207.5
450.221	214.5
450.442	195.5
450.662	213.5
450.883	207.5
451.104	211.5
451.324	205.5
451.545	206.5
451.766	206.5
451.986	216.5
452.207	211.5
452.428	192.5
452.648	217.5
452.869	203.5
453.089	204.5
453.31	211.5
453.53	223.5
453.751	212.5
453.971	196.5
454.192	201.5
454.412	209.5
454.633	190.5
454.853	194.5
455.073	208.5
455.294	202.5
455.514	203.5
455.734	198.5
455.955	204.5
456.175	208.5
456.395	203.5
456.616	199.5
456.836	205.5
457.056	212.5
457.276	204.5
457.497	215.5
457.717	213.5
457.937	224.5
458.157	205.5
458.377	197.5
458.598	219.5
458.818	235.5
459.038	202.5
459.258	218.5
459.478	202.5
459.698	214.5
459.918	233.5
460.138	204.5
460.358	226.5
460.578	222.5
460.798	231.5
461.018	239.5
461.238	222.5
461.458	224.5
461.678	218.5
461.898	236.5
462.118	219.5
462.338	249.5
462.558	250.5
462.777	250.5
462.997	268.5
463.217	249.5
463.437	269.5
463.657	267.5
463.876	266.5
464.096	251.5
464.316	249.5
464.536	252.5
464.755	259.5
464.975	254.5
465.195	242.5
465.414	247.5
465.634	240.5
465.854	239.5
466.073	233.5
466.293	238.5
466.512	221.5
466.732	250.5
466.951	237.5
467.171	245.5
467.391	265.5
467.61	282.5
467.829	368.5
468.049	667.5
468.268	769.5
468.488	482.5
468.707	342.5
468.927	298.5
469.146	261.5
469.365	267.5
469.585	251.5
469.804	256.5
470.023	267.5
470.243	259.5
470.462	260.5
470.681	283.5
470.901	257.5
471.12	280.5
471.339	276.5
471.558	316.5
471.777	365.5
471.997	520.5
472.216	1147.5
472.435	1688.5
472.654	964.5
472.873	538.5
473.092	429.5
473.311	376.5
473.53	322.5
473.749	304.5
473.968	285.5
474.187	288.5
474.406	268.5
474.625	288.5
474.844	281.5
475.063	281.5
475.282	280.5
475.501	247.5
475.72	258.5
475.939	259.5
476.158	246.5
476.377	230.5
476.596	260.5
476.814	270.5
477.033	268.5
477.252	276.5
477.471	273.5
477.69	263.5
477.908	277.5
478.127	273.5
478.346	265.5
478.564	278.5
478.783	286.5
479.002	282.5
479.22	300.5
479.439	310.5
479.658	320.5
479.876	317.5
480.095	328.5
480.313	381.5
480.532	447.5
480.751	631.5
480.969	1250.5
481.188	2717.5
481.406	2128.5
481.624	1022.5
481.843	682.5
482.061	546.5
482.28	480.5
482.498	440.5
482.717	392.5
482.935	364.5
483.153	363.5
483.372	335.5
483.59	343.5
483.808	319.5
484.027	325.5
484.245	301.5
484.463	313.5
484.681	306.5
484.9	309.5
485.118	294.5
485.336	292.5
485.554	299.5
485.772	302.5
485.99	284.5
486.209	295.5
486.427	294.5
486.645	293.5
486.863	309.5
487.081	300.5
487.299	303.5
487.517	293.5
487.735	303.5
487.953	320.5
488.171	303.5
488.389	306.5
488.607	287.5
488.825	300.5
489.043	291.5
489.261	316.5
489.479	302.5
489.696	319.5
489.914	316.5
490.132	333.5
490.35	351.5
490.568	358.5
490.786	364.5
491.003	373.5
491.221	413.5
491.439	459.5
491.657	473.5
491.874	442.5
492.092	469.5
492.31	492.5
492.527	530.5
492.745	534.5
492.963	501.5
493.18	469.5
493.398	460.5
493.615	438.5
493.833	434.5
494.05	425.5
494.268	381.5
494.485	398.5
494.703	377.5
494.92	371.5
495.138	380.5
495.355	350.5
495.573	365.5
495.79	355.5
496.008	377.5
496.225	362.5
496.442	344.5
496.66	351.5
496.877	332.5
497.094	359.5
497.312	342.5
497.529	326.5
497.746	350.5
497.963	340.5
498.181	343.5
498.398	354.5
498.615	358.5
498.832	350.5
499.049	375.5
499.267	376.5
499.484	402.5
499.701	408.5
499.918	412.5
500.135	463.5
500.352	449.5
500.569	497.5
500.786	518.5
501.003	455.5
501.22	424.5
501.437	420.5
501.654	380.5
501.871	369.5
502.088	363.5
502.305	339.5
502.522	341.5
502.739	339.5
502.956	302.5
503.172	303.5
503.389	308.5
503.606	288.5
503.823	284.5
504.04	292.5
504.256	304.5
504.473	293.5
504.69	300.5
504.907	296.5
505.123	290.5
505.34	282.5
505.557	280.5
505.773	265.5
505.99	268.5
506.207	277.5
506.423	258.5
506.64	277.5
506.856	272.5
507.073	237.5
507.289	259.5
507.506	252.5
507.722	245.5
507.939	255.5
508.155	248.5
508.372	267.5
508.588	251.5
508.805	244.5
509.021	256.5
509.238	228.5
509.454	231.5
509.67	238.5
509.887	248.5
510.103	257.5
510.319	248.5
510.536	256.5
510.752	241.5
510.968	247.5
511.184	254.5
511.401	252.5
511.617	294.5
511.833	351.5
512.049	312.5
512.265	284.5
512.481	266.5
512.698	264.5
512.914	248.5
513.13	260.5
513.346	268.5
513.562	253.5
513.778	243.5
513.994	249.5
514.21	250.5
514.426	248.5
514.642	247.5
514.858	242.5
515.074	233.5
515.29	245.5
515.506	235.5
515.721	228.5
515.937	245.5
516.153	244.5
516.369	252.5
516.585	264.5
516.801	264.5
517.016	269.5
517.232	262.5
517.448	267.5
517.664	263.5
517.879	249.5
518.095	264.5
518.311	248.5
518.527	262.5
518.742	266.5
518.958	255.5
519.173	254.5
519.389	232.5
519.605	234.5
519.82	226.5
520.036	232.5
520.251	252.5
520.467	243.5
520.682	228.5
520.898	223.5
521.113	216.5
521.329	223.5
521.544	219.5
521.76	218.5
521.975	230.5
522.19	235.5
522.406	215.5
522.621	241.5
522.836	214.5
523.052	213.5
523.267	214.5
523.482	219.5
523.698	221.5
523.913	210.5
524.128	215.5
524.343	218.5
524.559	223.5
524.774	212.5
524.989	212.5
525.204	223.5
525.419	226.5
525.634	218.5
525.849	221.5
526.064	214.5
526.28	220.5
526.495	211.5
526.71	206.5
526.925	207.5
527.14	214.5
527.355	210.5
527.57	215.5
527.785	211.5
527.999	211.5
528.214	219.5
528.429	213.5
528.644	224.5
528.859	220.5
529.074	210.5
529.289	215.5
529.503	216.5
529.718	215.5
529.933	212.5
530.148	210.5
530.363	217.5
530.577	198.5
530.792	209.5
531.007	215.5
531.221	196.5
531.436	195.5
531.651	214.5
531.865	210.5
532.08	218.5
532.295	223.5
532.509	220.5
532.724	208.5
532.938	220.5
533.153	223.5
533.367	198.5
533.582	218.5
533.796	216.5
534.011	227.5
534.225	206.5
534.44	198.5
534.654	211.5
534.868	214.5
535.083	209.5
535.297	207.5
535.511	208.5
535.726	198.5
535.94	217.5
536.154	206.5
536.369	207.5
536.583	216.5
536.797	206.5
537.011	216.5
537.225	193.5
537.44	219.5
537.654	207.5
537.868	190.5
538.082	208.5
538.296	197.5
538.51	197.5
538.724	212.5
538.938	204.5
539.153	208.5
539.367	210.5
539.581	220.5
539.795	198.5
540.009	212.5
540.222	209.5
540.436	204.5
540.65	206.5
540.864	197.5
541.078	208.5
541.292	213.5
541.506	224.5
541.72	208.5
541.934	204.5
542.147	213.5
542.361	221.5
542.575	204.5
542.789	200.5
543.002	206.5
543.216	190.5
543.43	198.5
543.644	217.5
543.857	214.5
544.071	206.5
544.285	217.5
544.498	191.5
544.712	188.5
544.925	206.5
545.139	200.5
545.352	202.5
545.566	218.5
545.779	214.5
545.993	213.5
546.206	205.5
546.42	217.5
546.633	220.5
546.847	211.5
547.06	209.5
547.274	206.5
547.487	200.5
547.7	218.5
547.914	214.5
548.127	228.5
548.34	212.5
548.554	206.5
548.767	212.5
548.98	212.5
549.193	199.5
549.407	204.5
549.62	207.5
549.833	215.5
550.046	209.5
550.259	212.5
550.473	213.5
550.686	215.5
550.899	226.5
551.112	221.5
551.325	222.5
551.538	202.5
551.751	215.5
551.964	211.5
552.177	205.5
552.39	206.5
552.603	227.5
552.816	220.5
553.029	201.5
553.242	216.5
553.455	200.5
553.667	224.5
553.88	231.5
554.093	237.5
554.306	220.5
554.519	231.5
554.732	227.5
554.944	207.5
555.157	211.5
555.37	198.5
555.583	202.5
555.795	199.5
556.008	214.5
556.221	200.5
556.433	196.5
556.646	210.5
556.859	188.5
557.071	202.5
557.284	200.5
557.496	216.5
557.709	201.5
557.921	188.5
558.134	193.5
558.346	193.5
558.559	185.5
558.771	190.5
558.984	193.5
559.196	197.5
559.409	193.5
559.621	188.5
559.833	198.5
560.046	202.5
560.258	203.5
560.47	208.5
560.683	206.5
560.895	210.5
561.107	194.5
561.32	185.5
561.532	203.5
561.744	197.5
561.956	198.5
562.168	190.5
562.381	182.5
562.593	182.5
562.805	188.5
563.017	190.5
563.229	183.5
563.441	182.5
563.653	195.5
563.865	192.5
564.077	186.5
564.289	216.5
564.501	207.5
564.713	208.5
564.925	197.5
565.137	194.5
565.349	186.5
565.561	200.5
565.773	198.5
565.985	212.5
566.197	214.5
566.408	210.5
566.62	227.5
566.832	231.5
567.044	219.5
567.255	242.5
567.467	218.5
567.679	220.5
567.891	223.5
568.102	210.5
568.314	218.5
568.526	211.5
568.737	222.5
568.949	205.5
569.161	192.5
569.372	195.5
569.584	192.5
569.795	208.5
570.007	178.5
570.218	162.5
570.43	199.5
570.641	184.5
570.853	184.5
571.064	171.5
571.276	169.5
571.487	173.5
571.698	165.5
571.91	184.5
572.121	166.5
572.333	179.5
572.544	185.5
572.755	166.5
572.966	175.5
573.178	151.5
573.389	175.5
573.6	164.5
573.811	172.5
574.023	166.5
574.234	160.5
574.445	178.5
574.656	167.5
574.867	162.5
575.078	174.5
575.289	165.5
575.501	162.5
575.712	149.5
575.923	158.5
576.134	156.5
576.345	161.5
576.556	163.5
576.767	157.5
576.978	180.5
577.188	146.5
577.399	164.5
577.61	167.5
577.821	152.5
578.032	165.5
578.243	154.5
578.454	168.5
578.665	146.5
578.875	162.5
579.086	154.5
579.297	153.5
579.508	152.5
579.718	155.5
579.929	163.5
580.14	162.5
580.35	150.5
580.561	151.5
580.772	142.5
580.982	162.5
581.193	156.5
581.403	144.5
581.614	152.5
581.825	150.5
582.035	156.5
582.246	157.5
582.456	146.5
582.667	145.5
582.877	150.5
583.087	143.5
583.298	157.5
583.508	155.5
583.719	146.5
583.929	151.5
584.139	156.5
584.35	148.5
584.56	156.5
584.77	140.5
584.981	136.5
585.191	140.5
585.401	144.5
585.611	164.5
585.821	151.5
586.032	159.5
586.242	146.5
586.452	142.5
586.662	143.5
586.872	141.5
587.082	147.5
587.292	141.5
587.502	147.5
587.713	145.5
587.923	144.5
588.133	157.5
588.343	160.5
588.553	135.5
588.762	138.5
588.972	149.5
589.182	155.5
589.392	151.5
589.602	190.5
589.812	158.5
590.022	166.5
590.232	150.5
590.441	150.5
590.651	149.5
590.861	135.5
591.071	148.5
591.281	158.5
591.49	143.5
591.7	143.5
591.91	147.5
592.119	140.5
592.329	148.5
592.539	147.5
592.748	153.5
592.958	143.5
593.167	153.5
593.377	149.5
593.587	181.5
593.796	155.5
594.006	156.5
594.215	151.5
594.424	156.5
594.634	158.5
594.843	153.5
595.053	167.5
595.262	148.5
595.472	151.5
595.681	143.5
595.89	154.5
596.1	144.5
596.309	143.5
596.518	143.5
596.727	134.5
596.937	142.5
597.146	157.5
597.355	137.5
597.564	123.5
597.774	154.5
597.983	138.5
598.192	138.5
598.401	145.5
598.61	148.5
598.819	131.5
599.028	149.5
599.237	135.5
599.446	148.5
599.655	148.5
599.864	135.5
600.073	119.5
600.282	146.5
600.491	126.5
600.7	140.5
600.909	148.5
601.118	135.5
601.327	138.5
601.536	143.5
601.745	144.5
601.953	139.5
602.162	139.5
602.371	149.5
602.58	148.5
602.789	152.5
602.997	166.5
603.206	147.5
603.415	147.5
603.623	141.5
603.832	147.5
604.041	133.5
604.249	137.5
604.458	140.5
604.666	147.5
604.875	161.5
605.084	143.5
605.292	133.5
605.501	124.5
605.709	138.5
605.918	147.5
606.126	144.5
606.334	136.5
606.543	136.5
606.751	137.5
606.96	151.5
607.168	150.5
607.376	146.5
607.585	133.5
607.793	141.5
608.001	138.5
608.21	133.5
608.418	141.5
608.626	133.5
608.834	139.5
609.043	131.5
609.251	144.5
609.459	151.5
609.667	144.5
609.875	137.5
610.083	126.5
610.291	141.5
610.499	149.5
610.707	154.5
610.916	147.5
611.124	162.5
611.332	153.5
611.54	145.5
611.748	141.5
611.955	147.5
612.163	146.5
612.371	148.5
612.579	131.5
612.787	145.5
612.995	148.5
613.203	147.5
613.411	135.5
613.618	116.5
613.826	144.5
614.034	134.5
614.242	140.5
614.449	139.5
614.657	133.5
614.865	136.5
615.072	130.5
615.28	121.5
615.488	132.5
615.695	140.5
615.903	144.5
616.111	136.5
616.318	139.5
616.526	147.5
616.733	141.5
616.941	144.5
617.148	151.5
617.356	141.5
617.563	131.5
617.771	121.5
617.978	133.5
618.185	138.5
618.393	146.5
618.6	134.5
618.807	136.5
619.015	136.5
619.222	133.5
619.429	122.5
619.637	130.5
619.844	132.5
620.051	122.5
620.258	125.5
620.466	141.5
620.673	136.5
620.88	124.5
621.087	123.5
621.294	133.5
621.501	123.5
621.708	130.5
621.915	134.5
622.122	120.5
622.329	114.5
622.536	124.5
622.743	135.5
622.95	134.5
623.157	137.5
623.364	128.5
623.571	103.5
623.778	118.5
623.985	121.5
624.192	127.5
624.399	123.5
624.606	131.5
624.812	132.5
625.019	129.5
625.226	121.5
625.433	110.5
625.639	117.5
625.846	118.5
626.053	133.5
626.259	131.5
626.466	121.5
626.673	114.5
626.879	141.5
627.086	124.5
627.293	136.5
627.499	130.5
627.706	116.5
627.912	94.5
628.119	138.5
628.325	131.5
628.532	127.5
628.738	127.5
628.945	141.5
629.151	126.5
629.357	133.5
629.564	114.5
629.77	131.5
629.976	140.5
630.183	114.5
630.389	122.5
630.595	125.5
630.802	116.5
631.008	102.5
631.214	116.5
631.42	102.5
631.627	109.5
631.833	113.5
632.039	108.5
632.245	132.5
632.451	110.5
632.657	130.5
632.863	140.5
633.069	118.5
633.275	120.5
633.481	120.5
633.688	116.5
633.893	139.5
634.099	110.5
634.305	120.5
634.511	127.5
634.717	134.5
634.923	119.5
635.129	129.5
635.335	139.5
635.541	150.5
635.747	153.5
635.952	175.5
636.158	196.5
636.364	354.5
636.57	364.5
636.775	274.5
636.981	226.5
637.187	202.5
637.392	173.5
637.598	164.5
637.804	158.5
638.009	162.5
638.215	129.5
638.421	142.5
638.626	139.5
638.832	126.5
639.037	127.5
639.243	130.5
639.448	147.5
639.654	131.5
639.859	113.5
640.065	131.5
640.27	123.5
640.475	134.5
640.681	130.5
640.886	113.5
641.091	126.5
641.297	120.5
641.502	129.5
641.707	128.5
641.913	114.5
642.118	116.5
642.323	128.5
642.528	115.5
642.733	113.5
642.939	103.5
643.144	106.5
643.349	124.5
643.554	113.5
643.759	125.5
643.964	112.5
644.169	125.5
644.374	125.5
644.579	102.5
644.784	112.5
644.989	111.5
645.194	107.5
645.399	95.5
645.604	111.5
645.809	118.5
646.014	100.5
646.219	116.5
646.423	106.5
646.628	110.5
646.833	114.5
647.038	103.5
647.243	117.5
647.447	104.5
647.652	106.5
647.857	122.5
648.062	119.5
648.266	110.5
648.471	116.5
648.676	131.5
648.88	115.5
649.085	115.5
649.289	108.5
649.494	103.5
649.698	101.5
649.903	126.5
650.107	96.5
650.312	100.5
650.516	114.5
650.721	131.5
650.925	117.5
651.13	98.5
651.334	99.5
651.539	104.5
651.743	104.5
651.947	120.5
652.152	106.5
652.356	98.5
652.56	106.5
652.764	99.5
652.969	101.5
653.173	98.5
653.377	104.5
653.581	93.5
653.785	102.5
653.99	95.5
654.194	86.5
654.398	105.5
654.602	108.5
654.806	98.5
655.01	97.5
655.214	102.5
655.418	87.5
655.622	95.5
655.826	107.5
656.03	104.5
656.234	112.5
656.438	112.5
656.642	114.5
656.846	107.5
657.049	111.5
657.253	101.5
657.457	110.5
657.661	89.5
657.865	95.5
658.068	82.5
658.272	95.5
658.476	100.5
658.68	84.5
658.883	78.5
659.087	86.5
659.291	78.5
659.494	74.5
659.698	92.5
659.901	87.5
660.105	74.5
660.309	74.5
660.512	93.5
660.716	93.5
660.919	101.5
661.123	98.5
661.326	70.5
661.53	101.5
661.733	88.5
661.936	98.5
662.14	74.5
662.343	80.5
662.546	91.5
662.75	81.5
662.953	87.5
663.156	67.5
663.36	77.5
663.563	78.5
663.766	83.5
663.969	94.5
664.173	92.5
664.376	82.5
664.579	68.5
664.782	95.5
664.985	82.5
665.188	75.5
665.391	76.5
665.594	100.5
665.797	89.5
666	70.5
666.203	77.5
666.406	78.5
666.609	83.5
666.812	98.5
667.015	83.5
667.218	85.5
667.421	73.5
667.624	94.5
667.827	83.5
668.03	83.5
668.232	80.5
668.435	76.5
668.638	78.5
668.841	83.5
669.043	73.5
669.246	70.5
669.449	82.5
669.651	68.5
669.854	62.5
670.057	58.5
670.259	70.5
670.462	84.5
670.665	88.5
670.867	80.5
671.07	89.5
671.272	84.5
671.475	86.5
671.677	66.5
671.88	83.5
672.082	82.5
672.284	84.5
672.487	83.5
672.689	75.5
672.892	91.5
