Data from Uncirc_1993_H10_HRD10591_00017.txt Node
Date: Wed Jan 03 11:42:55 EST 2024
User: Yrep
Spectrometer: HR+D1059
Trigger mode: 1
Integration Time (sec): 1.000000E-1
Scans to average: 1
Electric dark correction enabled: true
Nonlinearity correction enabled: false
Boxcar width: 0
XAxis mode: Wavelengths
Number of Pixels in Spectrum: 2048
>>>>>Begin Spectral Data<<<<<
223.165	-21.62
223.4	-21.62
223.635	-21.62
223.869	-21.62
224.104	-25.62
224.338	-8.62
224.573	-31.62
224.808	7.38
225.042	-7.62
225.277	2.38
225.511	-6.62
225.746	15.38
225.98	-3.62
226.215	9.38
226.449	19.38
226.683	18.38
226.918	15.38
227.152	39.38
227.387	34.38
227.621	46.38
227.856	44.38
228.09	42.38
228.324	41.38
228.559	57.38
228.793	44.38
229.027	52.38
229.262	70.38
229.496	69.38
229.73	75.38
229.964	81.38
230.199	42.38
230.433	63.38
230.667	74.38
230.901	75.38
231.136	66.38
231.37	77.38
231.604	75.38
231.838	71.38
232.072	79.38
232.306	80.38
232.541	75.38
232.775	70.38
233.009	70.38
233.243	61.38
233.477	71.38
233.711	73.38
233.945	71.38
234.179	74.38
234.413	64.38
234.647	65.38
234.881	80.38
235.115	75.38
235.349	84.38
235.583	78.38
235.817	77.38
236.051	98.38
236.285	81.38
236.519	65.38
236.753	67.38
236.987	78.38
237.221	70.38
237.455	77.38
237.689	79.38
237.922	88.38
238.156	71.38
238.39	80.38
238.624	73.38
238.858	75.38
239.091	75.38
239.325	83.38
239.559	75.38
239.793	70.38
240.027	76.38
240.26	78.38
240.494	72.38
240.728	71.38
240.961	68.38
241.195	57.38
241.429	69.38
241.662	61.38
241.896	69.38
242.13	75.38
242.363	89.38
242.597	77.38
242.83	69.38
243.064	65.38
243.298	79.38
243.531	63.38
243.765	86.38
243.998	79.38
244.232	75.38
244.465	82.38
244.699	83.38
244.932	76.38
245.166	72.38
245.399	95.38
245.633	79.38
245.866	79.38
246.099	57.38
246.333	65.38
246.566	69.38
246.8	77.38
247.033	72.38
247.266	62.38
247.5	74.38
247.733	70.38
247.966	73.38
248.2	87.38
248.433	71.38
248.666	77.38
248.899	80.38
249.133	70.38
249.366	88.38
249.599	95.38
249.832	65.38
250.066	73.38
250.299	91.38
250.532	72.38
250.765	79.38
250.998	78.38
251.231	81.38
251.465	74.38
251.698	52.38
251.931	69.38
252.164	84.38
252.397	78.38
252.63	70.38
252.863	77.38
253.096	85.38
253.329	64.38
253.562	82.38
253.795	81.38
254.028	85.38
254.261	82.38
254.494	82.38
254.727	64.38
254.96	73.38
255.193	76.38
255.426	77.38
255.659	81.38
255.892	64.38
256.124	87.38
256.357	87.38
256.59	74.38
256.823	53.38
257.056	75.38
257.289	55.38
257.521	82.38
257.754	81.38
257.987	75.38
258.22	77.38
258.452	64.38
258.685	80.38
258.918	81.38
259.151	78.38
259.383	84.38
259.616	87.38
259.849	83.38
260.081	86.38
260.314	66.38
260.547	64.38
260.779	81.38
261.012	81.38
261.244	76.38
261.477	84.38
261.71	108.38
261.942	111.38
262.175	104.38
262.407	78.38
262.64	82.38
262.872	73.38
263.105	79.38
263.337	66.38
263.57	66.38
263.802	81.38
264.035	85.38
264.267	86.38
264.499	78.38
264.732	80.38
264.964	75.38
265.197	81.38
265.429	86.38
265.661	66.38
265.894	74.38
266.126	87.38
266.358	71.38
266.591	83.38
266.823	72.38
267.055	70.38
267.287	83.38
267.52	82.38
267.752	79.38
267.984	74.38
268.216	82.38
268.448	92.38
268.681	81.38
268.913	63.38
269.145	80.38
269.377	88.38
269.609	72.38
269.841	89.38
270.073	74.38
270.306	95.38
270.538	79.38
270.77	74.38
271.002	84.38
271.234	82.38
271.466	77.38
271.698	85.38
271.93	75.38
272.162	72.38
272.394	95.38
272.626	74.38
272.858	74.38
273.09	80.38
273.322	81.38
273.553	73.38
273.785	80.38
274.017	66.38
274.249	71.38
274.481	66.38
274.713	86.38
274.945	82.38
275.176	93.38
275.408	92.38
275.64	70.38
275.872	96.38
276.104	106.38
276.335	81.38
276.567	100.38
276.799	96.38
277.031	94.38
277.262	89.38
277.494	83.38
277.726	85.38
277.957	79.38
278.189	91.38
278.421	69.38
278.652	81.38
278.884	78.38
279.115	74.38
279.347	80.38
279.579	87.38
279.81	61.38
280.042	87.38
280.273	90.38
280.505	78.38
280.736	82.38
280.968	83.38
281.199	78.38
281.431	85.38
281.662	65.38
281.894	96.38
282.125	80.38
282.356	108.38
282.588	125.38
282.819	101.38
283.051	88.38
283.282	83.38
283.513	101.38
283.745	93.38
283.976	93.38
284.207	72.38
284.439	80.38
284.67	77.38
284.901	79.38
285.132	74.38
285.364	83.38
285.595	88.38
285.826	87.38
286.057	87.38
286.288	96.38
286.52	97.38
286.751	73.38
286.982	90.38
287.213	80.38
287.444	93.38
287.675	82.38
287.906	85.38
288.138	79.38
288.369	98.38
288.6	89.38
288.831	90.38
289.062	85.38
289.293	69.38
289.524	92.38
289.755	86.38
289.986	83.38
290.217	75.38
290.448	86.38
290.679	76.38
290.91	81.38
291.141	74.38
291.371	85.38
291.602	85.38
291.833	78.38
292.064	84.38
292.295	90.38
292.526	75.38
292.757	65.38
292.987	86.38
293.218	88.38
293.449	71.38
293.68	81.38
293.91	81.38
294.141	93.38
294.372	87.38
294.603	81.38
294.833	101.38
295.064	79.38
295.295	81.38
295.525	95.38
295.756	90.38
295.987	103.38
296.217	130.38
296.448	121.38
296.679	83.38
296.909	86.38
297.14	71.38
297.37	88.38
297.601	90.38
297.831	71.38
298.062	77.38
298.292	86.38
298.523	87.38
298.753	94.38
298.984	85.38
299.214	74.38
299.445	75.38
299.675	100.38
299.905	92.38
300.136	82.38
300.366	88.38
300.597	84.38
300.827	94.38
301.057	91.38
301.288	91.38
301.518	86.38
301.748	93.38
301.979	99.38
302.209	92.38
302.439	88.38
302.669	79.38
302.9	84.38
303.13	95.38
303.36	88.38
303.59	93.38
303.82	99.38
304.051	95.38
304.281	88.38
304.511	93.38
304.741	86.38
304.971	93.38
305.201	77.38
305.431	81.38
305.661	67.38
305.891	80.38
306.121	102.38
306.352	80.38
306.582	92.38
306.812	89.38
307.042	73.38
307.272	77.38
307.502	75.38
307.731	73.38
307.961	87.38
308.191	103.38
308.421	96.38
308.651	90.38
308.881	91.38
309.111	90.38
309.341	92.38
309.571	78.38
309.8	81.38
310.03	86.38
310.26	82.38
310.49	98.38
310.72	76.38
310.949	101.38
311.179	95.38
311.409	86.38
311.639	85.38
311.868	91.38
312.098	77.38
312.328	101.38
312.557	105.38
312.787	95.38
313.017	93.38
313.246	91.38
313.476	69.38
313.706	96.38
313.935	97.38
314.165	97.38
314.394	102.38
314.624	86.38
314.853	84.38
315.083	84.38
315.312	78.38
315.542	94.38
315.771	80.38
316.001	83.38
316.23	86.38
316.46	77.38
316.689	85.38
316.919	101.38
317.148	93.38
317.377	75.38
317.607	87.38
317.836	89.38
318.065	90.38
318.295	88.38
318.524	90.38
318.753	89.38
318.983	83.38
319.212	89.38
319.441	111.38
319.67	95.38
319.9	99.38
320.129	98.38
320.358	102.38
320.587	84.38
320.816	97.38
321.046	87.38
321.275	94.38
321.504	91.38
321.733	96.38
321.962	85.38
322.191	102.38
322.42	95.38
322.649	101.38
322.878	99.38
323.108	116.38
323.337	99.38
323.566	105.38
323.795	139.38
324.024	175.38
324.253	345.38
324.482	705.38
324.71	1385.38
324.939	1763.38
325.168	657.38
325.397	205.38
325.626	126.38
325.855	123.38
326.084	116.38
326.313	140.38
326.542	139.38
326.77	208.38
326.999	402.38
327.228	779.38
327.457	1405.38
327.686	1073.38
327.914	311.38
328.143	174.38
328.372	128.38
328.6	110.38
328.829	110.38
329.058	105.38
329.287	102.38
329.515	112.38
329.744	97.38
329.972	86.38
330.201	104.38
330.43	107.38
330.658	114.38
330.887	113.38
331.115	115.38
331.344	86.38
331.572	81.38
331.801	85.38
332.03	91.38
332.258	104.38
332.486	99.38
332.715	97.38
332.943	98.38
333.172	91.38
333.4	103.38
333.629	80.38
333.857	93.38
334.085	103.38
334.314	87.38
334.542	90.38
334.771	99.38
334.999	91.38
335.227	94.38
335.455	100.38
335.684	103.38
335.912	98.38
336.14	96.38
336.369	94.38
336.597	113.38
336.825	88.38
337.053	104.38
337.281	91.38
337.51	85.38
337.738	86.38
337.966	97.38
338.194	83.38
338.422	88.38
338.65	85.38
338.878	90.38
339.106	85.38
339.334	79.38
339.562	90.38
339.79	93.38
340.018	93.38
340.246	90.38
340.474	84.38
340.702	87.38
340.93	95.38
341.158	89.38
341.386	85.38
341.614	81.38
341.842	95.38
342.07	89.38
342.298	100.38
342.526	93.38
342.754	95.38
342.981	101.38
343.209	87.38
343.437	86.38
343.665	87.38
343.893	87.38
344.12	88.38
344.348	89.38
344.576	86.38
344.804	88.38
345.031	97.38
345.259	103.38
345.487	94.38
345.714	96.38
345.942	79.38
346.17	85.38
346.397	84.38
346.625	86.38
346.853	77.38
347.08	96.38
347.308	97.38
347.535	97.38
347.763	99.38
347.99	90.38
348.218	116.38
348.445	104.38
348.673	94.38
348.9	88.38
349.128	98.38
349.355	101.38
349.583	93.38
349.81	82.38
350.037	93.38
350.265	83.38
350.492	93.38
350.72	101.38
350.947	98.38
351.174	99.38
351.402	113.38
351.629	96.38
351.856	102.38
352.083	88.38
352.311	108.38
352.538	105.38
352.765	109.38
352.992	96.38
353.22	97.38
353.447	86.38
353.674	96.38
353.901	89.38
354.128	87.38
354.355	85.38
354.583	93.38
354.81	107.38
355.037	92.38
355.264	88.38
355.491	90.38
355.718	83.38
355.945	110.38
356.172	100.38
356.399	91.38
356.626	98.38
356.853	95.38
357.08	87.38
357.307	98.38
357.534	79.38
357.761	72.38
357.988	103.38
358.215	95.38
358.441	84.38
358.668	82.38
358.895	93.38
359.122	89.38
359.349	79.38
359.576	82.38
359.802	90.38
360.029	87.38
360.256	98.38
360.483	96.38
360.709	93.38
360.936	89.38
361.163	92.38
361.39	86.38
361.616	87.38
361.843	93.38
362.07	86.38
362.296	75.38
362.523	85.38
362.749	87.38
362.976	95.38
363.203	87.38
363.429	74.38
363.656	87.38
363.882	75.38
364.109	89.38
364.335	101.38
364.562	93.38
364.788	89.38
365.015	105.38
365.241	90.38
365.468	88.38
365.694	104.38
365.92	75.38
366.147	75.38
366.373	79.38
366.599	98.38
366.826	94.38
367.052	101.38
367.278	101.38
367.505	96.38
367.731	95.38
367.957	85.38
368.184	74.38
368.41	94.38
368.636	105.38
368.862	107.38
369.089	95.38
369.315	88.38
369.541	86.38
369.767	91.38
369.993	92.38
370.219	91.38
370.445	77.38
370.672	86.38
370.898	91.38
371.124	77.38
371.35	88.38
371.576	82.38
371.802	96.38
372.028	80.38
372.254	85.38
372.48	87.38
372.706	82.38
372.932	81.38
373.158	83.38
373.384	88.38
373.61	98.38
373.835	95.38
374.061	84.38
374.287	75.38
374.513	79.38
374.739	78.38
374.965	95.38
375.191	84.38
375.416	93.38
375.642	89.38
375.868	89.38
376.094	85.38
376.319	106.38
376.545	85.38
376.771	86.38
376.997	90.38
377.222	87.38
377.448	88.38
377.674	85.38
377.899	88.38
378.125	90.38
378.35	86.38
378.576	84.38
378.802	77.38
379.027	91.38
379.253	105.38
379.478	79.38
379.704	95.38
379.929	87.38
380.155	87.38
380.38	90.38
380.606	97.38
380.831	87.38
381.057	88.38
381.282	88.38
381.507	85.38
381.733	91.38
381.958	94.38
382.184	83.38
382.409	93.38
382.634	79.38
382.86	82.38
383.085	105.38
383.31	95.38
383.535	80.38
383.761	106.38
383.986	96.38
384.211	100.38
384.436	83.38
384.662	101.38
384.887	101.38
385.112	95.38
385.337	99.38
385.562	81.38
385.787	82.38
386.013	102.38
386.238	104.38
386.463	88.38
386.688	92.38
386.913	113.38
387.138	95.38
387.363	93.38
387.588	103.38
387.813	97.38
388.038	91.38
388.263	100.38
388.488	107.38
388.713	97.38
388.938	85.38
389.163	94.38
389.387	89.38
389.612	87.38
389.837	91.38
390.062	94.38
390.287	99.38
390.512	101.38
390.736	85.38
390.961	97.38
391.186	93.38
391.411	86.38
391.636	86.38
391.86	86.38
392.085	78.38
392.31	67.38
392.534	97.38
392.759	88.38
392.984	101.38
393.208	89.38
393.433	75.38
393.658	87.38
393.882	89.38
394.107	77.38
394.331	77.38
394.556	74.38
394.78	86.38
395.005	73.38
395.229	69.38
395.454	91.38
395.678	75.38
395.903	98.38
396.127	88.38
396.352	82.38
396.576	82.38
396.801	89.38
397.025	77.38
397.249	81.38
397.474	84.38
397.698	88.38
397.922	72.38
398.147	88.38
398.371	70.38
398.595	78.38
398.82	75.38
399.044	83.38
399.268	88.38
399.492	87.38
399.717	82.38
399.941	98.38
400.165	87.38
400.389	86.38
400.613	77.38
400.837	83.38
401.062	90.38
401.286	77.38
401.51	81.38
401.734	87.38
401.958	90.38
402.182	113.38
402.406	143.38
402.63	108.38
402.854	89.38
403.078	88.38
403.302	82.38
403.526	85.38
403.75	86.38
403.974	77.38
404.198	77.38
404.422	88.38
404.645	64.38
404.869	77.38
405.093	96.38
405.317	94.38
405.541	105.38
405.765	89.38
405.988	111.38
406.212	157.38
406.436	209.38
406.66	119.38
406.883	90.38
407.107	87.38
407.331	65.38
407.555	89.38
407.778	97.38
408.002	95.38
408.226	95.38
408.449	78.38
408.673	76.38
408.896	85.38
409.12	80.38
409.344	87.38
409.567	81.38
409.791	90.38
410.014	85.38
410.238	94.38
410.461	89.38
410.685	89.38
410.908	103.38
411.132	100.38
411.355	91.38
411.578	93.38
411.802	88.38
412.025	89.38
412.249	103.38
412.472	94.38
412.695	85.38
412.919	78.38
413.142	84.38
413.365	97.38
413.589	87.38
413.812	96.38
414.035	89.38
414.258	87.38
414.482	90.38
414.705	87.38
414.928	86.38
415.151	80.38
415.374	104.38
415.597	92.38
415.821	74.38
416.044	87.38
416.267	86.38
416.49	93.38
416.713	83.38
416.936	91.38
417.159	93.38
417.382	87.38
417.605	86.38
417.828	89.38
418.051	97.38
418.274	90.38
418.497	95.38
418.72	93.38
418.943	89.38
419.166	59.38
419.389	80.38
419.611	78.38
419.834	81.38
420.057	93.38
420.28	82.38
420.503	77.38
420.726	92.38
420.948	83.38
421.171	95.38
421.394	91.38
421.617	79.38
421.839	94.38
422.062	99.38
422.285	104.38
422.507	97.38
422.73	103.38
422.953	89.38
423.175	87.38
423.398	89.38
423.621	89.38
423.843	83.38
424.066	77.38
424.288	75.38
424.511	99.38
424.733	96.38
424.956	99.38
425.178	89.38
425.401	89.38
425.623	89.38
425.846	85.38
426.068	91.38
426.291	76.38
426.513	102.38
426.735	86.38
426.958	89.38
427.18	93.38
427.402	114.38
427.625	164.38
427.847	125.38
428.069	107.38
428.292	89.38
428.514	95.38
428.736	92.38
428.958	78.38
429.181	77.38
429.403	79.38
429.625	82.38
429.847	81.38
430.069	97.38
430.292	74.38
430.514	87.38
430.736	89.38
430.958	95.38
431.18	102.38
431.402	81.38
431.624	77.38
431.846	96.38
432.068	92.38
432.29	95.38
432.512	65.38
432.734	76.38
432.956	77.38
433.178	94.38
433.4	83.38
433.622	93.38
433.844	85.38
434.066	62.38
434.287	80.38
434.509	84.38
434.731	81.38
434.953	91.38
435.175	87.38
435.397	90.38
435.618	75.38
435.84	99.38
436.062	106.38
436.284	99.38
436.505	85.38
436.727	90.38
436.949	92.38
437.17	94.38
437.392	83.38
437.614	105.38
437.835	93.38
438.057	117.38
438.278	102.38
438.5	98.38
438.721	107.38
438.943	97.38
439.165	87.38
439.386	88.38
439.608	70.38
439.829	95.38
440.05	106.38
440.272	108.38
440.493	91.38
440.715	89.38
440.936	86.38
441.158	75.38
441.379	76.38
441.6	87.38
441.822	81.38
442.043	92.38
442.264	96.38
442.486	99.38
442.707	92.38
442.928	106.38
443.149	111.38
443.371	133.38
443.592	109.38
443.813	103.38
444.034	102.38
444.255	81.38
444.476	89.38
444.698	82.38
444.919	95.38
445.14	124.38
445.361	113.38
445.582	97.38
445.803	111.38
446.024	102.38
446.245	115.38
446.466	91.38
446.687	95.38
446.908	90.38
447.129	72.38
447.35	81.38
447.571	97.38
447.792	92.38
448.013	89.38
448.234	104.38
448.455	67.38
448.675	98.38
448.896	97.38
449.117	81.38
449.338	92.38
449.559	104.38
449.779	121.38
450	92.38
450.221	72.38
450.442	85.38
450.662	92.38
450.883	104.38
451.104	106.38
451.324	93.38
451.545	92.38
451.766	77.38
451.986	81.38
452.207	91.38
452.428	81.38
452.648	104.38
452.869	89.38
453.089	100.38
453.31	103.38
453.53	99.38
453.751	92.38
453.971	101.38
454.192	93.38
454.412	73.38
454.633	74.38
454.853	80.38
455.073	97.38
455.294	94.38
455.514	93.38
455.734	79.38
455.955	70.38
456.175	95.38
456.395	72.38
456.616	97.38
456.836	82.38
457.056	77.38
457.276	64.38
457.497	82.38
457.717	69.38
457.937	88.38
458.157	92.38
458.377	89.38
458.598	93.38
458.818	144.38
459.038	141.38
459.258	111.38
459.478	85.38
459.698	77.38
459.918	84.38
460.138	86.38
460.358	95.38
460.578	83.38
460.798	87.38
461.018	99.38
461.238	75.38
461.458	79.38
461.678	77.38
461.898	85.38
462.118	81.38
462.338	80.38
462.558	86.38
462.777	94.38
462.997	78.38
463.217	78.38
463.437	83.38
463.657	86.38
463.876	87.38
464.096	89.38
464.316	105.38
464.536	82.38
464.755	103.38
464.975	88.38
465.195	151.38
465.414	137.38
465.634	81.38
465.854	92.38
466.073	93.38
466.293	91.38
466.512	81.38
466.732	73.38
466.951	91.38
467.171	88.38
467.391	89.38
467.61	77.38
467.829	92.38
468.049	76.38
468.268	82.38
468.488	86.38
468.707	88.38
468.927	78.38
469.146	67.38
469.365	86.38
469.585	82.38
469.804	98.38
470.023	95.38
470.243	85.38
470.462	86.38
470.681	87.38
470.901	82.38
471.12	78.38
471.339	75.38
471.558	73.38
471.777	74.38
471.997	79.38
472.216	82.38
472.435	76.38
472.654	89.38
472.873	81.38
473.092	84.38
473.311	92.38
473.53	93.38
473.749	93.38
473.968	94.38
474.187	107.38
474.406	90.38
474.625	87.38
474.844	80.38
475.063	76.38
475.282	83.38
475.501	71.38
475.72	86.38
475.939	82.38
476.158	81.38
476.377	77.38
476.596	76.38
476.814	82.38
477.033	89.38
477.252	73.38
477.471	93.38
477.69	94.38
477.908	75.38
478.127	79.38
478.346	84.38
478.564	78.38
478.783	96.38
479.002	82.38
479.22	96.38
479.439	97.38
479.658	101.38
479.876	88.38
480.095	82.38
480.313	87.38
480.532	71.38
480.751	80.38
480.969	90.38
481.188	104.38
481.406	102.38
481.624	83.38
481.843	89.38
482.061	80.38
482.28	96.38
482.498	92.38
482.717	75.38
482.935	89.38
483.153	93.38
483.372	85.38
483.59	89.38
483.808	74.38
484.027	86.38
484.245	89.38
484.463	91.38
484.681	92.38
484.9	103.38
485.118	85.38
485.336	96.38
485.554	109.38
485.772	85.38
485.99	95.38
486.209	95.38
486.427	92.38
486.645	96.38
486.863	103.38
487.081	90.38
487.299	96.38
487.517	87.38
487.735	82.38
487.953	84.38
488.171	86.38
488.389	91.38
488.607	106.38
488.825	86.38
489.043	90.38
489.261	79.38
489.479	88.38
489.696	82.38
489.914	88.38
490.132	80.38
490.35	96.38
490.568	82.38
490.786	77.38
491.003	103.38
491.221	91.38
491.439	97.38
491.657	88.38
491.874	78.38
492.092	86.38
492.31	86.38
492.527	89.38
492.745	96.38
492.963	82.38
493.18	89.38
493.398	97.38
493.615	94.38
493.833	101.38
494.05	85.38
494.268	90.38
494.485	89.38
494.703	90.38
494.92	89.38
495.138	90.38
495.355	91.38
495.573	78.38
495.79	77.38
496.008	80.38
496.225	99.38
496.442	90.38
496.66	87.38
496.877	87.38
497.094	86.38
497.312	77.38
497.529	87.38
497.746	86.38
497.963	83.38
498.181	89.38
498.398	87.38
498.615	89.38
498.832	84.38
499.049	90.38
499.267	89.38
499.484	89.38
499.701	87.38
499.918	102.38
500.135	88.38
500.352	98.38
500.569	93.38
500.786	97.38
501.003	80.38
501.22	89.38
501.437	97.38
501.654	95.38
501.871	97.38
502.088	73.38
502.305	92.38
502.522	95.38
502.739	93.38
502.956	82.38
503.172	80.38
503.389	95.38
503.606	98.38
503.823	89.38
504.04	93.38
504.256	97.38
504.473	104.38
504.69	97.38
504.907	94.38
505.123	77.38
505.34	77.38
505.557	90.38
505.773	92.38
505.99	78.38
506.207	106.38
506.423	81.38
506.64	82.38
506.856	95.38
507.073	80.38
507.289	92.38
507.506	88.38
507.722	97.38
507.939	94.38
508.155	100.38
508.372	86.38
508.588	98.38
508.805	95.38
509.021	88.38
509.238	103.38
509.454	92.38
509.67	105.38
509.887	102.38
510.103	136.38
510.319	200.38
510.536	707.38
510.752	2137.38
510.968	582.38
511.184	157.38
511.401	109.38
511.617	91.38
511.833	99.38
512.049	95.38
512.265	81.38
512.481	98.38
512.698	88.38
512.914	87.38
513.13	98.38
513.346	82.38
513.562	89.38
513.778	88.38
513.994	103.38
514.21	93.38
514.426	105.38
514.642	130.38
514.858	107.38
515.074	155.38
515.29	417.38
515.506	1278.38
515.721	461.38
515.937	139.38
516.153	93.38
516.369	83.38
516.585	90.38
516.801	88.38
517.016	95.38
517.232	102.38
517.448	89.38
517.664	94.38
517.879	95.38
518.095	89.38
518.311	92.38
518.527	109.38
518.742	99.38
518.958	90.38
519.173	96.38
519.389	102.38
519.605	93.38
519.82	86.38
520.036	92.38
520.251	105.38
520.467	95.38
520.682	95.38
520.898	90.38
521.113	99.38
521.329	126.38
521.544	203.38
521.76	497.38
521.975	2104.38
522.19	1251.38
522.406	278.38
522.621	120.38
522.836	98.38
523.052	109.38
523.267	91.38
523.482	87.38
523.698	103.38
523.913	118.38
524.128	86.38
524.343	86.38
524.559	91.38
524.774	82.38
524.989	98.38
525.204	101.38
525.419	88.38
525.634	77.38
525.849	92.38
526.064	73.38
526.28	93.38
526.495	98.38
526.71	89.38
526.925	90.38
527.14	93.38
527.355	89.38
527.57	97.38
527.785	93.38
527.999	86.38
528.214	90.38
528.429	87.38
528.644	85.38
528.859	85.38
529.074	86.38
529.289	114.38
529.503	151.38
529.718	106.38
529.933	94.38
530.148	98.38
530.363	89.38
530.577	85.38
530.792	94.38
531.007	91.38
531.221	93.38
531.436	95.38
531.651	94.38
531.865	82.38
532.08	94.38
532.295	96.38
532.509	82.38
532.724	79.38
532.938	88.38
533.153	96.38
533.367	99.38
533.582	99.38
533.796	81.38
534.011	90.38
534.225	86.38
534.44	93.38
534.654	73.38
534.868	95.38
535.083	94.38
535.297	84.38
535.511	84.38
535.726	81.38
535.94	98.38
536.154	81.38
536.369	81.38
536.583	78.38
536.797	82.38
537.011	82.38
537.225	74.38
537.44	85.38
537.654	90.38
537.868	96.38
538.082	79.38
538.296	84.38
538.51	91.38
538.724	85.38
538.938	95.38
539.153	96.38
539.367	96.38
539.581	84.38
539.795	95.38
540.009	88.38
540.222	83.38
540.436	100.38
540.65	87.38
540.864	96.38
541.078	91.38
541.292	89.38
541.506	82.38
541.72	72.38
541.934	87.38
542.147	73.38
542.361	87.38
542.575	74.38
542.789	88.38
543.002	85.38
543.216	94.38
543.43	94.38
543.644	104.38
543.857	93.38
544.071	75.38
544.285	76.38
544.498	89.38
544.712	77.38
544.925	72.38
545.139	82.38
545.352	91.38
545.566	89.38
545.779	80.38
545.993	98.38
546.206	97.38
546.42	88.38
546.633	89.38
546.847	80.38
547.06	93.38
547.274	86.38
547.487	85.38
547.7	82.38
547.914	87.38
548.127	89.38
548.34	83.38
548.554	74.38
548.767	70.38
548.98	87.38
549.193	81.38
549.407	84.38
549.62	78.38
549.833	88.38
550.046	86.38
550.259	79.38
550.473	82.38
550.686	83.38
550.899	82.38
551.112	97.38
551.325	97.38
551.538	89.38
551.751	94.38
551.964	83.38
552.177	83.38
552.39	87.38
552.603	89.38
552.816	90.38
553.029	87.38
553.242	82.38
553.455	93.38
553.667	99.38
553.88	115.38
554.093	95.38
554.306	88.38
554.519	94.38
554.732	98.38
554.944	75.38
555.157	97.38
555.37	80.38
555.583	76.38
555.795	98.38
556.008	87.38
556.221	96.38
556.433	82.38
556.646	102.38
556.859	93.38
557.071	87.38
557.284	80.38
557.496	98.38
557.709	79.38
557.921	76.38
558.134	83.38
558.346	86.38
558.559	72.38
558.771	86.38
558.984	90.38
559.196	85.38
559.409	91.38
559.621	89.38
559.833	83.38
560.046	88.38
560.258	76.38
560.47	94.38
560.683	93.38
560.895	83.38
561.107	88.38
561.32	75.38
561.532	87.38
561.744	87.38
561.956	97.38
562.168	76.38
562.381	86.38
562.593	90.38
562.805	88.38
563.017	88.38
563.229	89.38
563.441	87.38
563.653	89.38
563.865	82.38
564.077	101.38
564.289	80.38
564.501	86.38
564.713	85.38
564.925	73.38
565.137	88.38
565.349	92.38
565.561	76.38
565.773	83.38
565.985	83.38
566.197	93.38
566.408	89.38
566.62	75.38
566.832	77.38
567.044	73.38
567.255	87.38
567.467	90.38
567.679	89.38
567.891	83.38
568.102	81.38
568.314	66.38
568.526	79.38
568.737	89.38
568.949	79.38
569.161	91.38
569.372	87.38
569.584	78.38
569.795	90.38
570.007	110.38
570.218	224.38
570.43	117.38
570.641	78.38
570.853	93.38
571.064	81.38
571.276	84.38
571.487	71.38
571.698	74.38
571.91	81.38
572.121	103.38
572.333	95.38
572.544	83.38
572.755	77.38
572.966	82.38
573.178	91.38
573.389	93.38
573.6	87.38
573.811	77.38
574.023	88.38
574.234	75.38
574.445	85.38
574.656	85.38
574.867	81.38
575.078	86.38
575.289	78.38
575.501	82.38
575.712	96.38
575.923	85.38
576.134	82.38
576.345	73.38
576.556	81.38
576.767	88.38
576.978	95.38
577.188	86.38
577.399	82.38
577.61	96.38
577.821	98.38
578.032	100.38
578.243	269.38
578.454	715.38
578.665	195.38
578.875	104.38
579.086	80.38
579.297	77.38
579.508	88.38
579.718	76.38
579.929	85.38
580.14	82.38
580.35	75.38
580.561	80.38
580.772	93.38
580.982	97.38
581.193	86.38
581.403	77.38
581.614	75.38
581.825	76.38
582.035	80.38
582.246	79.38
582.456	92.38
582.667	80.38
582.877	87.38
583.087	80.38
583.298	85.38
583.508	93.38
583.719	71.38
583.929	87.38
584.139	76.38
584.35	94.38
584.56	76.38
584.77	88.38
584.981	80.38
585.191	87.38
585.401	92.38
585.611	79.38
585.821	84.38
586.032	82.38
586.242	85.38
586.452	87.38
586.662	97.38
586.872	83.38
587.082	72.38
587.292	88.38
587.502	80.38
587.713	91.38
587.923	92.38
588.133	83.38
588.343	82.38
588.553	94.38
588.762	94.38
588.972	88.38
589.182	80.38
589.392	87.38
589.602	91.38
589.812	81.38
590.022	89.38
590.232	82.38
590.441	81.38
590.651	81.38
590.861	98.38
591.071	93.38
591.281	82.38
591.49	75.38
591.7	92.38
591.91	82.38
592.119	91.38
592.329	79.38
592.539	93.38
592.748	78.38
592.958	85.38
593.167	73.38
593.377	79.38
593.587	81.38
593.796	72.38
594.006	84.38
594.215	90.38
594.424	83.38
594.634	76.38
594.843	85.38
595.053	80.38
595.262	89.38
595.472	78.38
595.681	103.38
595.89	85.38
596.1	81.38
596.309	83.38
596.518	86.38
596.727	94.38
596.937	83.38
597.146	67.38
597.355	85.38
597.564	74.38
597.774	83.38
597.983	89.38
598.192	90.38
598.401	81.38
598.61	72.38
598.819	71.38
599.028	81.38
599.237	97.38
599.446	77.38
599.655	90.38
599.864	93.38
600.073	75.38
600.282	83.38
600.491	73.38
600.7	96.38
600.909	85.38
601.118	84.38
601.327	102.38
601.536	99.38
601.745	77.38
601.953	88.38
602.162	81.38
602.371	88.38
602.58	78.38
602.789	73.38
602.997	91.38
603.206	78.38
603.415	76.38
603.623	78.38
603.832	80.38
604.041	65.38
604.249	58.38
604.458	78.38
604.666	92.38
604.875	69.38
605.084	76.38
605.292	84.38
605.501	81.38
605.709	92.38
605.918	82.38
606.126	97.38
606.334	77.38
606.543	72.38
606.751	82.38
606.96	95.38
607.168	85.38
607.376	78.38
607.585	83.38
607.793	97.38
608.001	80.38
608.21	80.38
608.418	87.38
608.626	89.38
608.834	94.38
609.043	85.38
609.251	89.38
609.459	87.38
609.667	86.38
609.875	78.38
610.083	78.38
610.291	77.38
610.499	89.38
610.707	90.38
610.916	84.38
611.124	87.38
611.332	88.38
611.54	97.38
611.748	101.38
611.955	76.38
612.163	71.38
612.371	78.38
612.579	71.38
612.787	80.38
612.995	85.38
613.203	90.38
613.411	87.38
613.618	87.38
613.826	80.38
614.034	65.38
614.242	84.38
614.449	84.38
614.657	87.38
614.865	78.38
615.072	92.38
615.28	74.38
615.488	106.38
615.695	80.38
615.903	96.38
616.111	95.38
616.318	106.38
616.526	82.38
616.733	93.38
616.941	88.38
617.148	100.38
617.356	82.38
617.563	80.38
617.771	86.38
617.978	81.38
618.185	82.38
618.393	86.38
618.6	74.38
618.807	94.38
619.015	74.38
619.222	79.38
619.429	89.38
619.637	73.38
619.844	89.38
620.051	84.38
620.258	77.38
620.466	93.38
620.673	80.38
620.88	73.38
621.087	86.38
621.294	87.38
621.501	86.38
621.708	71.38
621.915	82.38
622.122	74.38
622.329	87.38
622.536	75.38
622.743	76.38
622.95	91.38
623.157	83.38
623.364	85.38
623.571	82.38
623.778	77.38
623.985	80.38
624.192	87.38
624.399	82.38
624.606	92.38
624.812	87.38
625.019	85.38
625.226	80.38
625.433	102.38
625.639	87.38
625.846	77.38
626.053	84.38
626.259	87.38
626.466	85.38
626.673	88.38
626.879	66.38
627.086	86.38
627.293	76.38
627.499	87.38
627.706	81.38
627.912	71.38
628.119	84.38
628.325	79.38
628.532	79.38
628.738	77.38
628.945	77.38
629.151	67.38
629.357	85.38
629.564	77.38
629.77	89.38
629.976	83.38
630.183	78.38
630.389	87.38
630.595	64.38
630.802	74.38
631.008	77.38
631.214	71.38
631.42	69.38
631.627	89.38
631.833	88.38
632.039	92.38
632.245	88.38
632.451	90.38
632.657	75.38
632.863	88.38
633.069	96.38
633.275	79.38
633.481	85.38
633.688	82.38
633.893	70.38
634.099	78.38
634.305	79.38
634.511	88.38
634.717	73.38
634.923	79.38
635.129	79.38
635.335	79.38
635.541	80.38
635.747	87.38
635.952	85.38
636.158	73.38
636.364	78.38
636.57	81.38
636.775	79.38
636.981	71.38
637.187	89.38
637.392	86.38
637.598	76.38
637.804	79.38
638.009	61.38
638.215	75.38
638.421	77.38
638.626	81.38
638.832	89.38
639.037	79.38
639.243	86.38
639.448	85.38
639.654	74.38
639.859	80.38
640.065	94.38
640.27	97.38
640.475	85.38
640.681	79.38
640.886	73.38
641.091	78.38
641.297	74.38
641.502	77.38
641.707	83.38
641.913	85.38
642.118	93.38
642.323	72.38
642.528	75.38
642.733	89.38
642.939	92.38
643.144	71.38
643.349	69.38
643.554	92.38
643.759	75.38
643.964	87.38
644.169	86.38
644.374	91.38
644.579	87.38
644.784	83.38
644.989	81.38
645.194	79.38
645.399	79.38
645.604	76.38
645.809	84.38
646.014	74.38
646.219	72.38
646.423	77.38
646.628	86.38
646.833	77.38
647.038	88.38
647.243	87.38
647.447	73.38
647.652	85.38
647.857	75.38
648.062	91.38
648.266	91.38
648.471	89.38
648.676	96.38
648.88	82.38
649.085	94.38
649.289	102.38
649.494	96.38
649.698	116.38
649.903	93.38
650.107	83.38
650.312	85.38
650.516	90.38
650.721	80.38
650.925	94.38
651.13	72.38
651.334	64.38
651.539	82.38
651.743	94.38
651.947	85.38
652.152	85.38
652.356	90.38
652.56	82.38
652.764	86.38
652.969	85.38
653.173	74.38
653.377	78.38
653.581	82.38
653.785	93.38
653.99	77.38
654.194	79.38
654.398	75.38
654.602	86.38
654.806	86.38
655.01	92.38
655.214	89.38
655.418	80.38
655.622	87.38
655.826	93.38
656.03	107.38
656.234	78.38
656.438	100.38
656.642	98.38
656.846	79.38
657.049	89.38
657.253	103.38
657.457	81.38
657.661	85.38
657.865	84.38
658.068	82.38
658.272	65.38
658.476	79.38
658.68	77.38
658.883	59.38
659.087	84.38
659.291	79.38
659.494	74.38
659.698	79.38
659.901	76.38
660.105	66.38
660.309	79.38
660.512	97.38
660.716	79.38
660.919	86.38
661.123	88.38
661.326	73.38
661.53	73.38
661.733	79.38
661.936	78.38
662.14	80.38
662.343	80.38
662.546	80.38
662.75	81.38
662.953	87.38
663.156	80.38
663.36	73.38
663.563	73.38
663.766	87.38
663.969	73.38
664.173	66.38
664.376	75.38
664.579	79.38
664.782	79.38
664.985	83.38
665.188	64.38
665.391	74.38
665.594	75.38
665.797	73.38
666	64.38
666.203	77.38
666.406	83.38
666.609	78.38
666.812	75.38
667.015	77.38
667.218	70.38
667.421	74.38
667.624	70.38
667.827	79.38
668.03	72.38
668.232	83.38
668.435	76.38
668.638	82.38
668.841	86.38
669.043	79.38
669.246	72.38
669.449	64.38
669.651	82.38
669.854	88.38
670.057	74.38
670.259	63.38
670.462	73.38
670.665	73.38
670.867	71.38
671.07	76.38
671.272	88.38
671.475	93.38
671.677	86.38
671.88	73.38
672.082	82.38
672.284	75.38
672.487	75.38
672.689	77.38
672.892	76.38
