Data from Uncirc_1993_H10_HRD10591_00014.txt Node
Date: Wed Jan 03 11:42:55 EST 2024
User: Yrep
Spectrometer: HR+D1059
Trigger mode: 1
Integration Time (sec): 1.000000E-1
Scans to average: 1
Electric dark correction enabled: true
Nonlinearity correction enabled: false
Boxcar width: 0
XAxis mode: Wavelengths
Number of Pixels in Spectrum: 2048
>>>>>Begin Spectral Data<<<<<
223.165	-13.56
223.4	-13.56
223.635	-13.56
223.869	-14.56
224.104	-29.56
224.338	-17.56
224.573	-8.56
224.808	-7.56
225.042	-10.56
225.277	-21.56
225.511	-16.56
225.746	2.44
225.98	23.44
226.215	19.44
226.449	16.44
226.683	10.44
226.918	31.44
227.152	36.44
227.387	40.44
227.621	29.44
227.856	54.44
228.09	50.44
228.324	48.44
228.559	59.44
228.793	56.44
229.027	56.44
229.262	60.44
229.496	61.44
229.73	83.44
229.964	89.44
230.199	82.44
230.433	88.44
230.667	81.44
230.901	81.44
231.136	98.44
231.37	95.44
231.604	74.44
231.838	86.44
232.072	85.44
232.306	76.44
232.541	86.44
232.775	87.44
233.009	98.44
233.243	82.44
233.477	68.44
233.711	68.44
233.945	80.44
234.179	80.44
234.413	76.44
234.647	77.44
234.881	84.44
235.115	79.44
235.349	94.44
235.583	103.44
235.817	93.44
236.051	77.44
236.285	88.44
236.519	84.44
236.753	76.44
236.987	79.44
237.221	57.44
237.455	88.44
237.689	80.44
237.922	82.44
238.156	84.44
238.39	72.44
238.624	81.44
238.858	82.44
239.091	79.44
239.325	84.44
239.559	75.44
239.793	70.44
240.027	76.44
240.26	77.44
240.494	79.44
240.728	71.44
240.961	53.44
241.195	94.44
241.429	93.44
241.662	82.44
241.896	90.44
242.13	71.44
242.363	86.44
242.597	77.44
242.83	71.44
243.064	82.44
243.298	80.44
243.531	88.44
243.765	64.44
243.998	77.44
244.232	78.44
244.465	94.44
244.699	81.44
244.932	84.44
245.166	78.44
245.399	76.44
245.633	95.44
245.866	75.44
246.099	81.44
246.333	80.44
246.566	79.44
246.8	88.44
247.033	86.44
247.266	75.44
247.5	87.44
247.733	82.44
247.966	80.44
248.2	79.44
248.433	85.44
248.666	75.44
248.899	92.44
249.133	85.44
249.366	82.44
249.599	94.44
249.832	80.44
250.066	82.44
250.299	92.44
250.532	78.44
250.765	75.44
250.998	87.44
251.231	87.44
251.465	92.44
251.698	80.44
251.931	91.44
252.164	84.44
252.397	79.44
252.63	80.44
252.863	75.44
253.096	95.44
253.329	88.44
253.562	81.44
253.795	70.44
254.028	81.44
254.261	83.44
254.494	66.44
254.727	78.44
254.96	84.44
255.193	79.44
255.426	71.44
255.659	90.44
255.892	84.44
256.124	75.44
256.357	80.44
256.59	90.44
256.823	88.44
257.056	86.44
257.289	94.44
257.521	82.44
257.754	82.44
257.987	89.44
258.22	90.44
258.452	98.44
258.685	82.44
258.918	74.44
259.151	83.44
259.383	80.44
259.616	88.44
259.849	77.44
260.081	74.44
260.314	74.44
260.547	80.44
260.779	74.44
261.012	68.44
261.244	86.44
261.477	88.44
261.71	94.44
261.942	98.44
262.175	90.44
262.407	74.44
262.64	71.44
262.872	78.44
263.105	82.44
263.337	67.44
263.57	72.44
263.802	77.44
264.035	80.44
264.267	84.44
264.499	97.44
264.732	78.44
264.964	98.44
265.197	91.44
265.429	78.44
265.661	92.44
265.894	88.44
266.126	91.44
266.358	87.44
266.591	93.44
266.823	76.44
267.055	94.44
267.287	84.44
267.52	91.44
267.752	87.44
267.984	80.44
268.216	81.44
268.448	79.44
268.681	65.44
268.913	86.44
269.145	83.44
269.377	85.44
269.609	90.44
269.841	75.44
270.073	89.44
270.306	89.44
270.538	79.44
270.77	78.44
271.002	91.44
271.234	96.44
271.466	82.44
271.698	84.44
271.93	78.44
272.162	94.44
272.394	77.44
272.626	84.44
272.858	97.44
273.09	74.44
273.322	102.44
273.553	81.44
273.785	98.44
274.017	88.44
274.249	85.44
274.481	85.44
274.713	78.44
274.945	94.44
275.176	85.44
275.408	85.44
275.64	93.44
275.872	90.44
276.104	86.44
276.335	77.44
276.567	102.44
276.799	116.44
277.031	87.44
277.262	81.44
277.494	84.44
277.726	85.44
277.957	82.44
278.189	95.44
278.421	92.44
278.652	96.44
278.884	80.44
279.115	88.44
279.347	77.44
279.579	82.44
279.81	95.44
280.042	87.44
280.273	67.44
280.505	87.44
280.736	82.44
280.968	96.44
281.199	93.44
281.431	80.44
281.662	97.44
281.894	79.44
282.125	93.44
282.356	111.44
282.588	120.44
282.819	105.44
283.051	93.44
283.282	77.44
283.513	86.44
283.745	75.44
283.976	84.44
284.207	89.44
284.439	88.44
284.67	79.44
284.901	91.44
285.132	94.44
285.364	76.44
285.595	97.44
285.826	88.44
286.057	94.44
286.288	96.44
286.52	91.44
286.751	101.44
286.982	89.44
287.213	85.44
287.444	88.44
287.675	95.44
287.906	81.44
288.138	87.44
288.369	99.44
288.6	96.44
288.831	92.44
289.062	71.44
289.293	71.44
289.524	82.44
289.755	89.44
289.986	94.44
290.217	87.44
290.448	77.44
290.679	92.44
290.91	77.44
291.141	78.44
291.371	83.44
291.602	94.44
291.833	90.44
292.064	84.44
292.295	96.44
292.526	88.44
292.757	83.44
292.987	84.44
293.218	104.44
293.449	87.44
293.68	95.44
293.91	96.44
294.141	75.44
294.372	91.44
294.603	90.44
294.833	78.44
295.064	96.44
295.295	95.44
295.525	96.44
295.756	100.44
295.987	115.44
296.217	123.44
296.448	110.44
296.679	102.44
296.909	83.44
297.14	89.44
297.37	93.44
297.601	100.44
297.831	86.44
298.062	108.44
298.292	82.44
298.523	90.44
298.753	89.44
298.984	94.44
299.214	88.44
299.445	100.44
299.675	90.44
299.905	82.44
300.136	87.44
300.366	85.44
300.597	91.44
300.827	90.44
301.057	99.44
301.288	98.44
301.518	100.44
301.748	96.44
301.979	98.44
302.209	96.44
302.439	97.44
302.669	95.44
302.9	91.44
303.13	79.44
303.36	94.44
303.59	96.44
303.82	108.44
304.051	108.44
304.281	95.44
304.511	87.44
304.741	98.44
304.971	101.44
305.201	92.44
305.431	76.44
305.661	83.44
305.891	84.44
306.121	99.44
306.352	86.44
306.582	91.44
306.812	90.44
307.042	88.44
307.272	87.44
307.502	90.44
307.731	84.44
307.961	79.44
308.191	90.44
308.421	86.44
308.651	86.44
308.881	87.44
309.111	90.44
309.341	74.44
309.571	95.44
309.8	80.44
310.03	96.44
310.26	93.44
310.49	89.44
310.72	103.44
310.949	96.44
311.179	99.44
311.409	96.44
311.639	90.44
311.868	103.44
312.098	95.44
312.328	94.44
312.557	95.44
312.787	88.44
313.017	87.44
313.246	84.44
313.476	92.44
313.706	91.44
313.935	95.44
314.165	93.44
314.394	93.44
314.624	99.44
314.853	111.44
315.083	93.44
315.312	101.44
315.542	86.44
315.771	90.44
316.001	95.44
316.23	95.44
316.46	75.44
316.689	92.44
316.919	85.44
317.148	98.44
317.377	93.44
317.607	101.44
317.836	106.44
318.065	102.44
318.295	107.44
318.524	86.44
318.753	90.44
318.983	85.44
319.212	93.44
319.441	97.44
319.67	90.44
319.9	90.44
320.129	88.44
320.358	104.44
320.587	97.44
320.816	111.44
321.046	94.44
321.275	96.44
321.504	102.44
321.733	104.44
321.962	105.44
322.191	103.44
322.42	92.44
322.649	119.44
322.878	97.44
323.108	101.44
323.337	122.44
323.566	125.44
323.795	133.44
324.024	145.44
324.253	314.44
324.482	642.44
324.71	1240.44
324.939	1631.44
325.168	598.44
325.397	202.44
325.626	133.44
325.855	116.44
326.084	118.44
326.313	128.44
326.542	149.44
326.77	192.44
326.999	370.44
327.228	701.44
327.457	1224.44
327.686	984.44
327.914	293.44
328.143	162.44
328.372	125.44
328.6	132.44
328.829	114.44
329.058	106.44
329.287	118.44
329.515	92.44
329.744	99.44
329.972	100.44
330.201	100.44
330.43	94.44
330.658	106.44
330.887	108.44
331.115	106.44
331.344	97.44
331.572	92.44
331.801	103.44
332.03	97.44
332.258	95.44
332.486	91.44
332.715	89.44
332.943	75.44
333.172	104.44
333.4	95.44
333.629	112.44
333.857	112.44
334.085	85.44
334.314	99.44
334.542	102.44
334.771	90.44
334.999	80.44
335.227	93.44
335.455	87.44
335.684	84.44
335.912	95.44
336.14	90.44
336.369	97.44
336.597	98.44
336.825	93.44
337.053	94.44
337.281	116.44
337.51	94.44
337.738	99.44
337.966	105.44
338.194	93.44
338.422	97.44
338.65	100.44
338.878	102.44
339.106	91.44
339.334	83.44
339.562	94.44
339.79	91.44
340.018	86.44
340.246	90.44
340.474	91.44
340.702	90.44
340.93	82.44
341.158	90.44
341.386	90.44
341.614	114.44
341.842	104.44
342.07	100.44
342.298	99.44
342.526	102.44
342.754	75.44
342.981	90.44
343.209	85.44
343.437	96.44
343.665	96.44
343.893	95.44
344.12	95.44
344.348	91.44
344.576	86.44
344.804	99.44
345.031	100.44
345.259	108.44
345.487	91.44
345.714	86.44
345.942	94.44
346.17	91.44
346.397	99.44
346.625	107.44
346.853	104.44
347.08	103.44
347.308	83.44
347.535	94.44
347.763	100.44
347.99	107.44
348.218	110.44
348.445	104.44
348.673	85.44
348.9	96.44
349.128	98.44
349.355	90.44
349.583	87.44
349.81	100.44
350.037	88.44
350.265	104.44
350.492	84.44
350.72	95.44
350.947	106.44
351.174	106.44
351.402	99.44
351.629	108.44
351.856	96.44
352.083	93.44
352.311	98.44
352.538	85.44
352.765	112.44
352.992	103.44
353.22	99.44
353.447	103.44
353.674	101.44
353.901	98.44
354.128	95.44
354.355	96.44
354.583	100.44
354.81	97.44
355.037	107.44
355.264	101.44
355.491	92.44
355.718	97.44
355.945	87.44
356.172	98.44
356.399	91.44
356.626	106.44
356.853	88.44
357.08	106.44
357.307	94.44
357.534	96.44
357.761	95.44
357.988	93.44
358.215	102.44
358.441	94.44
358.668	98.44
358.895	88.44
359.122	96.44
359.349	90.44
359.576	81.44
359.802	87.44
360.029	100.44
360.256	103.44
360.483	108.44
360.709	94.44
360.936	96.44
361.163	86.44
361.39	105.44
361.616	86.44
361.843	88.44
362.07	82.44
362.296	93.44
362.523	94.44
362.749	93.44
362.976	85.44
363.203	90.44
363.429	92.44
363.656	92.44
363.882	84.44
364.109	89.44
364.335	90.44
364.562	96.44
364.788	81.44
365.015	85.44
365.241	98.44
365.468	103.44
365.694	91.44
365.92	110.44
366.147	104.44
366.373	88.44
366.599	82.44
366.826	87.44
367.052	92.44
367.278	90.44
367.505	83.44
367.731	88.44
367.957	81.44
368.184	90.44
368.41	105.44
368.636	112.44
368.862	117.44
369.089	100.44
369.315	90.44
369.541	91.44
369.767	97.44
369.993	101.44
370.219	99.44
370.445	92.44
370.672	101.44
370.898	91.44
371.124	89.44
371.35	102.44
371.576	93.44
371.802	71.44
372.028	84.44
372.254	88.44
372.48	79.44
372.706	84.44
372.932	93.44
373.158	97.44
373.384	88.44
373.61	102.44
373.835	101.44
374.061	94.44
374.287	98.44
374.513	81.44
374.739	92.44
374.965	90.44
375.191	89.44
375.416	92.44
375.642	104.44
375.868	88.44
376.094	91.44
376.319	83.44
376.545	95.44
376.771	104.44
376.997	92.44
377.222	99.44
377.448	102.44
377.674	90.44
377.899	84.44
378.125	78.44
378.35	92.44
378.576	93.44
378.802	96.44
379.027	87.44
379.253	78.44
379.478	99.44
379.704	90.44
379.929	88.44
380.155	95.44
380.38	103.44
380.606	85.44
380.831	100.44
381.057	104.44
381.282	97.44
381.507	92.44
381.733	101.44
381.958	94.44
382.184	103.44
382.409	90.44
382.634	94.44
382.86	92.44
383.085	111.44
383.31	93.44
383.535	106.44
383.761	89.44
383.986	100.44
384.211	107.44
384.436	99.44
384.662	86.44
384.887	102.44
385.112	101.44
385.337	92.44
385.562	96.44
385.787	94.44
386.013	110.44
386.238	99.44
386.463	104.44
386.688	102.44
386.913	105.44
387.138	109.44
387.363	104.44
387.588	98.44
387.813	96.44
388.038	91.44
388.263	109.44
388.488	115.44
388.713	86.44
388.938	92.44
389.163	103.44
389.387	98.44
389.612	101.44
389.837	98.44
390.062	98.44
390.287	94.44
390.512	95.44
390.736	93.44
390.961	91.44
391.186	87.44
391.411	109.44
391.636	97.44
391.86	83.44
392.085	89.44
392.31	88.44
392.534	86.44
392.759	93.44
392.984	93.44
393.208	85.44
393.433	90.44
393.658	96.44
393.882	93.44
394.107	98.44
394.331	91.44
394.556	103.44
394.78	101.44
395.005	98.44
395.229	74.44
395.454	94.44
395.678	99.44
395.903	92.44
396.127	86.44
396.352	79.44
396.576	96.44
396.801	82.44
397.025	94.44
397.249	100.44
397.474	94.44
397.698	84.44
397.922	92.44
398.147	90.44
398.371	107.44
398.595	86.44
398.82	80.44
399.044	92.44
399.268	85.44
399.492	95.44
399.717	88.44
399.941	90.44
400.165	108.44
400.389	93.44
400.613	82.44
400.837	91.44
401.062	78.44
401.286	83.44
401.51	80.44
401.734	93.44
401.958	92.44
402.182	114.44
402.406	116.44
402.63	102.44
402.854	78.44
403.078	101.44
403.302	90.44
403.526	104.44
403.75	85.44
403.974	86.44
404.198	99.44
404.422	86.44
404.645	96.44
404.869	101.44
405.093	94.44
405.317	90.44
405.541	95.44
405.765	102.44
405.988	108.44
406.212	163.44
406.436	182.44
406.66	126.44
406.883	100.44
407.107	99.44
407.331	93.44
407.555	96.44
407.778	104.44
408.002	93.44
408.226	88.44
408.449	96.44
408.673	90.44
408.896	97.44
409.12	91.44
409.344	95.44
409.567	95.44
409.791	84.44
410.014	77.44
410.238	96.44
410.461	87.44
410.685	86.44
410.908	91.44
411.132	110.44
411.355	102.44
411.578	110.44
411.802	97.44
412.025	86.44
412.249	69.44
412.472	66.44
412.695	92.44
412.919	83.44
413.142	89.44
413.365	81.44
413.589	100.44
413.812	94.44
414.035	98.44
414.258	82.44
414.482	88.44
414.705	92.44
414.928	101.44
415.151	93.44
415.374	87.44
415.597	85.44
415.821	89.44
416.044	100.44
416.267	104.44
416.49	89.44
416.713	84.44
416.936	101.44
417.159	100.44
417.382	91.44
417.605	88.44
417.828	90.44
418.051	88.44
418.274	85.44
418.497	82.44
418.72	89.44
418.943	94.44
419.166	88.44
419.389	83.44
419.611	96.44
419.834	81.44
420.057	71.44
420.28	94.44
420.503	83.44
420.726	92.44
420.948	84.44
421.171	114.44
421.394	88.44
421.617	98.44
421.839	105.44
422.062	88.44
422.285	102.44
422.507	93.44
422.73	94.44
422.953	73.44
423.175	76.44
423.398	94.44
423.621	81.44
423.843	78.44
424.066	87.44
424.288	91.44
424.511	88.44
424.733	88.44
424.956	106.44
425.178	98.44
425.401	107.44
425.623	90.44
425.846	92.44
426.068	87.44
426.291	88.44
426.513	93.44
426.735	86.44
426.958	97.44
427.18	101.44
427.402	113.44
427.625	139.44
427.847	103.44
428.069	81.44
428.292	84.44
428.514	88.44
428.736	95.44
428.958	102.44
429.181	85.44
429.403	79.44
429.625	98.44
429.847	96.44
430.069	96.44
430.292	84.44
430.514	83.44
430.736	98.44
430.958	101.44
431.18	90.44
431.402	94.44
431.624	86.44
431.846	87.44
432.068	87.44
432.29	85.44
432.512	98.44
432.734	91.44
432.956	94.44
433.178	103.44
433.4	106.44
433.622	77.44
433.844	77.44
434.066	86.44
434.287	97.44
434.509	87.44
434.731	76.44
434.953	98.44
435.175	80.44
435.397	94.44
435.618	95.44
435.84	94.44
436.062	118.44
436.284	93.44
436.505	97.44
436.727	100.44
436.949	95.44
437.17	95.44
437.392	104.44
437.614	67.44
437.835	96.44
438.057	94.44
438.278	97.44
438.5	97.44
438.721	118.44
438.943	86.44
439.165	91.44
439.386	96.44
439.608	91.44
439.829	102.44
440.05	108.44
440.272	121.44
440.493	96.44
440.715	84.44
440.936	82.44
441.158	93.44
441.379	90.44
441.6	87.44
441.822	87.44
442.043	87.44
442.264	91.44
442.486	87.44
442.707	102.44
442.928	110.44
443.149	114.44
443.371	116.44
443.592	98.44
443.813	113.44
444.034	88.44
444.255	90.44
444.476	83.44
444.698	72.44
444.919	80.44
445.14	135.44
445.361	102.44
445.582	107.44
445.803	120.44
446.024	123.44
446.245	122.44
446.466	101.44
446.687	92.44
446.908	88.44
447.129	90.44
447.35	90.44
447.571	75.44
447.792	92.44
448.013	92.44
448.234	100.44
448.455	91.44
448.675	105.44
448.896	118.44
449.117	82.44
449.338	94.44
449.559	110.44
449.779	111.44
450	84.44
450.221	91.44
450.442	85.44
450.662	84.44
450.883	100.44
451.104	108.44
451.324	107.44
451.545	102.44
451.766	87.44
451.986	86.44
452.207	94.44
452.428	85.44
452.648	104.44
452.869	103.44
453.089	95.44
453.31	106.44
453.53	95.44
453.751	82.44
453.971	108.44
454.192	117.44
454.412	95.44
454.633	87.44
454.853	85.44
455.073	92.44
455.294	95.44
455.514	99.44
455.734	85.44
455.955	93.44
456.175	83.44
456.395	84.44
456.616	96.44
456.836	86.44
457.056	83.44
457.276	94.44
457.497	86.44
457.717	92.44
457.937	92.44
458.157	87.44
458.377	86.44
458.598	117.44
458.818	133.44
459.038	126.44
459.258	102.44
459.478	98.44
459.698	90.44
459.918	87.44
460.138	86.44
460.358	89.44
460.578	93.44
460.798	81.44
461.018	94.44
461.238	78.44
461.458	68.44
461.678	98.44
461.898	73.44
462.118	101.44
462.338	87.44
462.558	66.44
462.777	93.44
462.997	84.44
463.217	92.44
463.437	93.44
463.657	81.44
463.876	86.44
464.096	86.44
464.316	83.44
464.536	88.44
464.755	85.44
464.975	94.44
465.195	138.44
465.414	138.44
465.634	111.44
465.854	85.44
466.073	85.44
466.293	84.44
466.512	77.44
466.732	94.44
466.951	98.44
467.171	96.44
467.391	84.44
467.61	89.44
467.829	90.44
468.049	96.44
468.268	80.44
468.488	88.44
468.707	83.44
468.927	91.44
469.146	91.44
469.365	98.44
469.585	88.44
469.804	100.44
470.023	96.44
470.243	87.44
470.462	74.44
470.681	102.44
470.901	93.44
471.12	101.44
471.339	86.44
471.558	103.44
471.777	78.44
471.997	73.44
472.216	99.44
472.435	77.44
472.654	83.44
472.873	94.44
473.092	80.44
473.311	100.44
473.53	99.44
473.749	93.44
473.968	98.44
474.187	97.44
474.406	98.44
474.625	95.44
474.844	90.44
475.063	68.44
475.282	79.44
475.501	74.44
475.72	92.44
475.939	77.44
476.158	87.44
476.377	82.44
476.596	85.44
476.814	94.44
477.033	80.44
477.252	96.44
477.471	99.44
477.69	80.44
477.908	76.44
478.127	79.44
478.346	87.44
478.564	96.44
478.783	96.44
479.002	88.44
479.22	96.44
479.439	96.44
479.658	98.44
479.876	86.44
480.095	78.44
480.313	105.44
480.532	90.44
480.751	92.44
480.969	91.44
481.188	112.44
481.406	101.44
481.624	96.44
481.843	88.44
482.061	80.44
482.28	78.44
482.498	90.44
482.717	102.44
482.935	82.44
483.153	97.44
483.372	87.44
483.59	75.44
483.808	91.44
484.027	98.44
484.245	97.44
484.463	79.44
484.681	103.44
484.9	93.44
485.118	97.44
485.336	95.44
485.554	102.44
485.772	92.44
485.99	106.44
486.209	82.44
486.427	106.44
486.645	108.44
486.863	107.44
487.081	96.44
487.299	94.44
487.517	98.44
487.735	76.44
487.953	95.44
488.171	96.44
488.389	100.44
488.607	99.44
488.825	87.44
489.043	89.44
489.261	84.44
489.479	91.44
489.696	80.44
489.914	74.44
490.132	76.44
490.35	93.44
490.568	78.44
490.786	92.44
491.003	90.44
491.221	87.44
491.439	89.44
491.657	93.44
491.874	82.44
492.092	87.44
492.31	76.44
492.527	93.44
492.745	75.44
492.963	94.44
493.18	97.44
493.398	78.44
493.615	96.44
493.833	105.44
494.05	90.44
494.268	98.44
494.485	83.44
494.703	92.44
494.92	104.44
495.138	94.44
495.355	104.44
495.573	97.44
495.79	83.44
496.008	87.44
496.225	98.44
496.442	83.44
496.66	99.44
496.877	99.44
497.094	80.44
497.312	98.44
497.529	85.44
497.746	84.44
497.963	86.44
498.181	106.44
498.398	104.44
498.615	108.44
498.832	95.44
499.049	90.44
499.267	88.44
499.484	88.44
499.701	106.44
499.918	95.44
500.135	86.44
500.352	92.44
500.569	94.44
500.786	75.44
501.003	90.44
501.22	87.44
501.437	108.44
501.654	108.44
501.871	103.44
502.088	92.44
502.305	87.44
502.522	81.44
502.739	80.44
502.956	94.44
503.172	96.44
503.389	89.44
503.606	116.44
503.823	93.44
504.04	101.44
504.256	83.44
504.473	98.44
504.69	92.44
504.907	90.44
505.123	78.44
505.34	91.44
505.557	96.44
505.773	82.44
505.99	96.44
506.207	87.44
506.423	83.44
506.64	87.44
506.856	88.44
507.073	88.44
507.289	99.44
507.506	98.44
507.722	100.44
507.939	102.44
508.155	87.44
508.372	94.44
508.588	91.44
508.805	84.44
509.021	87.44
509.238	86.44
509.454	97.44
509.67	106.44
509.887	92.44
510.103	132.44
510.319	190.44
510.536	670.44
510.752	1927.44
510.968	521.44
511.184	138.44
511.401	103.44
511.617	93.44
511.833	102.44
512.049	89.44
512.265	76.44
512.481	101.44
512.698	98.44
512.914	96.44
513.13	96.44
513.346	79.44
513.562	100.44
513.778	98.44
513.994	98.44
514.21	98.44
514.426	120.44
514.642	139.44
514.858	102.44
515.074	144.44
515.29	367.44
515.506	1165.44
515.721	446.44
515.937	130.44
516.153	99.44
516.369	100.44
516.585	96.44
516.801	90.44
517.016	94.44
517.232	91.44
517.448	87.44
517.664	90.44
517.879	84.44
518.095	94.44
518.311	106.44
518.527	93.44
518.742	93.44
518.958	90.44
519.173	94.44
519.389	94.44
519.605	94.44
519.82	102.44
520.036	105.44
520.251	110.44
520.467	104.44
520.682	105.44
520.898	104.44
521.113	111.44
521.329	134.44
521.544	174.44
521.76	470.44
521.975	1899.44
522.19	1163.44
522.406	266.44
522.621	114.44
522.836	90.44
523.052	98.44
523.267	89.44
523.482	89.44
523.698	100.44
523.913	115.44
524.128	98.44
524.343	93.44
524.559	90.44
524.774	92.44
524.989	91.44
525.204	101.44
525.419	82.44
525.634	88.44
525.849	79.44
526.064	92.44
526.28	100.44
526.495	99.44
526.71	95.44
526.925	88.44
527.14	80.44
527.355	84.44
527.57	93.44
527.785	92.44
527.999	85.44
528.214	90.44
528.429	85.44
528.644	88.44
528.859	95.44
529.074	105.44
529.289	98.44
529.503	151.44
529.718	101.44
529.933	101.44
530.148	93.44
530.363	78.44
530.577	92.44
530.792	86.44
531.007	88.44
531.221	88.44
531.436	88.44
531.651	103.44
531.865	103.44
532.08	93.44
532.295	97.44
532.509	98.44
532.724	90.44
532.938	89.44
533.153	82.44
533.367	94.44
533.582	96.44
533.796	97.44
534.011	96.44
534.225	94.44
534.44	83.44
534.654	94.44
534.868	89.44
535.083	107.44
535.297	95.44
535.511	102.44
535.726	102.44
535.94	93.44
536.154	80.44
536.369	106.44
536.583	84.44
536.797	94.44
537.011	86.44
537.225	81.44
537.44	75.44
537.654	93.44
537.868	97.44
538.082	95.44
538.296	87.44
538.51	100.44
538.724	93.44
538.938	92.44
539.153	95.44
539.367	102.44
539.581	104.44
539.795	93.44
540.009	82.44
540.222	108.44
540.436	108.44
540.65	90.44
540.864	78.44
541.078	103.44
541.292	93.44
541.506	98.44
541.72	101.44
541.934	93.44
542.147	91.44
542.361	80.44
542.575	83.44
542.789	90.44
543.002	79.44
543.216	94.44
543.43	99.44
543.644	88.44
543.857	84.44
544.071	89.44
544.285	88.44
544.498	95.44
544.712	100.44
544.925	92.44
545.139	96.44
545.352	93.44
545.566	92.44
545.779	88.44
545.993	94.44
546.206	86.44
546.42	78.44
546.633	75.44
546.847	81.44
547.06	86.44
547.274	94.44
547.487	71.44
547.7	78.44
547.914	87.44
548.127	66.44
548.34	100.44
548.554	88.44
548.767	94.44
548.98	95.44
549.193	103.44
549.407	81.44
549.62	82.44
549.833	90.44
550.046	96.44
550.259	78.44
550.473	91.44
550.686	86.44
550.899	100.44
551.112	90.44
551.325	76.44
551.538	82.44
551.751	104.44
551.964	92.44
552.177	87.44
552.39	84.44
552.603	83.44
552.816	110.44
553.029	98.44
553.242	92.44
553.455	104.44
553.667	106.44
553.88	104.44
554.093	83.44
554.306	90.44
554.519	95.44
554.732	89.44
554.944	96.44
555.157	84.44
555.37	99.44
555.583	90.44
555.795	92.44
556.008	104.44
556.221	95.44
556.433	96.44
556.646	87.44
556.859	96.44
557.071	95.44
557.284	107.44
557.496	88.44
557.709	106.44
557.921	95.44
558.134	104.44
558.346	96.44
558.559	84.44
558.771	89.44
558.984	94.44
559.196	86.44
559.409	85.44
559.621	85.44
559.833	94.44
560.046	86.44
560.258	97.44
560.47	88.44
560.683	86.44
560.895	76.44
561.107	93.44
561.32	78.44
561.532	89.44
561.744	90.44
561.956	92.44
562.168	91.44
562.381	82.44
562.593	105.44
562.805	95.44
563.017	75.44
563.229	101.44
563.441	79.44
563.653	92.44
563.865	94.44
564.077	82.44
564.289	94.44
564.501	90.44
564.713	90.44
564.925	88.44
565.137	99.44
565.349	99.44
565.561	85.44
565.773	89.44
565.985	100.44
566.197	93.44
566.408	96.44
566.62	86.44
566.832	89.44
567.044	88.44
567.255	76.44
567.467	93.44
567.679	95.44
567.891	87.44
568.102	109.44
568.314	86.44
568.526	97.44
568.737	108.44
568.949	93.44
569.161	98.44
569.372	94.44
569.584	86.44
569.795	104.44
570.007	114.44
570.218	223.44
570.43	138.44
570.641	82.44
570.853	77.44
571.064	83.44
571.276	84.44
571.487	89.44
571.698	93.44
571.91	87.44
572.121	90.44
572.333	91.44
572.544	91.44
572.755	93.44
572.966	99.44
573.178	114.44
573.389	94.44
573.6	88.44
573.811	96.44
574.023	88.44
574.234	99.44
574.445	79.44
574.656	84.44
574.867	89.44
575.078	83.44
575.289	96.44
575.501	102.44
575.712	80.44
575.923	85.44
576.134	94.44
576.345	86.44
576.556	79.44
576.767	102.44
576.978	93.44
577.188	88.44
577.399	97.44
577.61	97.44
577.821	113.44
578.032	104.44
578.243	251.44
578.454	645.44
578.665	178.44
578.875	94.44
579.086	99.44
579.297	78.44
579.508	77.44
579.718	87.44
579.929	82.44
580.14	74.44
580.35	88.44
580.561	92.44
580.772	85.44
580.982	88.44
581.193	86.44
581.403	102.44
581.614	88.44
581.825	90.44
582.035	90.44
582.246	100.44
582.456	91.44
582.667	88.44
582.877	97.44
583.087	81.44
583.298	90.44
583.508	92.44
583.719	83.44
583.929	88.44
584.139	81.44
584.35	104.44
584.56	99.44
584.77	85.44
584.981	94.44
585.191	98.44
585.401	88.44
585.611	85.44
585.821	104.44
586.032	94.44
586.242	83.44
586.452	92.44
586.662	98.44
586.872	90.44
587.082	78.44
587.292	91.44
587.502	90.44
587.713	88.44
587.923	84.44
588.133	87.44
588.343	99.44
588.553	83.44
588.762	90.44
588.972	95.44
589.182	100.44
589.392	84.44
589.602	80.44
589.812	71.44
590.022	90.44
590.232	96.44
590.441	88.44
590.651	94.44
590.861	87.44
591.071	93.44
591.281	96.44
591.49	86.44
591.7	97.44
591.91	92.44
592.119	86.44
592.329	96.44
592.539	79.44
592.748	94.44
592.958	99.44
593.167	97.44
593.377	90.44
593.587	109.44
593.796	88.44
594.006	76.44
594.215	82.44
594.424	86.44
594.634	92.44
594.843	93.44
595.053	80.44
595.262	98.44
595.472	85.44
595.681	94.44
595.89	83.44
596.1	98.44
596.309	102.44
596.518	93.44
596.727	98.44
596.937	86.44
597.146	86.44
597.355	92.44
597.564	86.44
597.774	98.44
597.983	88.44
598.192	74.44
598.401	93.44
598.61	88.44
598.819	84.44
599.028	79.44
599.237	68.44
599.446	78.44
599.655	79.44
599.864	95.44
600.073	79.44
600.282	89.44
600.491	80.44
600.7	95.44
600.909	86.44
601.118	94.44
601.327	92.44
601.536	91.44
601.745	96.44
601.953	81.44
602.162	86.44
602.371	94.44
602.58	90.44
602.789	98.44
602.997	100.44
603.206	86.44
603.415	84.44
603.623	79.44
603.832	94.44
604.041	95.44
604.249	96.44
604.458	79.44
604.666	85.44
604.875	100.44
605.084	95.44
605.292	86.44
605.501	84.44
605.709	90.44
605.918	86.44
606.126	101.44
606.334	94.44
606.543	82.44
606.751	96.44
606.96	74.44
607.168	94.44
607.376	79.44
607.585	94.44
607.793	82.44
608.001	89.44
608.21	98.44
608.418	81.44
608.626	90.44
608.834	89.44
609.043	92.44
609.251	92.44
609.459	85.44
609.667	92.44
609.875	99.44
610.083	98.44
610.291	88.44
610.499	103.44
610.707	93.44
610.916	99.44
611.124	93.44
611.332	86.44
611.54	85.44
611.748	99.44
611.955	83.44
612.163	92.44
612.371	92.44
612.579	99.44
612.787	85.44
612.995	97.44
613.203	101.44
613.411	97.44
613.618	85.44
613.826	82.44
614.034	75.44
614.242	85.44
614.449	76.44
614.657	92.44
614.865	86.44
615.072	77.44
615.28	92.44
615.488	88.44
615.695	105.44
615.903	107.44
616.111	102.44
616.318	87.44
616.526	94.44
616.733	106.44
616.941	96.44
617.148	90.44
617.356	95.44
617.563	86.44
617.771	79.44
617.978	83.44
618.185	71.44
618.393	90.44
618.6	92.44
618.807	86.44
619.015	91.44
619.222	92.44
619.429	91.44
619.637	97.44
619.844	93.44
620.051	80.44
620.258	86.44
620.466	92.44
620.673	98.44
620.88	98.44
621.087	83.44
621.294	90.44
621.501	82.44
621.708	68.44
621.915	85.44
622.122	88.44
622.329	89.44
622.536	90.44
622.743	100.44
622.95	93.44
623.157	97.44
623.364	74.44
623.571	87.44
623.778	80.44
623.985	99.44
624.192	94.44
624.399	92.44
624.606	85.44
624.812	88.44
625.019	83.44
625.226	87.44
625.433	90.44
625.639	90.44
625.846	76.44
626.053	86.44
626.259	79.44
626.466	95.44
626.673	81.44
626.879	88.44
627.086	96.44
627.293	82.44
627.499	83.44
627.706	85.44
627.912	86.44
628.119	85.44
628.325	82.44
628.532	82.44
628.738	80.44
628.945	75.44
629.151	90.44
629.357	87.44
629.564	96.44
629.77	79.44
629.976	87.44
630.183	93.44
630.389	93.44
630.595	82.44
630.802	95.44
631.008	83.44
631.214	75.44
631.42	80.44
631.627	91.44
631.833	80.44
632.039	92.44
632.245	99.44
632.451	86.44
632.657	90.44
632.863	71.44
633.069	80.44
633.275	85.44
633.481	80.44
633.688	93.44
633.893	83.44
634.099	85.44
634.305	85.44
634.511	86.44
634.717	81.44
634.923	74.44
635.129	87.44
635.335	88.44
635.541	83.44
635.747	83.44
635.952	103.44
636.158	85.44
636.364	80.44
636.57	100.44
636.775	80.44
636.981	71.44
637.187	87.44
637.392	83.44
637.598	87.44
637.804	89.44
638.009	74.44
638.215	85.44
638.421	74.44
638.626	82.44
638.832	77.44
639.037	80.44
639.243	77.44
639.448	83.44
639.654	96.44
639.859	80.44
640.065	99.44
640.27	89.44
640.475	78.44
640.681	88.44
640.886	85.44
641.091	85.44
641.297	89.44
641.502	91.44
641.707	82.44
641.913	95.44
642.118	99.44
642.323	98.44
642.528	94.44
642.733	101.44
642.939	86.44
643.144	79.44
643.349	79.44
643.554	87.44
643.759	86.44
643.964	88.44
644.169	87.44
644.374	67.44
644.579	97.44
644.784	87.44
644.989	93.44
645.194	88.44
645.399	90.44
645.604	80.44
645.809	104.44
646.014	94.44
646.219	93.44
646.423	75.44
646.628	77.44
646.833	85.44
647.038	80.44
647.243	91.44
647.447	98.44
647.652	83.44
647.857	84.44
648.062	91.44
648.266	89.44
648.471	93.44
648.676	91.44
648.88	100.44
649.085	93.44
649.289	97.44
649.494	100.44
649.698	112.44
649.903	94.44
650.107	92.44
650.312	83.44
650.516	85.44
650.721	91.44
650.925	83.44
651.13	78.44
651.334	88.44
651.539	91.44
651.743	83.44
651.947	84.44
652.152	75.44
652.356	79.44
652.56	86.44
652.764	79.44
652.969	83.44
653.173	83.44
653.377	91.44
653.581	100.44
653.785	78.44
653.99	79.44
654.194	98.44
654.398	84.44
654.602	84.44
654.806	87.44
655.01	103.44
655.214	94.44
655.418	83.44
655.622	98.44
655.826	79.44
656.03	86.44
656.234	90.44
656.438	89.44
656.642	103.44
656.846	89.44
657.049	96.44
657.253	80.44
657.457	79.44
657.661	89.44
657.865	84.44
658.068	84.44
658.272	76.44
658.476	85.44
658.68	76.44
658.883	85.44
659.087	82.44
659.291	83.44
659.494	86.44
659.698	68.44
659.901	77.44
660.105	96.44
660.309	94.44
660.512	95.44
660.716	86.44
660.919	80.44
661.123	89.44
661.326	79.44
661.53	95.44
661.733	93.44
661.936	102.44
662.14	82.44
662.343	86.44
662.546	94.44
662.75	83.44
662.953	86.44
663.156	74.44
663.36	79.44
663.563	86.44
663.766	81.44
663.969	89.44
664.173	68.44
664.376	88.44
664.579	83.44
664.782	74.44
664.985	84.44
665.188	77.44
665.391	103.44
665.594	69.44
665.797	77.44
666	102.44
666.203	94.44
666.406	83.44
666.609	71.44
666.812	81.44
667.015	88.44
667.218	84.44
667.421	84.44
667.624	83.44
667.827	86.44
668.03	77.44
668.232	85.44
668.435	79.44
668.638	95.44
668.841	95.44
669.043	77.44
669.246	86.44
669.449	85.44
669.651	77.44
669.854	87.44
670.057	94.44
670.259	82.44
670.462	94.44
670.665	84.44
670.867	68.44
671.07	88.44
671.272	74.44
671.475	86.44
671.677	74.44
671.88	87.44
672.082	80.44
672.284	94.44
672.487	92.44
672.689	89.44
672.892	64.44
