Data from Uncirc_1985_H10_HRD10591_00089.txt Node
Date: Wed Jan 03 12:18:35 EST 2024
User: Yrep
Spectrometer: HR+D1059
Trigger mode: 1
Integration Time (sec): 1.000000E-1
Scans to average: 1
Electric dark correction enabled: true
Nonlinearity correction enabled: false
Boxcar width: 0
XAxis mode: Wavelengths
Number of Pixels in Spectrum: 2048
>>>>>Begin Spectral Data<<<<<
223.165	-16.06
223.4	-16.06
223.635	-16.06
223.869	-10.06
224.104	-26.06
224.338	-0.06
224.573	-32.06
224.808	-21.06
225.042	-4.06
225.277	-6.06
225.511	1.94
225.746	-6.06
225.98	-4.06
226.215	12.94
226.449	15.94
226.683	29.94
226.918	25.94
227.152	38.94
227.387	23.94
227.621	19.94
227.856	41.94
228.09	45.94
228.324	37.94
228.559	57.94
228.793	51.94
229.027	58.94
229.262	69.94
229.496	65.94
229.73	82.94
229.964	73.94
230.199	81.94
230.433	64.94
230.667	73.94
230.901	72.94
231.136	76.94
231.37	76.94
231.604	69.94
231.838	65.94
232.072	76.94
232.306	59.94
232.541	70.94
232.775	76.94
233.009	69.94
233.243	83.94
233.477	80.94
233.711	80.94
233.945	75.94
234.179	83.94
234.413	62.94
234.647	85.94
234.881	77.94
235.115	89.94
235.349	82.94
235.583	85.94
235.817	77.94
236.051	68.94
236.285	62.94
236.519	67.94
236.753	59.94
236.987	82.94
237.221	73.94
237.455	66.94
237.689	77.94
237.922	57.94
238.156	69.94
238.39	75.94
238.624	63.94
238.858	55.94
239.091	66.94
239.325	75.94
239.559	80.94
239.793	79.94
240.027	65.94
240.26	67.94
240.494	66.94
240.728	66.94
240.961	76.94
241.195	80.94
241.429	70.94
241.662	84.94
241.896	67.94
242.13	74.94
242.363	73.94
242.597	66.94
242.83	64.94
243.064	69.94
243.298	71.94
243.531	83.94
243.765	81.94
243.998	81.94
244.232	69.94
244.465	78.94
244.699	80.94
244.932	73.94
245.166	77.94
245.399	76.94
245.633	73.94
245.866	77.94
246.099	69.94
246.333	82.94
246.566	69.94
246.8	69.94
247.033	68.94
247.266	70.94
247.5	67.94
247.733	57.94
247.966	83.94
248.2	65.94
248.433	73.94
248.666	73.94
248.899	75.94
249.133	89.94
249.366	87.94
249.599	101.94
249.832	77.94
250.066	83.94
250.299	75.94
250.532	80.94
250.765	87.94
250.998	73.94
251.231	68.94
251.465	73.94
251.698	76.94
251.931	78.94
252.164	74.94
252.397	75.94
252.63	70.94
252.863	67.94
253.096	71.94
253.329	76.94
253.562	67.94
253.795	64.94
254.028	86.94
254.261	82.94
254.494	55.94
254.727	78.94
254.96	65.94
255.193	79.94
255.426	70.94
255.659	80.94
255.892	74.94
256.124	77.94
256.357	84.94
256.59	89.94
256.823	63.94
257.056	70.94
257.289	63.94
257.521	75.94
257.754	74.94
257.987	85.94
258.22	70.94
258.452	70.94
258.685	90.94
258.918	86.94
259.151	80.94
259.383	65.94
259.616	70.94
259.849	75.94
260.081	73.94
260.314	84.94
260.547	74.94
260.779	77.94
261.012	85.94
261.244	85.94
261.477	81.94
261.71	81.94
261.942	94.94
262.175	116.94
262.407	77.94
262.64	67.94
262.872	81.94
263.105	74.94
263.337	63.94
263.57	77.94
263.802	75.94
264.035	82.94
264.267	67.94
264.499	65.94
264.732	75.94
264.964	73.94
265.197	76.94
265.429	81.94
265.661	85.94
265.894	69.94
266.126	81.94
266.358	78.94
266.591	67.94
266.823	90.94
267.055	74.94
267.287	99.94
267.52	75.94
267.752	72.94
267.984	77.94
268.216	80.94
268.448	71.94
268.681	62.94
268.913	82.94
269.145	79.94
269.377	90.94
269.609	81.94
269.841	79.94
270.073	75.94
270.306	89.94
270.538	71.94
270.77	68.94
271.002	71.94
271.234	86.94
271.466	53.94
271.698	63.94
271.93	78.94
272.162	85.94
272.394	82.94
272.626	80.94
272.858	64.94
273.09	55.94
273.322	84.94
273.553	82.94
273.785	79.94
274.017	73.94
274.249	74.94
274.481	88.94
274.713	82.94
274.945	89.94
275.176	86.94
275.408	92.94
275.64	80.94
275.872	65.94
276.104	80.94
276.335	73.94
276.567	87.94
276.799	105.94
277.031	97.94
277.262	82.94
277.494	90.94
277.726	81.94
277.957	78.94
278.189	71.94
278.421	75.94
278.652	94.94
278.884	81.94
279.115	83.94
279.347	75.94
279.579	80.94
279.81	79.94
280.042	73.94
280.273	90.94
280.505	79.94
280.736	78.94
280.968	89.94
281.199	85.94
281.431	79.94
281.662	91.94
281.894	87.94
282.125	97.94
282.356	117.94
282.588	131.94
282.819	111.94
283.051	86.94
283.282	73.94
283.513	71.94
283.745	85.94
283.976	88.94
284.207	81.94
284.439	88.94
284.67	91.94
284.901	85.94
285.132	81.94
285.364	78.94
285.595	77.94
285.826	84.94
286.057	79.94
286.288	81.94
286.52	83.94
286.751	82.94
286.982	71.94
287.213	58.94
287.444	87.94
287.675	78.94
287.906	73.94
288.138	87.94
288.369	75.94
288.6	89.94
288.831	79.94
289.062	81.94
289.293	71.94
289.524	84.94
289.755	85.94
289.986	78.94
290.217	86.94
290.448	83.94
290.679	94.94
290.91	94.94
291.141	80.94
291.371	92.94
291.602	93.94
291.833	82.94
292.064	81.94
292.295	90.94
292.526	69.94
292.757	74.94
292.987	93.94
293.218	69.94
293.449	83.94
293.68	81.94
293.91	73.94
294.141	83.94
294.372	82.94
294.603	95.94
294.833	88.94
295.064	75.94
295.295	74.94
295.525	89.94
295.756	90.94
295.987	105.94
296.217	122.94
296.448	124.94
296.679	86.94
296.909	76.94
297.14	95.94
297.37	86.94
297.601	64.94
297.831	86.94
298.062	87.94
298.292	97.94
298.523	85.94
298.753	78.94
298.984	78.94
299.214	82.94
299.445	95.94
299.675	74.94
299.905	93.94
300.136	85.94
300.366	78.94
300.597	70.94
300.827	95.94
301.057	93.94
301.288	97.94
301.518	86.94
301.748	76.94
301.979	87.94
302.209	90.94
302.439	79.94
302.669	83.94
302.9	82.94
303.13	100.94
303.36	96.94
303.59	97.94
303.82	80.94
304.051	71.94
304.281	89.94
304.511	87.94
304.741	75.94
304.971	85.94
305.201	81.94
305.431	77.94
305.661	99.94
305.891	80.94
306.121	81.94
306.352	94.94
306.582	102.94
306.812	92.94
307.042	87.94
307.272	96.94
307.502	97.94
307.731	91.94
307.961	89.94
308.191	90.94
308.421	88.94
308.651	87.94
308.881	81.94
309.111	81.94
309.341	89.94
309.571	89.94
309.8	92.94
310.03	81.94
310.26	86.94
310.49	99.94
310.72	93.94
310.949	99.94
311.179	102.94
311.409	90.94
311.639	88.94
311.868	92.94
312.098	78.94
312.328	74.94
312.557	87.94
312.787	97.94
313.017	97.94
313.246	89.94
313.476	89.94
313.706	78.94
313.935	88.94
314.165	86.94
314.394	95.94
314.624	91.94
314.853	89.94
315.083	91.94
315.312	87.94
315.542	78.94
315.771	87.94
316.001	83.94
316.23	86.94
316.46	86.94
316.689	97.94
316.919	81.94
317.148	92.94
317.377	90.94
317.607	75.94
317.836	89.94
318.065	78.94
318.295	71.94
318.524	86.94
318.753	84.94
318.983	84.94
319.212	89.94
319.441	92.94
319.67	93.94
319.9	78.94
320.129	82.94
320.358	84.94
320.587	89.94
320.816	89.94
321.046	97.94
321.275	81.94
321.504	91.94
321.733	95.94
321.962	97.94
322.191	84.94
322.42	93.94
322.649	83.94
322.878	112.94
323.108	113.94
323.337	101.94
323.566	109.94
323.795	134.94
324.024	195.94
324.253	398.94
324.482	831.94
324.71	1730.94
324.939	2302.94
325.168	838.94
325.397	237.94
325.626	138.94
325.855	121.94
326.084	114.94
326.313	116.94
326.542	161.94
326.77	229.94
326.999	453.94
327.228	948.94
327.457	1795.94
327.686	1391.94
327.914	371.94
328.143	198.94
328.372	149.94
328.6	137.94
328.829	109.94
329.058	118.94
329.287	125.94
329.515	93.94
329.744	96.94
329.972	111.94
330.201	149.94
330.43	161.94
330.658	125.94
330.887	122.94
331.115	128.94
331.344	96.94
331.572	91.94
331.801	96.94
332.03	110.94
332.258	93.94
332.486	92.94
332.715	88.94
332.943	95.94
333.172	91.94
333.4	90.94
333.629	104.94
333.857	111.94
334.085	116.94
334.314	130.94
334.542	174.94
334.771	150.94
334.999	111.94
335.227	100.94
335.455	95.94
335.684	106.94
335.912	97.94
336.14	93.94
336.369	93.94
336.597	99.94
336.825	93.94
337.053	91.94
337.281	77.94
337.51	85.94
337.738	78.94
337.966	95.94
338.194	81.94
338.422	82.94
338.65	86.94
338.878	98.94
339.106	92.94
339.334	90.94
339.562	88.94
339.79	86.94
340.018	66.94
340.246	78.94
340.474	80.94
340.702	94.94
340.93	95.94
341.158	98.94
341.386	73.94
341.614	82.94
341.842	97.94
342.07	91.94
342.298	77.94
342.526	75.94
342.754	82.94
342.981	90.94
343.209	103.94
343.437	101.94
343.665	82.94
343.893	83.94
344.12	84.94
344.348	82.94
344.576	81.94
344.804	90.94
345.031	89.94
345.259	93.94
345.487	90.94
345.714	95.94
345.942	75.94
346.17	88.94
346.397	90.94
346.625	96.94
346.853	90.94
347.08	79.94
347.308	87.94
347.535	80.94
347.763	81.94
347.99	88.94
348.218	89.94
348.445	108.94
348.673	94.94
348.9	90.94
349.128	79.94
349.355	74.94
349.583	84.94
349.81	82.94
350.037	86.94
350.265	97.94
350.492	89.94
350.72	94.94
350.947	95.94
351.174	98.94
351.402	109.94
351.629	99.94
351.856	93.94
352.083	97.94
352.311	88.94
352.538	94.94
352.765	99.94
352.992	102.94
353.22	93.94
353.447	107.94
353.674	85.94
353.901	92.94
354.128	76.94
354.355	82.94
354.583	75.94
354.81	89.94
355.037	85.94
355.264	83.94
355.491	85.94
355.718	103.94
355.945	76.94
356.172	79.94
356.399	96.94
356.626	90.94
356.853	82.94
357.08	103.94
357.307	99.94
357.534	89.94
357.761	90.94
357.988	97.94
358.215	77.94
358.441	78.94
358.668	86.94
358.895	82.94
359.122	90.94
359.349	73.94
359.576	97.94
359.802	85.94
360.029	95.94
360.256	91.94
360.483	87.94
360.709	85.94
360.936	101.94
361.163	81.94
361.39	82.94
361.616	94.94
361.843	74.94
362.07	79.94
362.296	91.94
362.523	86.94
362.749	84.94
362.976	90.94
363.203	105.94
363.429	75.94
363.656	87.94
363.882	86.94
364.109	74.94
364.335	82.94
364.562	86.94
364.788	90.94
365.015	81.94
365.241	88.94
365.468	100.94
365.694	100.94
365.92	99.94
366.147	85.94
366.373	69.94
366.599	77.94
366.826	73.94
367.052	79.94
367.278	80.94
367.505	87.94
367.731	79.94
367.957	92.94
368.184	78.94
368.41	96.94
368.636	110.94
368.862	103.94
369.089	84.94
369.315	84.94
369.541	86.94
369.767	82.94
369.993	81.94
370.219	77.94
370.445	84.94
370.672	75.94
370.898	91.94
371.124	86.94
371.35	90.94
371.576	97.94
371.802	95.94
372.028	89.94
372.254	89.94
372.48	78.94
372.706	75.94
372.932	84.94
373.158	71.94
373.384	92.94
373.61	89.94
373.835	78.94
374.061	85.94
374.287	82.94
374.513	74.94
374.739	72.94
374.965	83.94
375.191	80.94
375.416	68.94
375.642	89.94
375.868	80.94
376.094	97.94
376.319	92.94
376.545	78.94
376.771	78.94
376.997	77.94
377.222	97.94
377.448	82.94
377.674	94.94
377.899	94.94
378.125	86.94
378.35	91.94
378.576	65.94
378.802	89.94
379.027	89.94
379.253	72.94
379.478	95.94
379.704	90.94
379.929	89.94
380.155	82.94
380.38	78.94
380.606	74.94
380.831	82.94
381.057	98.94
381.282	82.94
381.507	87.94
381.733	98.94
381.958	82.94
382.184	88.94
382.409	88.94
382.634	90.94
382.86	107.94
383.085	99.94
383.31	85.94
383.535	77.94
383.761	93.94
383.986	66.94
384.211	94.94
384.436	85.94
384.662	81.94
384.887	85.94
385.112	84.94
385.337	97.94
385.562	91.94
385.787	86.94
386.013	99.94
386.238	101.94
386.463	96.94
386.688	91.94
386.913	92.94
387.138	92.94
387.363	86.94
387.588	97.94
387.813	96.94
388.038	95.94
388.263	100.94
388.488	88.94
388.713	90.94
388.938	82.94
389.163	82.94
389.387	87.94
389.612	78.94
389.837	82.94
390.062	78.94
390.287	88.94
390.512	85.94
390.736	75.94
390.961	77.94
391.186	77.94
391.411	83.94
391.636	100.94
391.86	81.94
392.085	72.94
392.31	80.94
392.534	79.94
392.759	87.94
392.984	87.94
393.208	81.94
393.433	77.94
393.658	78.94
393.882	71.94
394.107	85.94
394.331	83.94
394.556	68.94
394.78	83.94
395.005	84.94
395.229	79.94
395.454	85.94
395.678	84.94
395.903	77.94
396.127	84.94
396.352	91.94
396.576	63.94
396.801	86.94
397.025	81.94
397.249	86.94
397.474	75.94
397.698	97.94
397.922	91.94
398.147	68.94
398.371	76.94
398.595	77.94
398.82	62.94
399.044	83.94
399.268	89.94
399.492	85.94
399.717	86.94
399.941	96.94
400.165	84.94
400.389	84.94
400.613	77.94
400.837	93.94
401.062	98.94
401.286	93.94
401.51	83.94
401.734	77.94
401.958	91.94
402.182	120.94
402.406	139.94
402.63	109.94
402.854	85.94
403.078	73.94
403.302	74.94
403.526	82.94
403.75	83.94
403.974	69.94
404.198	71.94
404.422	71.94
404.645	94.94
404.869	93.94
405.093	94.94
405.317	98.94
405.541	96.94
405.765	86.94
405.988	103.94
406.212	151.94
406.436	217.94
406.66	134.94
406.883	95.94
407.107	75.94
407.331	101.94
407.555	82.94
407.778	63.94
408.002	82.94
408.226	93.94
408.449	77.94
408.673	93.94
408.896	73.94
409.12	82.94
409.344	86.94
409.567	79.94
409.791	78.94
410.014	86.94
410.238	74.94
410.461	78.94
410.685	71.94
410.908	96.94
411.132	93.94
411.355	99.94
411.578	84.94
411.802	83.94
412.025	78.94
412.249	74.94
412.472	93.94
412.695	92.94
412.919	83.94
413.142	64.94
413.365	66.94
413.589	68.94
413.812	78.94
414.035	80.94
414.258	74.94
414.482	84.94
414.705	91.94
414.928	81.94
415.151	88.94
415.374	85.94
415.597	82.94
415.821	87.94
416.044	90.94
416.267	76.94
416.49	92.94
416.713	87.94
416.936	94.94
417.159	67.94
417.382	81.94
417.605	83.94
417.828	88.94
418.051	68.94
418.274	87.94
418.497	98.94
418.72	81.94
418.943	93.94
419.166	86.94
419.389	83.94
419.611	92.94
419.834	77.94
420.057	82.94
420.28	85.94
420.503	72.94
420.726	75.94
420.948	74.94
421.171	86.94
421.394	89.94
421.617	81.94
421.839	68.94
422.062	79.94
422.285	97.94
422.507	89.94
422.73	84.94
422.953	80.94
423.175	73.94
423.398	82.94
423.621	91.94
423.843	69.94
424.066	70.94
424.288	86.94
424.511	85.94
424.733	76.94
424.956	100.94
425.178	103.94
425.401	90.94
425.623	115.94
425.846	86.94
426.068	77.94
426.291	85.94
426.513	80.94
426.735	97.94
426.958	89.94
427.18	101.94
427.402	125.94
427.625	157.94
427.847	141.94
428.069	100.94
428.292	84.94
428.514	82.94
428.736	96.94
428.958	73.94
429.181	82.94
429.403	69.94
429.625	78.94
429.847	82.94
430.069	85.94
430.292	91.94
430.514	87.94
430.736	96.94
430.958	85.94
431.18	73.94
431.402	68.94
431.624	78.94
431.846	89.94
432.068	90.94
432.29	76.94
432.512	81.94
432.734	101.94
432.956	73.94
433.178	93.94
433.4	79.94
433.622	77.94
433.844	83.94
434.066	99.94
434.287	92.94
434.509	87.94
434.731	99.94
434.953	81.94
435.175	79.94
435.397	74.94
435.618	83.94
435.84	103.94
436.062	111.94
436.284	118.94
436.505	102.94
436.727	93.94
436.949	95.94
437.17	86.94
437.392	80.94
437.614	75.94
437.835	102.94
438.057	100.94
438.278	89.94
438.5	113.94
438.721	116.94
438.943	102.94
439.165	70.94
439.386	72.94
439.608	69.94
439.829	92.94
440.05	113.94
440.272	119.94
440.493	89.94
440.715	85.94
440.936	64.94
441.158	79.94
441.379	93.94
441.6	91.94
441.822	97.94
442.043	85.94
442.264	99.94
442.486	86.94
442.707	90.94
442.928	100.94
443.149	108.94
443.371	118.94
443.592	108.94
443.813	90.94
444.034	89.94
444.255	76.94
444.476	75.94
444.698	89.94
444.919	75.94
445.14	118.94
445.361	123.94
445.582	111.94
445.803	122.94
446.024	129.94
446.245	124.94
446.466	110.94
446.687	98.94
446.908	82.94
447.129	77.94
447.35	75.94
447.571	90.94
447.792	85.94
448.013	100.94
448.234	97.94
448.455	101.94
448.675	108.94
448.896	107.94
449.117	84.94
449.338	92.94
449.559	124.94
449.779	118.94
450	94.94
450.221	68.94
450.442	84.94
450.662	92.94
450.883	111.94
451.104	105.94
451.324	88.94
451.545	95.94
451.766	79.94
451.986	91.94
452.207	87.94
452.428	82.94
452.648	85.94
452.869	86.94
453.089	101.94
453.31	103.94
453.53	84.94
453.751	87.94
453.971	103.94
454.192	96.94
454.412	73.94
454.633	97.94
454.853	85.94
455.073	87.94
455.294	101.94
455.514	96.94
455.734	84.94
455.955	97.94
456.175	78.94
456.395	75.94
456.616	85.94
456.836	87.94
457.056	93.94
457.276	91.94
457.497	85.94
457.717	78.94
457.937	96.94
458.157	67.94
458.377	72.94
458.598	95.94
458.818	141.94
459.038	140.94
459.258	108.94
459.478	102.94
459.698	90.94
459.918	80.94
460.138	85.94
460.358	82.94
460.578	94.94
460.798	80.94
461.018	84.94
461.238	101.94
461.458	83.94
461.678	97.94
461.898	89.94
462.118	83.94
462.338	77.94
462.558	81.94
462.777	69.94
462.997	96.94
463.217	97.94
463.437	89.94
463.657	89.94
463.876	100.94
464.096	73.94
464.316	92.94
464.536	81.94
464.755	87.94
464.975	98.94
465.195	155.94
465.414	141.94
465.634	93.94
465.854	84.94
466.073	80.94
466.293	73.94
466.512	83.94
466.732	85.94
466.951	81.94
467.171	85.94
467.391	89.94
467.61	91.94
467.829	90.94
468.049	126.94
468.268	109.94
468.488	99.94
468.707	77.94
468.927	91.94
469.146	89.94
469.365	82.94
469.585	88.94
469.804	101.94
470.023	100.94
470.243	80.94
470.462	93.94
470.681	103.94
470.901	87.94
471.12	73.94
471.339	73.94
471.558	87.94
471.777	89.94
471.997	98.94
472.216	145.94
472.435	227.94
472.654	109.94
472.873	93.94
473.092	93.94
473.311	84.94
473.53	89.94
473.749	79.94
473.968	87.94
474.187	79.94
474.406	100.94
474.625	85.94
474.844	85.94
475.063	91.94
475.282	83.94
475.501	68.94
475.72	88.94
475.939	83.94
476.158	84.94
476.377	86.94
476.596	95.94
476.814	94.94
477.033	98.94
477.252	94.94
477.471	75.94
477.69	81.94
477.908	98.94
478.127	81.94
478.346	84.94
478.564	79.94
478.783	84.94
479.002	100.94
479.22	91.94
479.439	93.94
479.658	94.94
479.876	87.94
480.095	94.94
480.313	112.94
480.532	106.94
480.751	102.94
480.969	145.94
481.188	307.94
481.406	201.94
481.624	94.94
481.843	92.94
482.061	87.94
482.28	80.94
482.498	90.94
482.717	107.94
482.935	82.94
483.153	81.94
483.372	90.94
483.59	86.94
483.808	104.94
484.027	86.94
484.245	99.94
484.463	88.94
484.681	100.94
484.9	86.94
485.118	96.94
485.336	77.94
485.554	78.94
485.772	80.94
485.99	95.94
486.209	99.94
486.427	97.94
486.645	107.94
486.863	102.94
487.081	97.94
487.299	89.94
487.517	93.94
487.735	87.94
487.953	64.94
488.171	79.94
488.389	81.94
488.607	85.94
488.825	81.94
489.043	95.94
489.261	88.94
489.479	91.94
489.696	78.94
489.914	91.94
490.132	88.94
490.35	101.94
490.568	93.94
490.786	82.94
491.003	68.94
491.221	93.94
491.439	90.94
491.657	78.94
491.874	85.94
492.092	84.94
492.31	99.94
492.527	93.94
492.745	81.94
492.963	75.94
493.18	88.94
493.398	105.94
493.615	98.94
493.833	79.94
494.05	90.94
494.268	91.94
494.485	93.94
494.703	89.94
494.92	82.94
495.138	71.94
495.355	75.94
495.573	77.94
495.79	85.94
496.008	87.94
496.225	90.94
496.442	74.94
496.66	92.94
496.877	81.94
497.094	79.94
497.312	95.94
497.529	97.94
497.746	86.94
497.963	78.94
498.181	85.94
498.398	89.94
498.615	111.94
498.832	110.94
499.049	74.94
499.267	82.94
499.484	77.94
499.701	74.94
499.918	83.94
500.135	93.94
500.352	91.94
500.569	86.94
500.786	79.94
501.003	89.94
501.22	75.94
501.437	78.94
501.654	78.94
501.871	96.94
502.088	81.94
502.305	79.94
502.522	93.94
502.739	82.94
502.956	93.94
503.172	77.94
503.389	84.94
503.606	111.94
503.823	86.94
504.04	87.94
504.256	97.94
504.473	83.94
504.69	89.94
504.907	80.94
505.123	80.94
505.34	86.94
505.557	101.94
505.773	86.94
505.99	74.94
506.207	98.94
506.423	83.94
506.64	90.94
506.856	87.94
507.073	84.94
507.289	76.94
507.506	95.94
507.722	107.94
507.939	102.94
508.155	88.94
508.372	99.94
508.588	92.94
508.805	93.94
509.021	88.94
509.238	106.94
509.454	103.94
509.67	96.94
509.887	94.94
510.103	121.94
510.319	202.94
510.536	795.94
510.752	2463.94
510.968	659.94
511.184	153.94
511.401	99.94
511.617	93.94
511.833	88.94
512.049	97.94
512.265	87.94
512.481	92.94
512.698	95.94
512.914	95.94
513.13	92.94
513.346	92.94
513.562	94.94
513.778	98.94
513.994	89.94
514.21	95.94
514.426	101.94
514.642	137.94
514.858	121.94
515.074	175.94
515.29	463.94
515.506	1508.94
515.721	537.94
515.937	149.94
516.153	115.94
516.369	81.94
516.585	84.94
516.801	87.94
517.016	75.94
517.232	98.94
517.448	118.94
517.664	92.94
517.879	98.94
518.095	86.94
518.311	70.94
518.527	85.94
518.742	82.94
518.958	96.94
519.173	94.94
519.389	91.94
519.605	87.94
519.82	89.94
520.036	101.94
520.251	115.94
520.467	96.94
520.682	99.94
520.898	117.94
521.113	107.94
521.329	132.94
521.544	179.94
521.76	541.94
521.975	2475.94
522.19	1471.94
522.406	308.94
522.621	118.94
522.836	103.94
523.052	85.94
523.267	95.94
523.482	89.94
523.698	82.94
523.913	116.94
524.128	98.94
524.343	88.94
524.559	82.94
524.774	91.94
524.989	86.94
525.204	103.94
525.419	96.94
525.634	94.94
525.849	85.94
526.064	89.94
526.28	94.94
526.495	77.94
526.71	77.94
526.925	81.94
527.14	85.94
527.355	78.94
527.57	83.94
527.785	85.94
527.999	84.94
528.214	83.94
528.429	98.94
528.644	81.94
528.859	82.94
529.074	84.94
529.289	112.94
529.503	169.94
529.718	96.94
529.933	90.94
530.148	87.94
530.363	96.94
530.577	84.94
530.792	87.94
531.007	77.94
531.221	92.94
531.436	84.94
531.651	81.94
531.865	94.94
532.08	80.94
532.295	72.94
532.509	89.94
532.724	91.94
532.938	101.94
533.153	94.94
533.367	84.94
533.582	95.94
533.796	78.94
534.011	87.94
534.225	74.94
534.44	94.94
534.654	83.94
534.868	89.94
535.083	93.94
535.297	86.94
535.511	95.94
535.726	94.94
535.94	100.94
536.154	94.94
536.369	66.94
536.583	78.94
536.797	91.94
537.011	90.94
537.225	75.94
537.44	88.94
537.654	85.94
537.868	89.94
538.082	102.94
538.296	83.94
538.51	94.94
538.724	78.94
538.938	84.94
539.153	77.94
539.367	93.94
539.581	107.94
539.795	74.94
540.009	85.94
540.222	81.94
540.436	78.94
540.65	78.94
540.864	77.94
541.078	86.94
541.292	68.94
541.506	81.94
541.72	80.94
541.934	87.94
542.147	80.94
542.361	86.94
542.575	78.94
542.789	58.94
543.002	87.94
543.216	86.94
543.43	90.94
543.644	82.94
543.857	88.94
544.071	90.94
544.285	86.94
544.498	79.94
544.712	81.94
544.925	82.94
545.139	102.94
545.352	91.94
545.566	87.94
545.779	84.94
545.993	94.94
546.206	77.94
546.42	94.94
546.633	81.94
546.847	84.94
547.06	99.94
547.274	95.94
547.487	91.94
547.7	74.94
547.914	89.94
548.127	86.94
548.34	78.94
548.554	94.94
548.767	96.94
548.98	75.94
549.193	91.94
549.407	78.94
549.62	74.94
549.833	87.94
550.046	84.94
550.259	83.94
550.473	82.94
550.686	83.94
550.899	86.94
551.112	91.94
551.325	89.94
551.538	76.94
551.751	92.94
551.964	92.94
552.177	91.94
552.39	86.94
552.603	106.94
552.816	69.94
553.029	90.94
553.242	99.94
553.455	94.94
553.667	97.94
553.88	94.94
554.093	76.94
554.306	87.94
554.519	87.94
554.732	87.94
554.944	81.94
555.157	85.94
555.37	89.94
555.583	81.94
555.795	70.94
556.008	81.94
556.221	84.94
556.433	77.94
556.646	89.94
556.859	84.94
557.071	76.94
557.284	93.94
557.496	73.94
557.709	81.94
557.921	67.94
558.134	84.94
558.346	90.94
558.559	85.94
558.771	92.94
558.984	90.94
559.196	81.94
559.409	90.94
559.621	90.94
559.833	83.94
560.046	83.94
560.258	79.94
560.47	79.94
560.683	78.94
560.895	80.94
561.107	78.94
561.32	89.94
561.532	98.94
561.744	82.94
561.956	85.94
562.168	87.94
562.381	94.94
562.593	91.94
562.805	93.94
563.017	98.94
563.229	85.94
563.441	76.94
563.653	87.94
563.865	77.94
564.077	79.94
564.289	86.94
564.501	78.94
564.713	83.94
564.925	96.94
565.137	95.94
565.349	91.94
565.561	78.94
565.773	69.94
565.985	83.94
566.197	86.94
566.408	82.94
566.62	79.94
566.832	87.94
567.044	60.94
567.255	82.94
567.467	87.94
567.679	83.94
567.891	81.94
568.102	90.94
568.314	88.94
568.526	83.94
568.737	93.94
568.949	87.94
569.161	73.94
569.372	82.94
569.584	86.94
569.795	76.94
570.007	107.94
570.218	238.94
570.43	138.94
570.641	89.94
570.853	69.94
571.064	84.94
571.276	84.94
571.487	97.94
571.698	78.94
571.91	75.94
572.121	85.94
572.333	93.94
572.544	69.94
572.755	77.94
572.966	81.94
573.178	87.94
573.389	80.94
573.6	76.94
573.811	94.94
574.023	94.94
574.234	85.94
574.445	83.94
574.656	57.94
574.867	79.94
575.078	91.94
575.289	82.94
575.501	82.94
575.712	85.94
575.923	70.94
576.134	70.94
576.345	79.94
576.556	74.94
576.767	78.94
576.978	91.94
577.188	89.94
577.399	79.94
577.61	99.94
577.821	109.94
578.032	101.94
578.243	291.94
578.454	777.94
578.665	212.94
578.875	99.94
579.086	96.94
579.297	85.94
579.508	75.94
579.718	79.94
579.929	79.94
580.14	74.94
580.35	68.94
580.561	89.94
580.772	86.94
580.982	73.94
581.193	76.94
581.403	79.94
581.614	74.94
581.825	76.94
582.035	74.94
582.246	88.94
582.456	83.94
582.667	86.94
582.877	94.94
583.087	73.94
583.298	88.94
583.508	92.94
583.719	79.94
583.929	86.94
584.139	85.94
584.35	81.94
584.56	85.94
584.77	90.94
584.981	79.94
585.191	85.94
585.401	87.94
585.611	75.94
585.821	89.94
586.032	84.94
586.242	88.94
586.452	103.94
586.662	78.94
586.872	84.94
587.082	81.94
587.292	75.94
587.502	76.94
587.713	76.94
587.923	66.94
588.133	77.94
588.343	81.94
588.553	71.94
588.762	87.94
588.972	86.94
589.182	91.94
589.392	93.94
589.602	83.94
589.812	78.94
590.022	78.94
590.232	83.94
590.441	89.94
590.651	77.94
590.861	70.94
591.071	63.94
591.281	84.94
591.49	75.94
591.7	81.94
591.91	84.94
592.119	71.94
592.329	91.94
592.539	89.94
592.748	70.94
592.958	79.94
593.167	76.94
593.377	88.94
593.587	82.94
593.796	87.94
594.006	85.94
594.215	86.94
594.424	91.94
594.634	76.94
594.843	83.94
595.053	97.94
595.262	78.94
595.472	73.94
595.681	83.94
595.89	79.94
596.1	70.94
596.309	77.94
596.518	78.94
596.727	81.94
596.937	86.94
597.146	90.94
597.355	92.94
597.564	82.94
597.774	85.94
597.983	84.94
598.192	80.94
598.401	74.94
598.61	85.94
598.819	95.94
599.028	86.94
599.237	82.94
599.446	85.94
599.655	75.94
599.864	83.94
600.073	82.94
600.282	76.94
600.491	62.94
600.7	78.94
600.909	87.94
601.118	98.94
601.327	88.94
601.536	90.94
601.745	96.94
601.953	73.94
602.162	77.94
602.371	68.94
602.58	74.94
602.789	73.94
602.997	79.94
603.206	71.94
603.415	79.94
603.623	79.94
603.832	78.94
604.041	78.94
604.249	83.94
604.458	75.94
604.666	75.94
604.875	86.94
605.084	91.94
605.292	92.94
605.501	80.94
605.709	88.94
605.918	70.94
606.126	75.94
606.334	88.94
606.543	81.94
606.751	80.94
606.96	88.94
607.168	84.94
607.376	76.94
607.585	71.94
607.793	80.94
608.001	86.94
608.21	83.94
608.418	87.94
608.626	77.94
608.834	65.94
609.043	68.94
609.251	75.94
609.459	69.94
609.667	82.94
609.875	93.94
610.083	85.94
610.291	81.94
610.499	67.94
610.707	81.94
610.916	86.94
611.124	71.94
611.332	85.94
611.54	73.94
611.748	72.94
611.955	75.94
612.163	99.94
612.371	86.94
612.579	74.94
612.787	88.94
612.995	98.94
613.203	82.94
613.411	81.94
613.618	73.94
613.826	91.94
614.034	89.94
614.242	91.94
614.449	69.94
614.657	77.94
614.865	82.94
615.072	75.94
615.28	83.94
615.488	58.94
615.695	81.94
615.903	82.94
616.111	106.94
616.318	92.94
616.526	81.94
616.733	78.94
616.941	89.94
617.148	81.94
617.356	83.94
617.563	85.94
617.771	87.94
617.978	90.94
618.185	73.94
618.393	84.94
618.6	70.94
618.807	68.94
619.015	88.94
619.222	68.94
619.429	65.94
619.637	75.94
619.844	87.94
620.051	74.94
620.258	75.94
620.466	82.94
620.673	77.94
620.88	68.94
621.087	89.94
621.294	87.94
621.501	86.94
621.708	79.94
621.915	87.94
622.122	66.94
622.329	63.94
622.536	81.94
622.743	77.94
622.95	71.94
623.157	81.94
623.364	89.94
623.571	76.94
623.778	77.94
623.985	79.94
624.192	100.94
624.399	94.94
624.606	75.94
624.812	89.94
625.019	80.94
625.226	73.94
625.433	83.94
625.639	85.94
625.846	83.94
626.053	77.94
626.259	80.94
626.466	92.94
626.673	75.94
626.879	74.94
627.086	87.94
627.293	83.94
627.499	70.94
627.706	84.94
627.912	69.94
628.119	86.94
628.325	81.94
628.532	70.94
628.738	85.94
628.945	83.94
629.151	80.94
629.357	87.94
629.564	75.94
629.77	73.94
629.976	85.94
630.183	68.94
630.389	76.94
630.595	79.94
630.802	80.94
631.008	82.94
631.214	95.94
631.42	88.94
631.627	65.94
631.833	73.94
632.039	77.94
632.245	77.94
632.451	85.94
632.657	71.94
632.863	78.94
633.069	78.94
633.275	86.94
633.481	71.94
633.688	70.94
633.893	74.94
634.099	74.94
634.305	78.94
634.511	76.94
634.717	89.94
634.923	81.94
635.129	89.94
635.335	85.94
635.541	66.94
635.747	83.94
635.952	61.94
636.158	81.94
636.364	113.94
636.57	89.94
636.775	68.94
636.981	69.94
637.187	82.94
637.392	82.94
637.598	69.94
637.804	73.94
638.009	75.94
638.215	80.94
638.421	73.94
638.626	82.94
638.832	83.94
639.037	87.94
639.243	61.94
639.448	81.94
639.654	89.94
639.859	89.94
640.065	81.94
640.27	89.94
640.475	69.94
640.681	92.94
640.886	70.94
641.091	82.94
641.297	79.94
641.502	71.94
641.707	84.94
641.913	79.94
642.118	87.94
642.323	80.94
642.528	92.94
642.733	93.94
642.939	85.94
643.144	87.94
643.349	70.94
643.554	89.94
643.759	93.94
643.964	76.94
644.169	78.94
644.374	79.94
644.579	87.94
644.784	71.94
644.989	81.94
645.194	90.94
645.399	83.94
645.604	81.94
645.809	79.94
646.014	76.94
646.219	91.94
646.423	91.94
646.628	74.94
646.833	81.94
647.038	91.94
647.243	87.94
647.447	75.94
647.652	78.94
647.857	73.94
648.062	95.94
648.266	83.94
648.471	99.94
648.676	98.94
648.88	91.94
649.085	73.94
649.289	83.94
649.494	85.94
649.698	127.94
649.903	90.94
650.107	88.94
650.312	71.94
650.516	75.94
650.721	81.94
650.925	77.94
651.13	81.94
651.334	74.94
651.539	81.94
651.743	81.94
651.947	87.94
652.152	76.94
652.356	80.94
652.56	81.94
652.764	78.94
652.969	67.94
653.173	71.94
653.377	73.94
653.581	84.94
653.785	87.94
653.99	78.94
654.194	77.94
654.398	95.94
654.602	86.94
654.806	68.94
655.01	93.94
655.214	85.94
655.418	85.94
655.622	83.94
655.826	91.94
656.03	74.94
656.234	78.94
656.438	79.94
656.642	91.94
656.846	75.94
657.049	83.94
657.253	73.94
657.457	88.94
657.661	84.94
657.865	102.94
658.068	83.94
658.272	74.94
658.476	84.94
658.68	79.94
658.883	82.94
659.087	70.94
659.291	79.94
659.494	82.94
659.698	79.94
659.901	94.94
660.105	76.94
660.309	77.94
660.512	71.94
660.716	75.94
660.919	97.94
661.123	75.94
661.326	77.94
661.53	73.94
661.733	76.94
661.936	80.94
662.14	67.94
662.343	61.94
662.546	73.94
662.75	79.94
662.953	86.94
663.156	69.94
663.36	73.94
663.563	73.94
663.766	67.94
663.969	58.94
664.173	65.94
664.376	84.94
664.579	73.94
664.782	85.94
664.985	77.94
665.188	62.94
665.391	80.94
665.594	84.94
665.797	77.94
666	90.94
666.203	85.94
666.406	67.94
666.609	79.94
666.812	77.94
667.015	57.94
667.218	78.94
667.421	75.94
667.624	66.94
667.827	55.94
668.03	73.94
668.232	78.94
668.435	85.94
668.638	67.94
668.841	73.94
669.043	68.94
669.246	83.94
669.449	68.94
669.651	75.94
669.854	69.94
670.057	66.94
670.259	69.94
670.462	75.94
670.665	85.94
670.867	65.94
671.07	68.94
671.272	69.94
671.475	68.94
671.677	76.94
671.88	70.94
672.082	66.94
672.284	82.94
672.487	90.94
672.689	75.94
672.892	76.94
