Data from Uncirc_1985_H10_HRD10591_00076.txt Node
Date: Wed Jan 03 12:18:32 EST 2024
User: Yrep
Spectrometer: HR+D1059
Trigger mode: 1
Integration Time (sec): 1.000000E-1
Scans to average: 1
Electric dark correction enabled: true
Nonlinearity correction enabled: false
Boxcar width: 0
XAxis mode: Wavelengths
Number of Pixels in Spectrum: 2048
>>>>>Begin Spectral Data<<<<<
223.165	-24.88
223.4	-24.88
223.635	-24.88
223.869	-20.88
224.104	-5.88
224.338	-2.88
224.573	-19.88
224.808	-7.88
225.042	-20.88
225.277	-3.88
225.511	-5.88
225.746	5.12
225.98	7.12
226.215	7.12
226.449	22.12
226.683	22.12
226.918	17.12
227.152	32.12
227.387	42.12
227.621	36.12
227.856	48.12
228.09	54.12
228.324	56.12
228.559	63.12
228.793	66.12
229.027	65.12
229.262	70.12
229.496	76.12
229.73	93.12
229.964	84.12
230.199	85.12
230.433	71.12
230.667	80.12
230.901	86.12
231.136	92.12
231.37	74.12
231.604	94.12
231.838	88.12
232.072	80.12
232.306	78.12
232.541	86.12
232.775	88.12
233.009	87.12
233.243	77.12
233.477	75.12
233.711	72.12
233.945	82.12
234.179	91.12
234.413	85.12
234.647	74.12
234.881	82.12
235.115	70.12
235.349	76.12
235.583	91.12
235.817	92.12
236.051	84.12
236.285	95.12
236.519	72.12
236.753	83.12
236.987	84.12
237.221	89.12
237.455	78.12
237.689	73.12
237.922	84.12
238.156	72.12
238.39	78.12
238.624	83.12
238.858	88.12
239.091	97.12
239.325	74.12
239.559	75.12
239.793	92.12
240.027	86.12
240.26	85.12
240.494	94.12
240.728	74.12
240.961	80.12
241.195	83.12
241.429	85.12
241.662	82.12
241.896	83.12
242.13	84.12
242.363	89.12
242.597	86.12
242.83	78.12
243.064	84.12
243.298	76.12
243.531	74.12
243.765	90.12
243.998	85.12
244.232	81.12
244.465	91.12
244.699	79.12
244.932	79.12
245.166	67.12
245.399	73.12
245.633	85.12
245.866	65.12
246.099	86.12
246.333	81.12
246.566	80.12
246.8	84.12
247.033	91.12
247.266	86.12
247.5	74.12
247.733	82.12
247.966	84.12
248.2	90.12
248.433	67.12
248.666	73.12
248.899	86.12
249.133	81.12
249.366	93.12
249.599	95.12
249.832	74.12
250.066	75.12
250.299	87.12
250.532	84.12
250.765	94.12
250.998	75.12
251.231	80.12
251.465	79.12
251.698	88.12
251.931	81.12
252.164	88.12
252.397	80.12
252.63	79.12
252.863	88.12
253.096	89.12
253.329	85.12
253.562	82.12
253.795	88.12
254.028	80.12
254.261	80.12
254.494	75.12
254.727	91.12
254.96	83.12
255.193	85.12
255.426	66.12
255.659	80.12
255.892	82.12
256.124	83.12
256.357	82.12
256.59	73.12
256.823	82.12
257.056	81.12
257.289	86.12
257.521	88.12
257.754	79.12
257.987	89.12
258.22	94.12
258.452	82.12
258.685	81.12
258.918	88.12
259.151	71.12
259.383	92.12
259.616	94.12
259.849	80.12
260.081	95.12
260.314	75.12
260.547	86.12
260.779	90.12
261.012	76.12
261.244	67.12
261.477	81.12
261.71	86.12
261.942	108.12
262.175	114.12
262.407	98.12
262.64	74.12
262.872	82.12
263.105	81.12
263.337	93.12
263.57	94.12
263.802	80.12
264.035	87.12
264.267	71.12
264.499	80.12
264.732	89.12
264.964	77.12
265.197	88.12
265.429	88.12
265.661	88.12
265.894	81.12
266.126	86.12
266.358	91.12
266.591	82.12
266.823	91.12
267.055	84.12
267.287	89.12
267.52	84.12
267.752	78.12
267.984	94.12
268.216	81.12
268.448	72.12
268.681	96.12
268.913	88.12
269.145	75.12
269.377	76.12
269.609	84.12
269.841	86.12
270.073	82.12
270.306	79.12
270.538	64.12
270.77	89.12
271.002	96.12
271.234	90.12
271.466	80.12
271.698	87.12
271.93	84.12
272.162	92.12
272.394	92.12
272.626	80.12
272.858	85.12
273.09	94.12
273.322	79.12
273.553	104.12
273.785	96.12
274.017	82.12
274.249	80.12
274.481	92.12
274.713	87.12
274.945	86.12
275.176	98.12
275.408	75.12
275.64	90.12
275.872	84.12
276.104	95.12
276.335	95.12
276.567	98.12
276.799	110.12
277.031	87.12
277.262	92.12
277.494	84.12
277.726	87.12
277.957	101.12
278.189	82.12
278.421	76.12
278.652	82.12
278.884	88.12
279.115	82.12
279.347	106.12
279.579	85.12
279.81	87.12
280.042	84.12
280.273	84.12
280.505	89.12
280.736	81.12
280.968	92.12
281.199	85.12
281.431	84.12
281.662	85.12
281.894	90.12
282.125	99.12
282.356	126.12
282.588	133.12
282.819	107.12
283.051	91.12
283.282	73.12
283.513	89.12
283.745	82.12
283.976	102.12
284.207	90.12
284.439	79.12
284.67	87.12
284.901	71.12
285.132	81.12
285.364	88.12
285.595	80.12
285.826	83.12
286.057	84.12
286.288	75.12
286.52	82.12
286.751	64.12
286.982	93.12
287.213	87.12
287.444	83.12
287.675	78.12
287.906	96.12
288.138	89.12
288.369	88.12
288.6	94.12
288.831	85.12
289.062	86.12
289.293	90.12
289.524	91.12
289.755	88.12
289.986	85.12
290.217	66.12
290.448	98.12
290.679	92.12
290.91	74.12
291.141	91.12
291.371	84.12
291.602	95.12
291.833	90.12
292.064	92.12
292.295	91.12
292.526	84.12
292.757	79.12
292.987	74.12
293.218	97.12
293.449	88.12
293.68	84.12
293.91	82.12
294.141	108.12
294.372	90.12
294.603	93.12
294.833	94.12
295.064	88.12
295.295	91.12
295.525	101.12
295.756	103.12
295.987	109.12
296.217	133.12
296.448	130.12
296.679	85.12
296.909	99.12
297.14	82.12
297.37	96.12
297.601	89.12
297.831	68.12
298.062	88.12
298.292	84.12
298.523	96.12
298.753	85.12
298.984	92.12
299.214	95.12
299.445	83.12
299.675	92.12
299.905	78.12
300.136	89.12
300.366	91.12
300.597	81.12
300.827	105.12
301.057	98.12
301.288	102.12
301.518	94.12
301.748	96.12
301.979	113.12
302.209	98.12
302.439	99.12
302.669	92.12
302.9	83.12
303.13	80.12
303.36	86.12
303.59	100.12
303.82	100.12
304.051	91.12
304.281	84.12
304.511	95.12
304.741	95.12
304.971	91.12
305.201	88.12
305.431	85.12
305.661	91.12
305.891	95.12
306.121	90.12
306.352	96.12
306.582	96.12
306.812	90.12
307.042	103.12
307.272	98.12
307.502	99.12
307.731	103.12
307.961	107.12
308.191	79.12
308.421	94.12
308.651	93.12
308.881	96.12
309.111	78.12
309.341	100.12
309.571	97.12
309.8	105.12
310.03	102.12
310.26	107.12
310.49	92.12
310.72	97.12
310.949	99.12
311.179	111.12
311.409	98.12
311.639	99.12
311.868	106.12
312.098	95.12
312.328	88.12
312.557	86.12
312.787	107.12
313.017	93.12
313.246	88.12
313.476	98.12
313.706	82.12
313.935	92.12
314.165	104.12
314.394	101.12
314.624	91.12
314.853	108.12
315.083	92.12
315.312	100.12
315.542	91.12
315.771	98.12
316.001	88.12
316.23	79.12
316.46	92.12
316.689	102.12
316.919	104.12
317.148	96.12
317.377	97.12
317.607	100.12
317.836	85.12
318.065	89.12
318.295	85.12
318.524	87.12
318.753	88.12
318.983	91.12
319.212	105.12
319.441	104.12
319.67	98.12
319.9	94.12
320.129	98.12
320.358	80.12
320.587	104.12
320.816	98.12
321.046	98.12
321.275	102.12
321.504	90.12
321.733	78.12
321.962	99.12
322.191	89.12
322.42	100.12
322.649	98.12
322.878	106.12
323.108	113.12
323.337	136.12
323.566	126.12
323.795	147.12
324.024	193.12
324.253	390.12
324.482	764.12
324.71	1604.12
324.939	2088.12
325.168	774.12
325.397	235.12
325.626	142.12
325.855	111.12
326.084	137.12
326.313	136.12
326.542	144.12
326.77	202.12
326.999	429.12
327.228	854.12
327.457	1595.12
327.686	1296.12
327.914	363.12
328.143	215.12
328.372	176.12
328.6	114.12
328.829	131.12
329.058	121.12
329.287	127.12
329.515	110.12
329.744	105.12
329.972	106.12
330.201	132.12
330.43	155.12
330.658	119.12
330.887	136.12
331.115	138.12
331.344	92.12
331.572	102.12
331.801	104.12
332.03	105.12
332.258	101.12
332.486	99.12
332.715	88.12
332.943	87.12
333.172	91.12
333.4	98.12
333.629	112.12
333.857	113.12
334.085	119.12
334.314	131.12
334.542	166.12
334.771	146.12
334.999	98.12
335.227	100.12
335.455	90.12
335.684	93.12
335.912	104.12
336.14	103.12
336.369	98.12
336.597	103.12
336.825	92.12
337.053	85.12
337.281	96.12
337.51	100.12
337.738	95.12
337.966	100.12
338.194	89.12
338.422	95.12
338.65	90.12
338.878	99.12
339.106	92.12
339.334	95.12
339.562	96.12
339.79	89.12
340.018	94.12
340.246	96.12
340.474	97.12
340.702	86.12
340.93	82.12
341.158	105.12
341.386	107.12
341.614	89.12
341.842	96.12
342.07	86.12
342.298	85.12
342.526	80.12
342.754	89.12
342.981	94.12
343.209	85.12
343.437	93.12
343.665	97.12
343.893	87.12
344.12	90.12
344.348	88.12
344.576	89.12
344.804	94.12
345.031	83.12
345.259	102.12
345.487	89.12
345.714	94.12
345.942	97.12
346.17	94.12
346.397	113.12
346.625	87.12
346.853	89.12
347.08	79.12
347.308	84.12
347.535	87.12
347.763	85.12
347.99	95.12
348.218	109.12
348.445	100.12
348.673	112.12
348.9	101.12
349.128	101.12
349.355	99.12
349.583	100.12
349.81	98.12
350.037	98.12
350.265	99.12
350.492	80.12
350.72	88.12
350.947	99.12
351.174	110.12
351.402	117.12
351.629	115.12
351.856	104.12
352.083	98.12
352.311	106.12
352.538	102.12
352.765	95.12
352.992	126.12
353.22	114.12
353.447	86.12
353.674	94.12
353.901	82.12
354.128	111.12
354.355	112.12
354.583	105.12
354.81	86.12
355.037	108.12
355.264	94.12
355.491	87.12
355.718	91.12
355.945	95.12
356.172	96.12
356.399	85.12
356.626	105.12
356.853	112.12
357.08	96.12
357.307	85.12
357.534	74.12
357.761	88.12
357.988	87.12
358.215	88.12
358.441	94.12
358.668	96.12
358.895	75.12
359.122	94.12
359.349	83.12
359.576	89.12
359.802	91.12
360.029	117.12
360.256	101.12
360.483	86.12
360.709	81.12
360.936	79.12
361.163	86.12
361.39	103.12
361.616	82.12
361.843	80.12
362.07	105.12
362.296	96.12
362.523	106.12
362.749	95.12
362.976	97.12
363.203	94.12
363.429	96.12
363.656	83.12
363.882	89.12
364.109	91.12
364.335	88.12
364.562	95.12
364.788	99.12
365.015	94.12
365.241	106.12
365.468	112.12
365.694	111.12
365.92	90.12
366.147	89.12
366.373	81.12
366.599	94.12
366.826	101.12
367.052	90.12
367.278	86.12
367.505	80.12
367.731	91.12
367.957	80.12
368.184	91.12
368.41	121.12
368.636	99.12
368.862	118.12
369.089	104.12
369.315	90.12
369.541	88.12
369.767	88.12
369.993	82.12
370.219	93.12
370.445	82.12
370.672	80.12
370.898	95.12
371.124	92.12
371.35	82.12
371.576	86.12
371.802	74.12
372.028	92.12
372.254	94.12
372.48	90.12
372.706	94.12
372.932	86.12
373.158	83.12
373.384	95.12
373.61	93.12
373.835	83.12
374.061	91.12
374.287	96.12
374.513	92.12
374.739	87.12
374.965	84.12
375.191	89.12
375.416	94.12
375.642	67.12
375.868	84.12
376.094	82.12
376.319	70.12
376.545	78.12
376.771	82.12
376.997	88.12
377.222	76.12
377.448	73.12
377.674	86.12
377.899	101.12
378.125	90.12
378.35	104.12
378.576	96.12
378.802	95.12
379.027	86.12
379.253	81.12
379.478	94.12
379.704	92.12
379.929	84.12
380.155	87.12
380.38	98.12
380.606	89.12
380.831	97.12
381.057	74.12
381.282	85.12
381.507	91.12
381.733	86.12
381.958	100.12
382.184	110.12
382.409	105.12
382.634	100.12
382.86	97.12
383.085	94.12
383.31	103.12
383.535	94.12
383.761	88.12
383.986	74.12
384.211	100.12
384.436	75.12
384.662	97.12
384.887	107.12
385.112	97.12
385.337	95.12
385.562	99.12
385.787	106.12
386.013	103.12
386.238	116.12
386.463	102.12
386.688	103.12
386.913	110.12
387.138	94.12
387.363	91.12
387.588	98.12
387.813	103.12
388.038	91.12
388.263	105.12
388.488	110.12
388.713	113.12
388.938	103.12
389.163	100.12
389.387	94.12
389.612	85.12
389.837	101.12
390.062	97.12
390.287	88.12
390.512	80.12
390.736	85.12
390.961	86.12
391.186	93.12
391.411	108.12
391.636	106.12
391.86	84.12
392.085	100.12
392.31	95.12
392.534	72.12
392.759	94.12
392.984	85.12
393.208	72.12
393.433	86.12
393.658	88.12
393.882	88.12
394.107	76.12
394.331	91.12
394.556	88.12
394.78	100.12
395.005	88.12
395.229	80.12
395.454	95.12
395.678	96.12
395.903	88.12
396.127	92.12
396.352	92.12
396.576	85.12
396.801	91.12
397.025	81.12
397.249	83.12
397.474	95.12
397.698	80.12
397.922	88.12
398.147	83.12
398.371	87.12
398.595	81.12
398.82	76.12
399.044	96.12
399.268	89.12
399.492	93.12
399.717	88.12
399.941	90.12
400.165	95.12
400.389	94.12
400.613	95.12
400.837	74.12
401.062	96.12
401.286	75.12
401.51	79.12
401.734	81.12
401.958	90.12
402.182	127.12
402.406	155.12
402.63	105.12
402.854	76.12
403.078	91.12
403.302	95.12
403.526	102.12
403.75	86.12
403.974	90.12
404.198	84.12
404.422	88.12
404.645	93.12
404.869	94.12
405.093	98.12
405.317	100.12
405.541	94.12
405.765	87.12
405.988	103.12
406.212	168.12
406.436	221.12
406.66	158.12
406.883	93.12
407.107	82.12
407.331	86.12
407.555	105.12
407.778	91.12
408.002	85.12
408.226	96.12
408.449	86.12
408.673	84.12
408.896	88.12
409.12	92.12
409.344	86.12
409.567	87.12
409.791	109.12
410.014	90.12
410.238	97.12
410.461	90.12
410.685	82.12
410.908	106.12
411.132	103.12
411.355	105.12
411.578	92.12
411.802	96.12
412.025	87.12
412.249	102.12
412.472	102.12
412.695	103.12
412.919	91.12
413.142	80.12
413.365	96.12
413.589	91.12
413.812	82.12
414.035	107.12
414.258	84.12
414.482	95.12
414.705	86.12
414.928	78.12
415.151	96.12
415.374	84.12
415.597	89.12
415.821	79.12
416.044	102.12
416.267	88.12
416.49	91.12
416.713	99.12
416.936	93.12
417.159	89.12
417.382	83.12
417.605	100.12
417.828	99.12
418.051	86.12
418.274	86.12
418.497	87.12
418.72	85.12
418.943	78.12
419.166	100.12
419.389	94.12
419.611	74.12
419.834	86.12
420.057	94.12
420.28	87.12
420.503	73.12
420.726	91.12
420.948	88.12
421.171	93.12
421.394	78.12
421.617	92.12
421.839	96.12
422.062	100.12
422.285	101.12
422.507	93.12
422.73	99.12
422.953	99.12
423.175	95.12
423.398	78.12
423.621	95.12
423.843	83.12
424.066	91.12
424.288	81.12
424.511	86.12
424.733	78.12
424.956	96.12
425.178	108.12
425.401	104.12
425.623	106.12
425.846	94.12
426.068	91.12
426.291	100.12
426.513	85.12
426.735	88.12
426.958	95.12
427.18	106.12
427.402	134.12
427.625	150.12
427.847	127.12
428.069	114.12
428.292	78.12
428.514	88.12
428.736	67.12
428.958	74.12
429.181	78.12
429.403	84.12
429.625	75.12
429.847	103.12
430.069	98.12
430.292	104.12
430.514	87.12
430.736	88.12
430.958	76.12
431.18	91.12
431.402	93.12
431.624	94.12
431.846	97.12
432.068	89.12
432.29	87.12
432.512	78.12
432.734	90.12
432.956	89.12
433.178	90.12
433.4	104.12
433.622	103.12
433.844	86.12
434.066	91.12
434.287	95.12
434.509	98.12
434.731	83.12
434.953	88.12
435.175	75.12
435.397	97.12
435.618	94.12
435.84	94.12
436.062	114.12
436.284	118.12
436.505	94.12
436.727	105.12
436.949	95.12
437.17	88.12
437.392	90.12
437.614	92.12
437.835	101.12
438.057	120.12
438.278	102.12
438.5	90.12
438.721	114.12
438.943	98.12
439.165	87.12
439.386	91.12
439.608	101.12
439.829	101.12
440.05	117.12
440.272	130.12
440.493	94.12
440.715	87.12
440.936	87.12
441.158	89.12
441.379	93.12
441.6	96.12
441.822	86.12
442.043	87.12
442.264	105.12
442.486	91.12
442.707	90.12
442.928	100.12
443.149	128.12
443.371	127.12
443.592	103.12
443.813	104.12
444.034	104.12
444.255	92.12
444.476	82.12
444.698	83.12
444.919	98.12
445.14	137.12
445.361	116.12
445.582	120.12
445.803	126.12
446.024	124.12
446.245	122.12
446.466	108.12
446.687	96.12
446.908	94.12
447.129	82.12
447.35	94.12
447.571	98.12
447.792	85.12
448.013	104.12
448.234	108.12
448.455	99.12
448.675	99.12
448.896	115.12
449.117	97.12
449.338	106.12
449.559	121.12
449.779	123.12
450	101.12
450.221	96.12
450.442	94.12
450.662	85.12
450.883	107.12
451.104	103.12
451.324	88.12
451.545	87.12
451.766	86.12
451.986	78.12
452.207	79.12
452.428	85.12
452.648	91.12
452.869	114.12
453.089	107.12
453.31	110.12
453.53	78.12
453.751	87.12
453.971	91.12
454.192	116.12
454.412	84.12
454.633	96.12
454.853	91.12
455.073	86.12
455.294	83.12
455.514	107.12
455.734	80.12
455.955	92.12
456.175	85.12
456.395	84.12
456.616	78.12
456.836	84.12
457.056	80.12
457.276	87.12
457.497	90.12
457.717	90.12
457.937	85.12
458.157	81.12
458.377	101.12
458.598	115.12
458.818	146.12
459.038	138.12
459.258	105.12
459.478	85.12
459.698	86.12
459.918	78.12
460.138	107.12
460.358	70.12
460.578	80.12
460.798	81.12
461.018	91.12
461.238	95.12
461.458	83.12
461.678	95.12
461.898	90.12
462.118	88.12
462.338	83.12
462.558	90.12
462.777	86.12
462.997	100.12
463.217	88.12
463.437	82.12
463.657	79.12
463.876	92.12
464.096	103.12
464.316	82.12
464.536	88.12
464.755	84.12
464.975	97.12
465.195	152.12
465.414	152.12
465.634	108.12
465.854	97.12
466.073	87.12
466.293	83.12
466.512	87.12
466.732	88.12
466.951	95.12
467.171	94.12
467.391	102.12
467.61	102.12
467.829	98.12
468.049	97.12
468.268	119.12
468.488	94.12
468.707	76.12
468.927	85.12
469.146	83.12
469.365	77.12
469.585	101.12
469.804	89.12
470.023	87.12
470.243	95.12
470.462	103.12
470.681	104.12
470.901	85.12
471.12	90.12
471.339	83.12
471.558	75.12
471.777	95.12
471.997	94.12
472.216	133.12
472.435	182.12
472.654	108.12
472.873	92.12
473.092	88.12
473.311	86.12
473.53	82.12
473.749	77.12
473.968	102.12
474.187	101.12
474.406	96.12
474.625	82.12
474.844	94.12
475.063	84.12
475.282	65.12
475.501	94.12
475.72	107.12
475.939	86.12
476.158	90.12
476.377	88.12
476.596	91.12
476.814	96.12
477.033	98.12
477.252	74.12
477.471	72.12
477.69	86.12
477.908	92.12
478.127	74.12
478.346	98.12
478.564	94.12
478.783	106.12
479.002	94.12
479.22	99.12
479.439	114.12
479.658	93.12
479.876	100.12
480.095	102.12
480.313	98.12
480.532	100.12
480.751	99.12
480.969	119.12
481.188	283.12
481.406	195.12
481.624	84.12
481.843	86.12
482.061	77.12
482.28	80.12
482.498	66.12
482.717	90.12
482.935	83.12
483.153	90.12
483.372	94.12
483.59	92.12
483.808	78.12
484.027	89.12
484.245	88.12
484.463	95.12
484.681	99.12
484.9	87.12
485.118	90.12
485.336	84.12
485.554	99.12
485.772	106.12
485.99	102.12
486.209	108.12
486.427	93.12
486.645	100.12
486.863	88.12
487.081	96.12
487.299	96.12
487.517	90.12
487.735	90.12
487.953	102.12
488.171	96.12
488.389	83.12
488.607	102.12
488.825	87.12
489.043	84.12
489.261	90.12
489.479	95.12
489.696	85.12
489.914	93.12
490.132	101.12
490.35	112.12
490.568	83.12
490.786	94.12
491.003	94.12
491.221	93.12
491.439	84.12
491.657	108.12
491.874	97.12
492.092	89.12
492.31	90.12
492.527	95.12
492.745	94.12
492.963	102.12
493.18	79.12
493.398	95.12
493.615	93.12
493.833	95.12
494.05	91.12
494.268	93.12
494.485	89.12
494.703	85.12
494.92	77.12
495.138	84.12
495.355	113.12
495.573	94.12
495.79	81.12
496.008	95.12
496.225	90.12
496.442	69.12
496.66	95.12
496.877	80.12
497.094	91.12
497.312	97.12
497.529	94.12
497.746	98.12
497.963	87.12
498.181	85.12
498.398	95.12
498.615	100.12
498.832	96.12
499.049	104.12
499.267	91.12
499.484	87.12
499.701	105.12
499.918	102.12
500.135	90.12
500.352	96.12
500.569	100.12
500.786	98.12
501.003	102.12
501.22	88.12
501.437	98.12
501.654	97.12
501.871	108.12
502.088	94.12
502.305	98.12
502.522	99.12
502.739	96.12
502.956	87.12
503.172	89.12
503.389	88.12
503.606	97.12
503.823	91.12
504.04	91.12
504.256	80.12
504.473	80.12
504.69	91.12
504.907	102.12
505.123	94.12
505.34	98.12
505.557	87.12
505.773	91.12
505.99	102.12
506.207	89.12
506.423	94.12
506.64	99.12
506.856	103.12
507.073	98.12
507.289	98.12
507.506	99.12
507.722	122.12
507.939	113.12
508.155	79.12
508.372	92.12
508.588	78.12
508.805	90.12
509.021	104.12
509.238	102.12
509.454	116.12
509.67	101.12
509.887	115.12
510.103	133.12
510.319	210.12
510.536	767.12
510.752	2329.12
510.968	642.12
511.184	146.12
511.401	114.12
511.617	92.12
511.833	99.12
512.049	98.12
512.265	88.12
512.481	106.12
512.698	90.12
512.914	81.12
513.13	95.12
513.346	78.12
513.562	86.12
513.778	90.12
513.994	104.12
514.21	91.12
514.426	119.12
514.642	124.12
514.858	119.12
515.074	165.12
515.29	429.12
515.506	1398.12
515.721	504.12
515.937	138.12
516.153	109.12
516.369	103.12
516.585	111.12
516.801	88.12
517.016	110.12
517.232	105.12
517.448	84.12
517.664	89.12
517.879	100.12
518.095	95.12
518.311	86.12
518.527	95.12
518.742	91.12
518.958	106.12
519.173	91.12
519.389	102.12
519.605	92.12
519.82	99.12
520.036	107.12
520.251	107.12
520.467	99.12
520.682	98.12
520.898	100.12
521.113	108.12
521.329	134.12
521.544	206.12
521.76	528.12
521.975	2280.12
522.19	1376.12
522.406	296.12
522.621	109.12
522.836	102.12
523.052	95.12
523.267	90.12
523.482	100.12
523.698	104.12
523.913	104.12
524.128	100.12
524.343	81.12
524.559	95.12
524.774	92.12
524.989	97.12
525.204	96.12
525.419	91.12
525.634	86.12
525.849	98.12
526.064	96.12
526.28	96.12
526.495	103.12
526.71	95.12
526.925	100.12
527.14	83.12
527.355	87.12
527.57	79.12
527.785	89.12
527.999	93.12
528.214	97.12
528.429	97.12
528.644	102.12
528.859	95.12
529.074	97.12
529.289	129.12
529.503	175.12
529.718	106.12
529.933	94.12
530.148	104.12
530.363	78.12
530.577	83.12
530.792	97.12
531.007	90.12
531.221	98.12
531.436	86.12
531.651	93.12
531.865	77.12
532.08	92.12
532.295	91.12
532.509	88.12
532.724	66.12
532.938	93.12
533.153	103.12
533.367	97.12
533.582	94.12
533.796	94.12
534.011	99.12
534.225	89.12
534.44	91.12
534.654	94.12
534.868	80.12
535.083	92.12
535.297	108.12
535.511	120.12
535.726	91.12
535.94	95.12
536.154	88.12
536.369	86.12
536.583	80.12
536.797	105.12
537.011	91.12
537.225	99.12
537.44	98.12
537.654	93.12
537.868	94.12
538.082	84.12
538.296	94.12
538.51	90.12
538.724	79.12
538.938	97.12
539.153	92.12
539.367	109.12
539.581	99.12
539.795	79.12
540.009	88.12
540.222	91.12
540.436	88.12
540.65	91.12
540.864	94.12
541.078	113.12
541.292	104.12
541.506	87.12
541.72	99.12
541.934	93.12
542.147	89.12
542.361	83.12
542.575	93.12
542.789	94.12
543.002	92.12
543.216	89.12
543.43	100.12
543.644	97.12
543.857	95.12
544.071	84.12
544.285	93.12
544.498	92.12
544.712	91.12
544.925	90.12
545.139	80.12
545.352	88.12
545.566	90.12
545.779	89.12
545.993	97.12
546.206	85.12
546.42	80.12
546.633	106.12
546.847	98.12
547.06	96.12
547.274	107.12
547.487	96.12
547.7	98.12
547.914	87.12
548.127	90.12
548.34	86.12
548.554	78.12
548.767	86.12
548.98	86.12
549.193	79.12
549.407	92.12
549.62	92.12
549.833	103.12
550.046	95.12
550.259	78.12
550.473	84.12
550.686	92.12
550.899	101.12
551.112	75.12
551.325	86.12
551.538	90.12
551.751	96.12
551.964	83.12
552.177	91.12
552.39	74.12
552.603	93.12
552.816	92.12
553.029	84.12
553.242	91.12
553.455	83.12
553.667	106.12
553.88	112.12
554.093	100.12
554.306	90.12
554.519	101.12
554.732	92.12
554.944	91.12
555.157	95.12
555.37	94.12
555.583	79.12
555.795	96.12
556.008	113.12
556.221	92.12
556.433	95.12
556.646	97.12
556.859	87.12
557.071	106.12
557.284	86.12
557.496	96.12
557.709	108.12
557.921	94.12
558.134	90.12
558.346	104.12
558.559	94.12
558.771	82.12
558.984	82.12
559.196	90.12
559.409	94.12
559.621	82.12
559.833	87.12
560.046	92.12
560.258	86.12
560.47	100.12
560.683	90.12
560.895	88.12
561.107	85.12
561.32	104.12
561.532	84.12
561.744	102.12
561.956	91.12
562.168	98.12
562.381	100.12
562.593	94.12
562.805	86.12
563.017	97.12
563.229	96.12
563.441	95.12
563.653	103.12
563.865	80.12
564.077	82.12
564.289	98.12
564.501	90.12
564.713	100.12
564.925	82.12
565.137	99.12
565.349	106.12
565.561	96.12
565.773	87.12
565.985	100.12
566.197	81.12
566.408	97.12
566.62	82.12
566.832	78.12
567.044	84.12
567.255	102.12
567.467	97.12
567.679	88.12
567.891	99.12
568.102	79.12
568.314	82.12
568.526	85.12
568.737	81.12
568.949	100.12
569.161	86.12
569.372	86.12
569.584	91.12
569.795	103.12
570.007	114.12
570.218	230.12
570.43	131.12
570.641	97.12
570.853	87.12
571.064	74.12
571.276	84.12
571.487	105.12
571.698	100.12
571.91	83.12
572.121	75.12
572.333	99.12
572.544	77.12
572.755	94.12
572.966	90.12
573.178	89.12
573.389	89.12
573.6	92.12
573.811	89.12
574.023	83.12
574.234	94.12
574.445	78.12
574.656	96.12
574.867	90.12
575.078	87.12
575.289	85.12
575.501	101.12
575.712	84.12
575.923	104.12
576.134	80.12
576.345	87.12
576.556	99.12
576.767	86.12
576.978	91.12
577.188	86.12
577.399	88.12
577.61	98.12
577.821	99.12
578.032	101.12
578.243	278.12
578.454	751.12
578.665	200.12
578.875	106.12
579.086	88.12
579.297	100.12
579.508	84.12
579.718	94.12
579.929	93.12
580.14	91.12
580.35	96.12
580.561	82.12
580.772	83.12
580.982	82.12
581.193	90.12
581.403	88.12
581.614	87.12
581.825	80.12
582.035	84.12
582.246	79.12
582.456	89.12
582.667	84.12
582.877	80.12
583.087	84.12
583.298	85.12
583.508	98.12
583.719	84.12
583.929	93.12
584.139	88.12
584.35	99.12
584.56	85.12
584.77	86.12
584.981	98.12
585.191	70.12
585.401	103.12
585.611	91.12
585.821	95.12
586.032	87.12
586.242	106.12
586.452	83.12
586.662	96.12
586.872	85.12
587.082	91.12
587.292	80.12
587.502	83.12
587.713	89.12
587.923	79.12
588.133	94.12
588.343	80.12
588.553	84.12
588.762	81.12
588.972	81.12
589.182	80.12
589.392	98.12
589.602	88.12
589.812	95.12
590.022	98.12
590.232	90.12
590.441	81.12
590.651	83.12
590.861	94.12
591.071	82.12
591.281	74.12
591.49	89.12
591.7	92.12
591.91	96.12
592.119	82.12
592.329	86.12
592.539	103.12
592.748	68.12
592.958	88.12
593.167	94.12
593.377	78.12
593.587	89.12
593.796	78.12
594.006	87.12
594.215	97.12
594.424	87.12
594.634	81.12
594.843	81.12
595.053	85.12
595.262	83.12
595.472	88.12
595.681	98.12
595.89	80.12
596.1	73.12
596.309	90.12
596.518	85.12
596.727	91.12
596.937	84.12
597.146	100.12
597.355	87.12
597.564	87.12
597.774	90.12
597.983	91.12
598.192	97.12
598.401	75.12
598.61	82.12
598.819	78.12
599.028	91.12
599.237	81.12
599.446	83.12
599.655	94.12
599.864	104.12
600.073	81.12
600.282	94.12
600.491	82.12
600.7	82.12
600.909	104.12
601.118	80.12
601.327	105.12
601.536	93.12
601.745	96.12
601.953	96.12
602.162	89.12
602.371	87.12
602.58	95.12
602.789	87.12
602.997	97.12
603.206	96.12
603.415	89.12
603.623	85.12
603.832	87.12
604.041	76.12
604.249	89.12
604.458	92.12
604.666	84.12
604.875	90.12
605.084	103.12
605.292	87.12
605.501	79.12
605.709	98.12
605.918	77.12
606.126	87.12
606.334	84.12
606.543	72.12
606.751	89.12
606.96	85.12
607.168	89.12
607.376	81.12
607.585	70.12
607.793	86.12
608.001	82.12
608.21	98.12
608.418	95.12
608.626	96.12
608.834	88.12
609.043	82.12
609.251	88.12
609.459	75.12
609.667	96.12
609.875	84.12
610.083	85.12
610.291	96.12
610.499	88.12
610.707	80.12
610.916	95.12
611.124	99.12
611.332	92.12
611.54	90.12
611.748	86.12
611.955	83.12
612.163	67.12
612.371	75.12
612.579	86.12
612.787	81.12
612.995	88.12
613.203	97.12
613.411	86.12
613.618	89.12
613.826	80.12
614.034	80.12
614.242	81.12
614.449	81.12
614.657	96.12
614.865	92.12
615.072	89.12
615.28	89.12
615.488	90.12
615.695	87.12
615.903	92.12
616.111	87.12
616.318	99.12
616.526	94.12
616.733	93.12
616.941	88.12
617.148	94.12
617.356	84.12
617.563	107.12
617.771	69.12
617.978	90.12
618.185	92.12
618.393	89.12
618.6	89.12
618.807	75.12
619.015	81.12
619.222	96.12
619.429	83.12
619.637	74.12
619.844	80.12
620.051	74.12
620.258	87.12
620.466	82.12
620.673	94.12
620.88	99.12
621.087	86.12
621.294	81.12
621.501	83.12
621.708	80.12
621.915	90.12
622.122	74.12
622.329	81.12
622.536	85.12
622.743	80.12
622.95	92.12
623.157	82.12
623.364	94.12
623.571	87.12
623.778	75.12
623.985	91.12
624.192	91.12
624.399	76.12
624.606	88.12
624.812	71.12
625.019	85.12
625.226	90.12
625.433	85.12
625.639	93.12
625.846	88.12
626.053	100.12
626.259	78.12
626.466	87.12
626.673	78.12
626.879	78.12
627.086	75.12
627.293	91.12
627.499	81.12
627.706	70.12
627.912	76.12
628.119	74.12
628.325	87.12
628.532	98.12
628.738	87.12
628.945	94.12
629.151	81.12
629.357	82.12
629.564	91.12
629.77	88.12
629.976	80.12
630.183	92.12
630.389	89.12
630.595	80.12
630.802	89.12
631.008	96.12
631.214	78.12
631.42	67.12
631.627	96.12
631.833	93.12
632.039	90.12
632.245	88.12
632.451	75.12
632.657	86.12
632.863	94.12
633.069	78.12
633.275	94.12
633.481	86.12
633.688	94.12
633.893	85.12
634.099	82.12
634.305	89.12
634.511	98.12
634.717	97.12
634.923	89.12
635.129	92.12
635.335	85.12
635.541	91.12
635.747	103.12
635.952	92.12
636.158	88.12
636.364	100.12
636.57	96.12
636.775	87.12
636.981	98.12
637.187	90.12
637.392	88.12
637.598	88.12
637.804	94.12
638.009	91.12
638.215	72.12
638.421	82.12
638.626	88.12
638.832	96.12
639.037	69.12
639.243	74.12
639.448	75.12
639.654	81.12
639.859	82.12
640.065	64.12
640.27	92.12
640.475	85.12
640.681	79.12
640.886	89.12
641.091	75.12
641.297	82.12
641.502	86.12
641.707	82.12
641.913	86.12
642.118	87.12
642.323	83.12
642.528	82.12
642.733	82.12
642.939	92.12
643.144	95.12
643.349	80.12
643.554	75.12
643.759	84.12
643.964	87.12
644.169	105.12
644.374	97.12
644.579	93.12
644.784	90.12
644.989	96.12
645.194	68.12
645.399	82.12
645.604	88.12
645.809	85.12
646.014	86.12
646.219	84.12
646.423	97.12
646.628	82.12
646.833	76.12
647.038	80.12
647.243	92.12
647.447	76.12
647.652	76.12
647.857	88.12
648.062	91.12
648.266	83.12
648.471	96.12
648.676	106.12
648.88	78.12
649.085	90.12
649.289	78.12
649.494	101.12
649.698	120.12
649.903	89.12
650.107	95.12
650.312	94.12
650.516	92.12
650.721	82.12
650.925	90.12
651.13	82.12
651.334	79.12
651.539	85.12
651.743	92.12
651.947	84.12
652.152	98.12
652.356	94.12
652.56	72.12
652.764	96.12
652.969	88.12
653.173	65.12
653.377	85.12
653.581	80.12
653.785	87.12
653.99	83.12
654.194	78.12
654.398	87.12
654.602	83.12
654.806	78.12
655.01	86.12
655.214	97.12
655.418	93.12
655.622	88.12
655.826	92.12
656.03	106.12
656.234	88.12
656.438	87.12
656.642	87.12
656.846	81.12
657.049	85.12
657.253	85.12
657.457	70.12
657.661	84.12
657.865	86.12
658.068	79.12
658.272	81.12
658.476	75.12
658.68	85.12
658.883	83.12
659.087	88.12
659.291	87.12
659.494	78.12
659.698	85.12
659.901	76.12
660.105	76.12
660.309	71.12
660.512	75.12
660.716	75.12
660.919	88.12
661.123	78.12
661.326	75.12
661.53	78.12
661.733	76.12
661.936	74.12
662.14	72.12
662.343	78.12
662.546	66.12
662.75	83.12
662.953	82.12
663.156	67.12
663.36	85.12
663.563	92.12
663.766	84.12
663.969	93.12
664.173	75.12
664.376	90.12
664.579	75.12
664.782	90.12
664.985	75.12
665.188	72.12
665.391	80.12
665.594	78.12
665.797	76.12
666	76.12
666.203	86.12
666.406	90.12
666.609	76.12
666.812	79.12
667.015	81.12
667.218	87.12
667.421	70.12
667.624	90.12
667.827	75.12
668.03	96.12
668.232	76.12
668.435	88.12
668.638	74.12
668.841	91.12
669.043	80.12
669.246	81.12
669.449	88.12
669.651	78.12
669.854	82.12
670.057	70.12
670.259	90.12
670.462	78.12
670.665	76.12
670.867	91.12
671.07	75.12
671.272	87.12
671.475	89.12
671.677	94.12
671.88	68.12
672.082	67.12
672.284	83.12
672.487	89.12
672.689	92.12
672.892	87.12
