Data from SampG_HRD10591_00047.txt Node
Date: Mon Jan 19 11:53:59 EST 2026
User: Yrep
Spectrometer: HR+D1059
Trigger mode: 0
Integration Time (sec): 3.443000E-1
Scans to average: 1
Electric dark correction enabled: true
Nonlinearity correction enabled: false
Boxcar width: 0
XAxis mode: Wavelengths
Number of Pixels in Spectrum: 2048
>>>>>Begin Spectral Data<<<<<
223.165	-13.75
223.4	-13.75
223.635	-13.75
223.869	-28.75
224.104	-36.75
224.338	-5.75
224.573	-8.75
224.808	0.25
225.042	-2.75
225.277	4.25
225.511	0.25
225.746	-4.75
225.98	13.25
226.215	21.25
226.449	5.25
226.683	15.25
226.918	12.25
227.152	29.25
227.387	55.25
227.621	47.25
227.856	50.25
228.09	42.25
228.324	45.25
228.559	43.25
228.793	55.25
229.027	61.25
229.262	59.25
229.496	75.25
229.73	69.25
229.964	84.25
230.199	81.25
230.433	83.25
230.667	64.25
230.901	75.25
231.136	66.25
231.37	77.25
231.604	85.25
231.838	76.25
232.072	77.25
232.306	76.25
232.541	77.25
232.775	82.25
233.009	88.25
233.243	84.25
233.477	92.25
233.711	91.25
233.945	93.25
234.179	82.25
234.413	77.25
234.647	84.25
234.881	64.25
235.115	72.25
235.349	75.25
235.583	89.25
235.817	90.25
236.051	86.25
236.285	82.25
236.519	86.25
236.753	93.25
236.987	79.25
237.221	69.25
237.455	107.25
237.689	84.25
237.922	79.25
238.156	76.25
238.39	88.25
238.624	73.25
238.858	62.25
239.091	73.25
239.325	99.25
239.559	101.25
239.793	81.25
240.027	82.25
240.26	85.25
240.494	80.25
240.728	89.25
240.961	77.25
241.195	77.25
241.429	81.25
241.662	100.25
241.896	91.25
242.13	72.25
242.363	88.25
242.597	80.25
242.83	77.25
243.064	80.25
243.298	83.25
243.531	85.25
243.765	88.25
243.998	80.25
244.232	97.25
244.465	96.25
244.699	94.25
244.932	84.25
245.166	101.25
245.399	89.25
245.633	93.25
245.866	87.25
246.099	73.25
246.333	96.25
246.566	86.25
246.8	85.25
247.033	85.25
247.266	80.25
247.5	92.25
247.733	86.25
247.966	81.25
248.2	89.25
248.433	88.25
248.666	88.25
248.899	83.25
249.133	89.25
249.366	101.25
249.599	85.25
249.832	98.25
250.066	96.25
250.299	95.25
250.532	80.25
250.765	104.25
250.998	80.25
251.231	86.25
251.465	90.25
251.698	89.25
251.931	74.25
252.164	93.25
252.397	86.25
252.63	83.25
252.863	107.25
253.096	98.25
253.329	93.25
253.562	90.25
253.795	102.25
254.028	88.25
254.261	89.25
254.494	105.25
254.727	100.25
254.96	88.25
255.193	107.25
255.426	99.25
255.659	81.25
255.892	107.25
256.124	88.25
256.357	98.25
256.59	92.25
256.823	94.25
257.056	90.25
257.289	103.25
257.521	92.25
257.754	96.25
257.987	95.25
258.22	99.25
258.452	103.25
258.685	103.25
258.918	89.25
259.151	104.25
259.383	124.25
259.616	94.25
259.849	106.25
260.081	98.25
260.314	101.25
260.547	101.25
260.779	87.25
261.012	93.25
261.244	86.25
261.477	105.25
261.71	97.25
261.942	100.25
262.175	96.25
262.407	91.25
262.64	81.25
262.872	96.25
263.105	93.25
263.337	107.25
263.57	100.25
263.802	99.25
264.035	100.25
264.267	90.25
264.499	103.25
264.732	99.25
264.964	102.25
265.197	101.25
265.429	104.25
265.661	111.25
265.894	96.25
266.126	115.25
266.358	88.25
266.591	104.25
266.823	115.25
267.055	98.25
267.287	104.25
267.52	98.25
267.752	109.25
267.984	101.25
268.216	101.25
268.448	113.25
268.681	102.25
268.913	105.25
269.145	97.25
269.377	120.25
269.609	88.25
269.841	98.25
270.073	114.25
270.306	115.25
270.538	102.25
270.77	105.25
271.002	108.25
271.234	110.25
271.466	112.25
271.698	103.25
271.93	107.25
272.162	109.25
272.394	113.25
272.626	118.25
272.858	90.25
273.09	114.25
273.322	92.25
273.553	102.25
273.785	99.25
274.017	105.25
274.249	110.25
274.481	116.25
274.713	114.25
274.945	110.25
275.176	105.25
275.408	112.25
275.64	92.25
275.872	100.25
276.104	100.25
276.335	113.25
276.567	105.25
276.799	98.25
277.031	109.25
277.262	90.25
277.494	117.25
277.726	96.25
277.957	111.25
278.189	87.25
278.421	85.25
278.652	117.25
278.884	116.25
279.115	123.25
279.347	112.25
279.579	114.25
279.81	99.25
280.042	117.25
280.273	109.25
280.505	111.25
280.736	131.25
280.968	122.25
281.199	118.25
281.431	116.25
281.662	113.25
281.894	105.25
282.125	114.25
282.356	103.25
282.588	116.25
282.819	103.25
283.051	112.25
283.282	121.25
283.513	117.25
283.745	130.25
283.976	106.25
284.207	93.25
284.439	102.25
284.67	105.25
284.901	110.25
285.132	109.25
285.364	113.25
285.595	125.25
285.826	106.25
286.057	121.25
286.288	111.25
286.52	115.25
286.751	112.25
286.982	120.25
287.213	116.25
287.444	124.25
287.675	114.25
287.906	118.25
288.138	124.25
288.369	110.25
288.6	121.25
288.831	99.25
289.062	107.25
289.293	124.25
289.524	108.25
289.755	116.25
289.986	119.25
290.217	126.25
290.448	99.25
290.679	133.25
290.91	130.25
291.141	116.25
291.371	133.25
291.602	128.25
291.833	121.25
292.064	117.25
292.295	120.25
292.526	92.25
292.757	120.25
292.987	119.25
293.218	112.25
293.449	115.25
293.68	111.25
293.91	105.25
294.141	125.25
294.372	124.25
294.603	128.25
294.833	125.25
295.064	121.25
295.295	117.25
295.525	110.25
295.756	123.25
295.987	119.25
296.217	118.25
296.448	121.25
296.679	106.25
296.909	121.25
297.14	129.25
297.37	146.25
297.601	134.25
297.831	143.25
298.062	120.25
298.292	110.25
298.523	140.25
298.753	123.25
298.984	123.25
299.214	128.25
299.445	128.25
299.675	130.25
299.905	128.25
300.136	133.25
300.366	122.25
300.597	117.25
300.827	102.25
301.057	117.25
301.288	136.25
301.518	134.25
301.748	126.25
301.979	174.25
302.209	126.25
302.439	124.25
302.669	128.25
302.9	118.25
303.13	122.25
303.36	135.25
303.59	120.25
303.82	133.25
304.051	130.25
304.281	130.25
304.511	115.25
304.741	116.25
304.971	130.25
305.201	124.25
305.431	111.25
305.661	122.25
305.891	123.25
306.121	141.25
306.352	117.25
306.582	137.25
306.812	126.25
307.042	132.25
307.272	132.25
307.502	129.25
307.731	131.25
307.961	125.25
308.191	120.25
308.421	131.25
308.651	116.25
308.881	122.25
309.111	119.25
309.341	120.25
309.571	130.25
309.8	109.25
310.03	119.25
310.26	138.25
310.49	124.25
310.72	115.25
310.949	128.25
311.179	128.25
311.409	132.25
311.639	141.25
311.868	133.25
312.098	142.25
312.328	128.25
312.557	137.25
312.787	125.25
313.017	114.25
313.246	128.25
313.476	129.25
313.706	131.25
313.935	124.25
314.165	143.25
314.394	128.25
314.624	134.25
314.853	125.25
315.083	133.25
315.312	131.25
315.542	128.25
315.771	123.25
316.001	147.25
316.23	128.25
316.46	126.25
316.689	134.25
316.919	125.25
317.148	125.25
317.377	134.25
317.607	136.25
317.836	128.25
318.065	119.25
318.295	124.25
318.524	124.25
318.753	144.25
318.983	120.25
319.212	130.25
319.441	120.25
319.67	129.25
319.9	134.25
320.129	127.25
320.358	128.25
320.587	129.25
320.816	126.25
321.046	133.25
321.275	132.25
321.504	129.25
321.733	108.25
321.962	129.25
322.191	124.25
322.42	118.25
322.649	143.25
322.878	129.25
323.108	125.25
323.337	126.25
323.566	138.25
323.795	139.25
324.024	123.25
324.253	136.25
324.482	115.25
324.71	123.25
324.939	127.25
325.168	130.25
325.397	132.25
325.626	136.25
325.855	133.25
326.084	144.25
326.313	140.25
326.542	138.25
326.77	142.25
326.999	133.25
327.228	151.25
327.457	143.25
327.686	138.25
327.914	125.25
328.143	135.25
328.372	137.25
328.6	126.25
328.829	164.25
329.058	162.25
329.287	140.25
329.515	124.25
329.744	137.25
329.972	141.25
330.201	127.25
330.43	136.25
330.658	126.25
330.887	142.25
331.115	145.25
331.344	137.25
331.572	160.25
331.801	132.25
332.03	146.25
332.258	136.25
332.486	139.25
332.715	139.25
332.943	144.25
333.172	153.25
333.4	167.25
333.629	171.25
333.857	173.25
334.085	162.25
334.314	146.25
334.542	149.25
334.771	151.25
334.999	148.25
335.227	145.25
335.455	129.25
335.684	151.25
335.912	132.25
336.14	146.25
336.369	160.25
336.597	150.25
336.825	141.25
337.053	156.25
337.281	146.25
337.51	153.25
337.738	146.25
337.966	137.25
338.194	135.25
338.422	147.25
338.65	134.25
338.878	151.25
339.106	133.25
339.334	144.25
339.562	135.25
339.79	135.25
340.018	148.25
340.246	144.25
340.474	144.25
340.702	132.25
340.93	119.25
341.158	144.25
341.386	131.25
341.614	127.25
341.842	126.25
342.07	140.25
342.298	145.25
342.526	131.25
342.754	143.25
342.981	136.25
343.209	137.25
343.437	164.25
343.665	160.25
343.893	146.25
344.12	158.25
344.348	159.25
344.576	157.25
344.804	148.25
345.031	129.25
345.259	140.25
345.487	141.25
345.714	138.25
345.942	131.25
346.17	135.25
346.397	129.25
346.625	128.25
346.853	144.25
347.08	142.25
347.308	150.25
347.535	139.25
347.763	140.25
347.99	150.25
348.218	131.25
348.445	127.25
348.673	146.25
348.9	124.25
349.128	130.25
349.355	132.25
349.583	130.25
349.81	130.25
350.037	132.25
350.265	123.25
350.492	128.25
350.72	142.25
350.947	126.25
351.174	151.25
351.402	145.25
351.629	126.25
351.856	145.25
352.083	127.25
352.311	123.25
352.538	129.25
352.765	138.25
352.992	152.25
353.22	139.25
353.447	129.25
353.674	139.25
353.901	143.25
354.128	134.25
354.355	142.25
354.583	134.25
354.81	130.25
355.037	140.25
355.264	134.25
355.491	131.25
355.718	136.25
355.945	137.25
356.172	136.25
356.399	145.25
356.626	132.25
356.853	141.25
357.08	150.25
357.307	122.25
357.534	134.25
357.761	149.25
357.988	142.25
358.215	138.25
358.441	145.25
358.668	140.25
358.895	138.25
359.122	129.25
359.349	130.25
359.576	141.25
359.802	130.25
360.029	135.25
360.256	127.25
360.483	145.25
360.709	139.25
360.936	148.25
361.163	133.25
361.39	127.25
361.616	124.25
361.843	127.25
362.07	126.25
362.296	141.25
362.523	128.25
362.749	133.25
362.976	126.25
363.203	129.25
363.429	139.25
363.656	123.25
363.882	137.25
364.109	139.25
364.335	160.25
364.562	129.25
364.788	133.25
365.015	134.25
365.241	135.25
365.468	153.25
365.694	120.25
365.92	125.25
366.147	130.25
366.373	122.25
366.599	119.25
366.826	135.25
367.052	136.25
367.278	150.25
367.505	131.25
367.731	153.25
367.957	134.25
368.184	148.25
368.41	131.25
368.636	146.25
368.862	136.25
369.089	141.25
369.315	120.25
369.541	140.25
369.767	119.25
369.993	138.25
370.219	125.25
370.445	155.25
370.672	140.25
370.898	138.25
371.124	130.25
371.35	146.25
371.576	137.25
371.802	144.25
372.028	133.25
372.254	132.25
372.48	132.25
372.706	144.25
372.932	141.25
373.158	121.25
373.384	148.25
373.61	146.25
373.835	130.25
374.061	128.25
374.287	147.25
374.513	168.25
374.739	138.25
374.965	138.25
375.191	138.25
375.416	145.25
375.642	140.25
375.868	158.25
376.094	144.25
376.319	147.25
376.545	144.25
376.771	151.25
376.997	150.25
377.222	138.25
377.448	149.25
377.674	140.25
377.899	144.25
378.125	135.25
378.35	141.25
378.576	147.25
378.802	131.25
379.027	147.25
379.253	142.25
379.478	149.25
379.704	134.25
379.929	126.25
380.155	133.25
380.38	149.25
380.606	143.25
380.831	126.25
381.057	148.25
381.282	147.25
381.507	165.25
381.733	155.25
381.958	152.25
382.184	152.25
382.409	146.25
382.634	145.25
382.86	150.25
383.085	156.25
383.31	134.25
383.535	165.25
383.761	149.25
383.986	156.25
384.211	141.25
384.436	153.25
384.662	145.25
384.887	152.25
385.112	145.25
385.337	152.25
385.562	165.25
385.787	156.25
386.013	141.25
386.238	166.25
386.463	160.25
386.688	202.25
386.913	148.25
387.138	146.25
387.363	161.25
387.588	170.25
387.813	164.25
388.038	150.25
388.263	161.25
388.488	156.25
388.713	164.25
388.938	168.25
389.163	159.25
389.387	152.25
389.612	145.25
389.837	149.25
390.062	155.25
390.287	147.25
390.512	157.25
390.736	155.25
390.961	156.25
391.186	176.25
391.411	146.25
391.636	149.25
391.86	164.25
392.085	166.25
392.31	155.25
392.534	153.25
392.759	178.25
392.984	164.25
393.208	172.25
393.433	158.25
393.658	170.25
393.882	138.25
394.107	159.25
394.331	143.25
394.556	172.25
394.78	171.25
395.005	168.25
395.229	164.25
395.454	169.25
395.678	169.25
395.903	173.25
396.127	164.25
396.352	174.25
396.576	164.25
396.801	153.25
397.025	139.25
397.249	168.25
397.474	166.25
397.698	170.25
397.922	163.25
398.147	166.25
398.371	172.25
398.595	171.25
398.82	171.25
399.044	173.25
399.268	193.25
399.492	243.25
399.717	226.25
399.941	210.25
400.165	206.25
400.389	201.25
400.613	192.25
400.837	196.25
401.062	177.25
401.286	187.25
401.51	168.25
401.734	173.25
401.958	175.25
402.182	172.25
402.406	170.25
402.63	169.25
402.854	190.25
403.078	195.25
403.302	184.25
403.526	189.25
403.75	170.25
403.974	197.25
404.198	197.25
404.422	192.25
404.645	177.25
404.869	191.25
405.093	192.25
405.317	182.25
405.541	196.25
405.765	186.25
405.988	205.25
406.212	204.25
406.436	181.25
406.66	201.25
406.883	186.25
407.107	196.25
407.331	192.25
407.555	200.25
407.778	215.25
408.002	192.25
408.226	198.25
408.449	191.25
408.673	194.25
408.896	187.25
409.12	180.25
409.344	194.25
409.567	200.25
409.791	190.25
410.014	192.25
410.238	176.25
410.461	204.25
410.685	190.25
410.908	178.25
411.132	181.25
411.355	165.25
411.578	195.25
411.802	174.25
412.025	179.25
412.249	185.25
412.472	186.25
412.695	173.25
412.919	190.25
413.142	170.25
413.365	179.25
413.589	183.25
413.812	170.25
414.035	191.25
414.258	173.25
414.482	177.25
414.705	163.25
414.928	166.25
415.151	154.25
415.374	175.25
415.597	168.25
415.821	160.25
416.044	172.25
416.267	188.25
416.49	174.25
416.713	163.25
416.936	183.25
417.159	194.25
417.382	176.25
417.605	174.25
417.828	189.25
418.051	174.25
418.274	177.25
418.497	166.25
418.72	180.25
418.943	168.25
419.166	170.25
419.389	183.25
419.611	179.25
419.834	192.25
420.057	195.25
420.28	174.25
420.503	174.25
420.726	173.25
420.948	171.25
421.171	178.25
421.394	169.25
421.617	186.25
421.839	184.25
422.062	182.25
422.285	182.25
422.507	167.25
422.73	174.25
422.953	192.25
423.175	198.25
423.398	174.25
423.621	174.25
423.843	173.25
424.066	199.25
424.288	187.25
424.511	180.25
424.733	178.25
424.956	179.25
425.178	174.25
425.401	165.25
425.623	174.25
425.846	176.25
426.068	170.25
426.291	186.25
426.513	161.25
426.735	186.25
426.958	163.25
427.18	168.25
427.402	165.25
427.625	178.25
427.847	169.25
428.069	166.25
428.292	186.25
428.514	162.25
428.736	152.25
428.958	173.25
429.181	157.25
429.403	153.25
429.625	162.25
429.847	145.25
430.069	146.25
430.292	167.25
430.514	146.25
430.736	166.25
430.958	165.25
431.18	168.25
431.402	153.25
431.624	160.25
431.846	166.25
432.068	172.25
432.29	160.25
432.512	174.25
432.734	164.25
432.956	147.25
433.178	159.25
433.4	151.25
433.622	148.25
433.844	150.25
434.066	168.25
434.287	163.25
434.509	166.25
434.731	187.25
434.953	177.25
435.175	178.25
435.397	179.25
435.618	161.25
435.84	167.25
436.062	150.25
436.284	158.25
436.505	151.25
436.727	159.25
436.949	165.25
437.17	160.25
437.392	151.25
437.614	172.25
437.835	169.25
438.057	174.25
438.278	149.25
438.5	163.25
438.721	154.25
438.943	160.25
439.165	163.25
439.386	171.25
439.608	179.25
439.829	154.25
440.05	169.25
440.272	156.25
440.493	174.25
440.715	185.25
440.936	166.25
441.158	187.25
441.379	170.25
441.6	165.25
441.822	183.25
442.043	178.25
442.264	170.25
442.486	182.25
442.707	173.25
442.928	165.25
443.149	179.25
443.371	182.25
443.592	165.25
443.813	173.25
444.034	180.25
444.255	188.25
444.476	202.25
444.698	202.25
444.919	205.25
445.14	450.25
445.361	300.25
445.582	181.25
445.803	169.25
446.024	166.25
446.245	167.25
446.466	164.25
446.687	159.25
446.908	171.25
447.129	165.25
447.35	166.25
447.571	182.25
447.792	153.25
448.013	164.25
448.234	146.25
448.455	149.25
448.675	150.25
448.896	149.25
449.117	171.25
449.338	139.25
449.559	158.25
449.779	160.25
450	162.25
450.221	149.25
450.442	169.25
450.662	168.25
450.883	157.25
451.104	166.25
451.324	166.25
451.545	154.25
451.766	144.25
451.986	157.25
452.207	154.25
452.428	157.25
452.648	150.25
452.869	152.25
453.089	140.25
453.31	135.25
453.53	142.25
453.751	151.25
453.971	155.25
454.192	137.25
454.412	129.25
454.633	153.25
454.853	155.25
455.073	152.25
455.294	153.25
455.514	165.25
455.734	161.25
455.955	166.25
456.175	134.25
456.395	161.25
456.616	132.25
456.836	151.25
457.056	156.25
457.276	137.25
457.497	160.25
457.717	143.25
457.937	140.25
458.157	148.25
458.377	156.25
458.598	158.25
458.818	167.25
459.038	145.25
459.258	150.25
459.478	159.25
459.698	149.25
459.918	165.25
460.138	178.25
460.358	166.25
460.578	179.25
460.798	204.25
461.018	195.25
461.238	183.25
461.458	188.25
461.678	180.25
461.898	183.25
462.118	184.25
462.338	190.25
462.558	188.25
462.777	200.25
462.997	218.25
463.217	217.25
463.437	219.25
463.657	189.25
463.876	210.25
464.096	201.25
464.316	179.25
464.536	186.25
464.755	197.25
464.975	187.25
465.195	193.25
465.414	192.25
465.634	171.25
465.854	162.25
466.073	170.25
466.293	180.25
466.512	162.25
466.732	156.25
466.951	157.25
467.171	157.25
467.391	169.25
467.61	158.25
467.829	150.25
468.049	166.25
468.268	156.25
468.488	137.25
468.707	159.25
468.927	173.25
469.146	145.25
469.365	140.25
469.585	150.25
469.804	162.25
470.023	145.25
470.243	177.25
470.462	177.25
470.681	158.25
470.901	158.25
471.12	153.25
471.339	156.25
471.558	156.25
471.777	163.25
471.997	149.25
472.216	154.25
472.435	148.25
472.654	148.25
472.873	154.25
473.092	144.25
473.311	168.25
473.53	139.25
473.749	173.25
473.968	190.25
474.187	157.25
474.406	156.25
474.625	141.25
474.844	157.25
475.063	153.25
475.282	142.25
475.501	142.25
475.72	166.25
475.939	149.25
476.158	146.25
476.377	148.25
476.596	151.25
476.814	177.25
477.033	147.25
477.252	156.25
477.471	140.25
477.69	151.25
477.908	188.25
478.127	175.25
478.346	170.25
478.564	181.25
478.783	159.25
479.002	172.25
479.22	185.25
479.439	173.25
479.658	185.25
479.876	174.25
480.095	168.25
480.313	200.25
480.532	188.25
480.751	181.25
480.969	172.25
481.188	176.25
481.406	170.25
481.624	175.25
481.843	169.25
482.061	145.25
482.28	175.25
482.498	173.25
482.717	148.25
482.935	157.25
483.153	170.25
483.372	183.25
483.59	187.25
483.808	170.25
484.027	185.25
484.245	173.25
484.463	168.25
484.681	177.25
484.9	173.25
485.118	185.25
485.336	163.25
485.554	172.25
485.772	176.25
485.99	176.25
486.209	169.25
486.427	177.25
486.645	168.25
486.863	161.25
487.081	173.25
487.299	172.25
487.517	180.25
487.735	174.25
487.953	167.25
488.171	181.25
488.389	165.25
488.607	173.25
488.825	171.25
489.043	181.25
489.261	178.25
489.479	180.25
489.696	175.25
489.914	174.25
490.132	168.25
490.35	176.25
490.568	167.25
490.786	169.25
491.003	187.25
491.221	183.25
491.439	175.25
491.657	171.25
491.874	180.25
492.092	174.25
492.31	164.25
492.527	151.25
492.745	178.25
492.963	188.25
493.18	188.25
493.398	187.25
493.615	176.25
493.833	180.25
494.05	190.25
494.268	168.25
494.485	174.25
494.703	185.25
494.92	180.25
495.138	176.25
495.355	184.25
495.573	181.25
495.79	168.25
496.008	182.25
496.225	164.25
496.442	186.25
496.66	205.25
496.877	199.25
497.094	197.25
497.312	182.25
497.529	183.25
497.746	181.25
497.963	217.25
498.181	189.25
498.398	197.25
498.615	241.25
498.832	240.25
499.049	242.25
499.267	274.25
499.484	259.25
499.701	297.25
499.918	320.25
500.135	356.25
500.352	379.25
500.569	401.25
500.786	392.25
501.003	369.25
501.22	320.25
501.437	285.25
501.654	283.25
501.871	264.25
502.088	226.25
502.305	231.25
502.522	236.25
502.739	224.25
502.956	212.25
503.172	194.25
503.389	206.25
503.606	184.25
503.823	190.25
504.04	210.25
504.256	208.25
504.473	213.25
504.69	208.25
504.907	197.25
505.123	191.25
505.34	183.25
505.557	177.25
505.773	157.25
505.99	174.25
506.207	178.25
506.423	168.25
506.64	175.25
506.856	166.25
507.073	181.25
507.289	166.25
507.506	154.25
507.722	157.25
507.939	163.25
508.155	173.25
508.372	166.25
508.588	164.25
508.805	173.25
509.021	151.25
509.238	168.25
509.454	150.25
509.67	163.25
509.887	152.25
510.103	177.25
510.319	168.25
510.536	153.25
510.752	166.25
510.968	167.25
511.184	163.25
511.401	159.25
511.617	158.25
511.833	162.25
512.049	164.25
512.265	157.25
512.481	162.25
512.698	166.25
512.914	154.25
513.13	168.25
513.346	154.25
513.562	167.25
513.778	157.25
513.994	163.25
514.21	166.25
514.426	158.25
514.642	164.25
514.858	148.25
515.074	148.25
515.29	171.25
515.506	156.25
515.721	158.25
515.937	180.25
516.153	173.25
516.369	187.25
516.585	174.25
516.801	195.25
517.016	184.25
517.232	175.25
517.448	192.25
517.664	198.25
517.879	213.25
518.095	201.25
518.311	197.25
518.527	196.25
518.742	181.25
518.958	173.25
519.173	186.25
519.389	165.25
519.605	176.25
519.82	162.25
520.036	187.25
520.251	172.25
520.467	150.25
520.682	151.25
520.898	153.25
521.113	147.25
521.329	163.25
521.544	150.25
521.76	144.25
521.975	141.25
522.19	147.25
522.406	158.25
522.621	145.25
522.836	138.25
523.052	144.25
523.267	148.25
523.482	152.25
523.698	150.25
523.913	160.25
524.128	137.25
524.343	153.25
524.559	163.25
524.774	151.25
524.989	149.25
525.204	170.25
525.419	154.25
525.634	151.25
525.849	158.25
526.064	152.25
526.28	174.25
526.495	128.25
526.71	134.25
526.925	135.25
527.14	155.25
527.355	148.25
527.57	133.25
527.785	158.25
527.999	160.25
528.214	144.25
528.429	159.25
528.644	156.25
528.859	141.25
529.074	153.25
529.289	166.25
529.503	170.25
529.718	170.25
529.933	154.25
530.148	153.25
530.363	145.25
530.577	149.25
530.792	149.25
531.007	151.25
531.221	145.25
531.436	157.25
531.651	161.25
531.865	156.25
532.08	154.25
532.295	152.25
532.509	171.25
532.724	153.25
532.938	164.25
533.153	158.25
533.367	146.25
533.582	135.25
533.796	155.25
534.011	162.25
534.225	153.25
534.44	146.25
534.654	152.25
534.868	159.25
535.083	162.25
535.297	151.25
535.511	145.25
535.726	141.25
535.94	146.25
536.154	153.25
536.369	150.25
536.583	146.25
536.797	162.25
537.011	135.25
537.225	147.25
537.44	146.25
537.654	145.25
537.868	141.25
538.082	145.25
538.296	156.25
538.51	156.25
538.724	146.25
538.938	156.25
539.153	146.25
539.367	147.25
539.581	163.25
539.795	138.25
540.009	139.25
540.222	164.25
540.436	131.25
540.65	154.25
540.864	139.25
541.078	135.25
541.292	139.25
541.506	140.25
541.72	139.25
541.934	147.25
542.147	157.25
542.361	148.25
542.575	157.25
542.789	143.25
543.002	153.25
543.216	146.25
543.43	145.25
543.644	156.25
543.857	146.25
544.071	142.25
544.285	155.25
544.498	133.25
544.712	162.25
544.925	152.25
545.139	149.25
545.352	144.25
545.566	153.25
545.779	162.25
545.993	160.25
546.206	151.25
546.42	140.25
546.633	163.25
546.847	170.25
547.06	157.25
547.274	163.25
547.487	173.25
547.7	137.25
547.914	144.25
548.127	169.25
548.34	174.25
548.554	167.25
548.767	162.25
548.98	155.25
549.193	135.25
549.407	150.25
549.62	156.25
549.833	143.25
550.046	131.25
550.259	146.25
550.473	154.25
550.686	170.25
550.899	164.25
551.112	152.25
551.325	161.25
551.538	152.25
551.751	143.25
551.964	144.25
552.177	143.25
552.39	162.25
552.603	151.25
552.816	149.25
553.029	147.25
553.242	150.25
553.455	155.25
553.667	162.25
553.88	169.25
554.093	155.25
554.306	163.25
554.519	145.25
554.732	154.25
554.944	158.25
555.157	137.25
555.37	147.25
555.583	132.25
555.795	167.25
556.008	139.25
556.221	132.25
556.433	138.25
556.646	142.25
556.859	138.25
557.071	140.25
557.284	133.25
557.496	140.25
557.709	139.25
557.921	134.25
558.134	133.25
558.346	136.25
558.559	134.25
558.771	130.25
558.984	136.25
559.196	150.25
559.409	140.25
559.621	150.25
559.833	150.25
560.046	140.25
560.258	139.25
560.47	135.25
560.683	134.25
560.895	116.25
561.107	144.25
561.32	138.25
561.532	135.25
561.744	131.25
561.956	137.25
562.168	145.25
562.381	137.25
562.593	138.25
562.805	149.25
563.017	151.25
563.229	144.25
563.441	144.25
563.653	137.25
563.865	133.25
564.077	129.25
564.289	152.25
564.501	145.25
564.713	135.25
564.925	131.25
565.137	122.25
565.349	141.25
565.561	139.25
565.773	172.25
565.985	150.25
566.197	154.25
566.408	166.25
566.62	190.25
566.832	181.25
567.044	198.25
567.255	185.25
567.467	190.25
567.679	209.25
567.891	216.25
568.102	218.25
568.314	195.25
568.526	169.25
568.737	186.25
568.949	165.25
569.161	166.25
569.372	161.25
569.584	152.25
569.795	147.25
570.007	131.25
570.218	132.25
570.43	133.25
570.641	134.25
570.853	141.25
571.064	144.25
571.276	138.25
571.487	137.25
571.698	121.25
571.91	114.25
572.121	125.25
572.333	125.25
572.544	125.25
572.755	130.25
572.966	133.25
573.178	147.25
573.389	133.25
573.6	124.25
573.811	136.25
574.023	125.25
574.234	141.25
574.445	141.25
574.656	120.25
574.867	117.25
575.078	130.25
575.289	133.25
575.501	135.25
575.712	134.25
575.923	120.25
576.134	121.25
576.345	123.25
576.556	129.25
576.767	123.25
576.978	124.25
577.188	114.25
577.399	116.25
577.61	120.25
577.821	124.25
578.032	114.25
578.243	120.25
578.454	112.25
578.665	130.25
578.875	113.25
579.086	128.25
579.297	127.25
579.508	122.25
579.718	132.25
579.929	122.25
580.14	121.25
580.35	136.25
580.561	133.25
580.772	126.25
580.982	120.25
581.193	118.25
581.403	115.25
581.614	126.25
581.825	117.25
582.035	109.25
582.246	122.25
582.456	122.25
582.667	119.25
582.877	112.25
583.087	116.25
583.298	122.25
583.508	110.25
583.719	112.25
583.929	123.25
584.139	112.25
584.35	125.25
584.56	124.25
584.77	107.25
584.981	120.25
585.191	116.25
585.401	113.25
585.611	113.25
585.821	118.25
586.032	134.25
586.242	106.25
586.452	114.25
586.662	124.25
586.872	124.25
587.082	108.25
587.292	120.25
587.502	131.25
587.713	123.25
587.923	114.25
588.133	121.25
588.343	120.25
588.553	109.25
588.762	114.25
588.972	109.25
589.182	108.25
589.392	106.25
589.602	121.25
589.812	119.25
590.022	134.25
590.232	114.25
590.441	131.25
590.651	109.25
590.861	112.25
591.071	122.25
591.281	119.25
591.49	131.25
591.7	114.25
591.91	114.25
592.119	133.25
592.329	125.25
592.539	115.25
592.748	150.25
592.958	118.25
593.167	121.25
593.377	120.25
593.587	153.25
593.796	138.25
594.006	128.25
594.215	137.25
594.424	133.25
594.634	128.25
594.843	118.25
595.053	125.25
595.262	126.25
595.472	126.25
595.681	130.25
595.89	125.25
596.1	116.25
596.309	107.25
596.518	109.25
596.727	121.25
596.937	124.25
597.146	92.25
597.355	127.25
597.564	112.25
597.774	131.25
597.983	114.25
598.192	105.25
598.401	116.25
598.61	98.25
598.819	129.25
599.028	117.25
599.237	121.25
599.446	116.25
599.655	115.25
599.864	105.25
600.073	104.25
600.282	109.25
600.491	104.25
600.7	104.25
600.909	118.25
601.118	118.25
601.327	107.25
601.536	99.25
601.745	116.25
601.953	98.25
602.162	106.25
602.371	110.25
602.58	99.25
602.789	135.25
602.997	98.25
603.206	116.25
603.415	108.25
603.623	104.25
603.832	117.25
604.041	122.25
604.249	110.25
604.458	114.25
604.666	99.25
604.875	109.25
605.084	115.25
605.292	108.25
605.501	105.25
605.709	108.25
605.918	111.25
606.126	108.25
606.334	114.25
606.543	124.25
606.751	125.25
606.96	121.25
607.168	101.25
607.376	121.25
607.585	114.25
607.793	107.25
608.001	100.25
608.21	99.25
608.418	119.25
608.626	102.25
608.834	108.25
609.043	110.25
609.251	110.25
609.459	100.25
609.667	113.25
609.875	99.25
610.083	107.25
610.291	105.25
610.499	113.25
610.707	88.25
610.916	106.25
611.124	97.25
611.332	96.25
611.54	105.25
611.748	100.25
611.955	102.25
612.163	105.25
612.371	121.25
612.579	103.25
612.787	98.25
612.995	128.25
613.203	118.25
613.411	112.25
613.618	91.25
613.826	108.25
614.034	107.25
614.242	115.25
614.449	110.25
614.657	107.25
614.865	102.25
615.072	108.25
615.28	114.25
615.488	119.25
615.695	98.25
615.903	111.25
616.111	104.25
616.318	112.25
616.526	106.25
616.733	111.25
616.941	110.25
617.148	117.25
617.356	116.25
617.563	88.25
617.771	120.25
617.978	102.25
618.185	120.25
618.393	108.25
618.6	104.25
618.807	99.25
619.015	105.25
619.222	114.25
619.429	113.25
619.637	102.25
619.844	111.25
620.051	93.25
620.258	96.25
620.466	100.25
620.673	102.25
620.88	97.25
621.087	109.25
621.294	109.25
621.501	98.25
621.708	115.25
621.915	114.25
622.122	105.25
622.329	94.25
622.536	114.25
622.743	96.25
622.95	90.25
623.157	117.25
623.364	103.25
623.571	112.25
623.778	103.25
623.985	111.25
624.192	99.25
624.399	108.25
624.606	110.25
624.812	109.25
625.019	101.25
625.226	116.25
625.433	104.25
625.639	106.25
625.846	106.25
626.053	100.25
626.259	108.25
626.466	103.25
626.673	113.25
626.879	108.25
627.086	116.25
627.293	128.25
627.499	99.25
627.706	106.25
627.912	104.25
628.119	105.25
628.325	105.25
628.532	99.25
628.738	97.25
628.945	100.25
629.151	103.25
629.357	101.25
629.564	112.25
629.77	96.25
629.976	98.25
630.183	89.25
630.389	108.25
630.595	96.25
630.802	101.25
631.008	100.25
631.214	121.25
631.42	78.25
631.627	99.25
631.833	93.25
632.039	93.25
632.245	92.25
632.451	99.25
632.657	99.25
632.863	110.25
633.069	115.25
633.275	103.25
633.481	112.25
633.688	99.25
633.893	100.25
634.099	93.25
634.305	108.25
634.511	98.25
634.717	95.25
634.923	93.25
635.129	88.25
635.335	90.25
635.541	96.25
635.747	114.25
635.952	86.25
636.158	99.25
636.364	97.25
636.57	86.25
636.775	112.25
636.981	102.25
637.187	91.25
637.392	88.25
637.598	109.25
637.804	100.25
638.009	108.25
638.215	96.25
638.421	102.25
638.626	94.25
638.832	105.25
639.037	103.25
639.243	102.25
639.448	108.25
639.654	121.25
639.859	94.25
640.065	108.25
640.27	111.25
640.475	97.25
640.681	97.25
640.886	102.25
641.091	98.25
641.297	106.25
641.502	113.25
641.707	89.25
641.913	105.25
642.118	90.25
642.323	86.25
642.528	98.25
642.733	107.25
642.939	88.25
643.144	108.25
643.349	91.25
643.554	89.25
643.759	93.25
643.964	88.25
644.169	93.25
644.374	91.25
644.579	90.25
644.784	90.25
644.989	91.25
645.194	115.25
645.399	106.25
645.604	102.25
645.809	105.25
646.014	102.25
646.219	105.25
646.423	91.25
646.628	92.25
646.833	109.25
647.038	107.25
647.243	100.25
647.447	100.25
647.652	94.25
647.857	105.25
648.062	97.25
648.266	108.25
648.471	102.25
648.676	97.25
648.88	91.25
649.085	91.25
649.289	113.25
649.494	104.25
649.698	100.25
649.903	94.25
650.107	90.25
650.312	113.25
650.516	93.25
650.721	92.25
650.925	97.25
651.13	86.25
651.334	90.25
651.539	96.25
651.743	85.25
651.947	96.25
652.152	101.25
652.356	103.25
652.56	88.25
652.764	90.25
652.969	79.25
653.173	72.25
653.377	88.25
653.581	84.25
653.785	90.25
653.99	77.25
654.194	97.25
654.398	74.25
654.602	95.25
654.806	96.25
655.01	109.25
655.214	109.25
655.418	93.25
655.622	83.25
655.826	111.25
656.03	96.25
656.234	90.25
656.438	94.25
656.642	76.25
656.846	81.25
657.049	98.25
657.253	80.25
657.457	102.25
657.661	99.25
657.865	92.25
658.068	92.25
658.272	84.25
658.476	90.25
658.68	69.25
658.883	71.25
659.087	88.25
659.291	83.25
659.494	98.25
659.698	84.25
659.901	84.25
660.105	80.25
660.309	84.25
660.512	70.25
660.716	86.25
660.919	71.25
661.123	92.25
661.326	104.25
661.53	88.25
661.733	89.25
661.936	100.25
662.14	85.25
662.343	61.25
662.546	86.25
662.75	81.25
662.953	85.25
663.156	107.25
663.36	100.25
663.563	72.25
663.766	78.25
663.969	87.25
664.173	80.25
664.376	92.25
664.579	80.25
664.782	76.25
664.985	76.25
665.188	87.25
665.391	72.25
665.594	82.25
665.797	89.25
666	79.25
666.203	78.25
666.406	72.25
666.609	86.25
666.812	74.25
667.015	75.25
667.218	84.25
667.421	74.25
667.624	88.25
667.827	75.25
668.03	77.25
668.232	89.25
668.435	66.25
668.638	83.25
668.841	108.25
669.043	85.25
669.246	81.25
669.449	69.25
669.651	65.25
669.854	73.25
670.057	84.25
670.259	75.25
670.462	85.25
670.665	82.25
670.867	87.25
671.07	66.25
671.272	93.25
671.475	93.25
671.677	75.25
671.88	73.25
672.082	71.25
672.284	81.25
672.487	71.25
672.689	85.25
672.892	82.25
