Data from SampG_HRD10591_00096.txt Node
Date: Mon Jan 19 11:54:16 EST 2026
User: Yrep
Spectrometer: HR+D1059
Trigger mode: 0
Integration Time (sec): 3.443000E-1
Scans to average: 1
Electric dark correction enabled: true
Nonlinearity correction enabled: false
Boxcar width: 0
XAxis mode: Wavelengths
Number of Pixels in Spectrum: 2048
>>>>>Begin Spectral Data<<<<<
223.165	-25.62
223.4	-25.62
223.635	-25.62
223.869	-25.62
224.104	-9.62
224.338	-11.62
224.573	-11.62
224.808	-9.62
225.042	-6.62
225.277	-16.62
225.511	0.38
225.746	2.38
225.98	12.38
226.215	2.38
226.449	7.38
226.683	26.38
226.918	24.38
227.152	41.38
227.387	30.38
227.621	29.38
227.856	50.38
228.09	40.38
228.324	42.38
228.559	65.38
228.793	53.38
229.027	61.38
229.262	68.38
229.496	74.38
229.73	74.38
229.964	92.38
230.199	77.38
230.433	73.38
230.667	82.38
230.901	82.38
231.136	77.38
231.37	82.38
231.604	94.38
231.838	84.38
232.072	93.38
232.306	93.38
232.541	77.38
232.775	86.38
233.009	76.38
233.243	87.38
233.477	98.38
233.711	83.38
233.945	83.38
234.179	88.38
234.413	86.38
234.647	96.38
234.881	96.38
235.115	82.38
235.349	86.38
235.583	83.38
235.817	86.38
236.051	69.38
236.285	90.38
236.519	76.38
236.753	72.38
236.987	75.38
237.221	73.38
237.455	68.38
237.689	76.38
237.922	80.38
238.156	72.38
238.39	82.38
238.624	80.38
238.858	86.38
239.091	71.38
239.325	73.38
239.559	84.38
239.793	96.38
240.027	83.38
240.26	90.38
240.494	88.38
240.728	78.38
240.961	74.38
241.195	86.38
241.429	88.38
241.662	82.38
241.896	80.38
242.13	77.38
242.363	75.38
242.597	86.38
242.83	85.38
243.064	76.38
243.298	87.38
243.531	71.38
243.765	78.38
243.998	76.38
244.232	96.38
244.465	84.38
244.699	82.38
244.932	99.38
245.166	68.38
245.399	72.38
245.633	83.38
245.866	69.38
246.099	85.38
246.333	86.38
246.566	75.38
246.8	80.38
247.033	78.38
247.266	81.38
247.5	86.38
247.733	95.38
247.966	89.38
248.2	83.38
248.433	80.38
248.666	84.38
248.899	78.38
249.133	77.38
249.366	85.38
249.599	82.38
249.832	86.38
250.066	96.38
250.299	84.38
250.532	76.38
250.765	75.38
250.998	83.38
251.231	88.38
251.465	86.38
251.698	78.38
251.931	81.38
252.164	85.38
252.397	88.38
252.63	71.38
252.863	93.38
253.096	83.38
253.329	76.38
253.562	82.38
253.795	84.38
254.028	101.38
254.261	83.38
254.494	87.38
254.727	103.38
254.96	77.38
255.193	84.38
255.426	79.38
255.659	70.38
255.892	89.38
256.124	72.38
256.357	88.38
256.59	80.38
256.823	72.38
257.056	83.38
257.289	73.38
257.521	89.38
257.754	77.38
257.987	82.38
258.22	93.38
258.452	96.38
258.685	91.38
258.918	103.38
259.151	82.38
259.383	72.38
259.616	74.38
259.849	85.38
260.081	86.38
260.314	82.38
260.547	87.38
260.779	78.38
261.012	103.38
261.244	95.38
261.477	99.38
261.71	72.38
261.942	85.38
262.175	84.38
262.407	76.38
262.64	91.38
262.872	87.38
263.105	102.38
263.337	90.38
263.57	93.38
263.802	107.38
264.035	91.38
264.267	99.38
264.499	88.38
264.732	90.38
264.964	105.38
265.197	88.38
265.429	102.38
265.661	100.38
265.894	84.38
266.126	99.38
266.358	93.38
266.591	89.38
266.823	95.38
267.055	93.38
267.287	96.38
267.52	81.38
267.752	85.38
267.984	84.38
268.216	97.38
268.448	88.38
268.681	93.38
268.913	90.38
269.145	83.38
269.377	90.38
269.609	107.38
269.841	98.38
270.073	90.38
270.306	90.38
270.538	95.38
270.77	86.38
271.002	98.38
271.234	104.38
271.466	90.38
271.698	92.38
271.93	85.38
272.162	97.38
272.394	103.38
272.626	78.38
272.858	90.38
273.09	90.38
273.322	90.38
273.553	98.38
273.785	96.38
274.017	97.38
274.249	99.38
274.481	85.38
274.713	101.38
274.945	90.38
275.176	93.38
275.408	91.38
275.64	93.38
275.872	85.38
276.104	101.38
276.335	94.38
276.567	87.38
276.799	96.38
277.031	82.38
277.262	100.38
277.494	99.38
277.726	94.38
277.957	94.38
278.189	85.38
278.421	97.38
278.652	94.38
278.884	85.38
279.115	102.38
279.347	100.38
279.579	88.38
279.81	86.38
280.042	110.38
280.273	88.38
280.505	104.38
280.736	94.38
280.968	104.38
281.199	100.38
281.431	109.38
281.662	110.38
281.894	110.38
282.125	105.38
282.356	105.38
282.588	103.38
282.819	101.38
283.051	95.38
283.282	87.38
283.513	109.38
283.745	90.38
283.976	105.38
284.207	108.38
284.439	91.38
284.67	101.38
284.901	92.38
285.132	107.38
285.364	106.38
285.595	92.38
285.826	98.38
286.057	104.38
286.288	94.38
286.52	107.38
286.751	89.38
286.982	104.38
287.213	94.38
287.444	103.38
287.675	104.38
287.906	119.38
288.138	102.38
288.369	96.38
288.6	94.38
288.831	86.38
289.062	79.38
289.293	82.38
289.524	89.38
289.755	108.38
289.986	85.38
290.217	107.38
290.448	97.38
290.679	100.38
290.91	105.38
291.141	99.38
291.371	113.38
291.602	101.38
291.833	94.38
292.064	107.38
292.295	104.38
292.526	100.38
292.757	110.38
292.987	96.38
293.218	118.38
293.449	105.38
293.68	94.38
293.91	81.38
294.141	104.38
294.372	90.38
294.603	99.38
294.833	101.38
295.064	102.38
295.295	85.38
295.525	97.38
295.756	115.38
295.987	94.38
296.217	108.38
296.448	116.38
296.679	87.38
296.909	113.38
297.14	100.38
297.37	106.38
297.601	100.38
297.831	92.38
298.062	106.38
298.292	96.38
298.523	105.38
298.753	96.38
298.984	101.38
299.214	106.38
299.445	105.38
299.675	103.38
299.905	109.38
300.136	106.38
300.366	116.38
300.597	92.38
300.827	105.38
301.057	101.38
301.288	102.38
301.518	102.38
301.748	100.38
301.979	125.38
302.209	102.38
302.439	105.38
302.669	104.38
302.9	93.38
303.13	96.38
303.36	91.38
303.59	114.38
303.82	105.38
304.051	112.38
304.281	107.38
304.511	113.38
304.741	100.38
304.971	95.38
305.201	106.38
305.431	86.38
305.661	115.38
305.891	105.38
306.121	108.38
306.352	99.38
306.582	100.38
306.812	101.38
307.042	101.38
307.272	101.38
307.502	101.38
307.731	115.38
307.961	116.38
308.191	103.38
308.421	112.38
308.651	122.38
308.881	107.38
309.111	100.38
309.341	103.38
309.571	96.38
309.8	106.38
310.03	106.38
310.26	116.38
310.49	109.38
310.72	109.38
310.949	103.38
311.179	109.38
311.409	99.38
311.639	100.38
311.868	113.38
312.098	90.38
312.328	91.38
312.557	105.38
312.787	94.38
313.017	103.38
313.246	113.38
313.476	106.38
313.706	92.38
313.935	122.38
314.165	113.38
314.394	107.38
314.624	104.38
314.853	107.38
315.083	98.38
315.312	103.38
315.542	104.38
315.771	104.38
316.001	104.38
316.23	96.38
316.46	96.38
316.689	105.38
316.919	109.38
317.148	107.38
317.377	108.38
317.607	94.38
317.836	96.38
318.065	106.38
318.295	97.38
318.524	109.38
318.753	99.38
318.983	85.38
319.212	111.38
319.441	108.38
319.67	105.38
319.9	115.38
320.129	113.38
320.358	112.38
320.587	107.38
320.816	107.38
321.046	109.38
321.275	113.38
321.504	99.38
321.733	109.38
321.962	99.38
322.191	97.38
322.42	105.38
322.649	103.38
322.878	96.38
323.108	113.38
323.337	106.38
323.566	109.38
323.795	104.38
324.024	121.38
324.253	85.38
324.482	96.38
324.71	104.38
324.939	107.38
325.168	121.38
325.397	116.38
325.626	114.38
325.855	106.38
326.084	109.38
326.313	114.38
326.542	113.38
326.77	109.38
326.999	104.38
327.228	104.38
327.457	93.38
327.686	98.38
327.914	109.38
328.143	117.38
328.372	101.38
328.6	108.38
328.829	113.38
329.058	94.38
329.287	89.38
329.515	93.38
329.744	117.38
329.972	96.38
330.201	106.38
330.43	93.38
330.658	93.38
330.887	105.38
331.115	93.38
331.344	124.38
331.572	140.38
331.801	109.38
332.03	106.38
332.258	109.38
332.486	105.38
332.715	115.38
332.943	103.38
333.172	118.38
333.4	120.38
333.629	114.38
333.857	116.38
334.085	133.38
334.314	121.38
334.542	114.38
334.771	119.38
334.999	116.38
335.227	123.38
335.455	115.38
335.684	128.38
335.912	120.38
336.14	97.38
336.369	111.38
336.597	118.38
336.825	126.38
337.053	116.38
337.281	96.38
337.51	101.38
337.738	113.38
337.966	111.38
338.194	108.38
338.422	104.38
338.65	107.38
338.878	105.38
339.106	99.38
339.334	108.38
339.562	107.38
339.79	119.38
340.018	110.38
340.246	112.38
340.474	106.38
340.702	124.38
340.93	116.38
341.158	108.38
341.386	116.38
341.614	100.38
341.842	121.38
342.07	116.38
342.298	117.38
342.526	103.38
342.754	100.38
342.981	118.38
343.209	116.38
343.437	137.38
343.665	118.38
343.893	123.38
344.12	123.38
344.348	113.38
344.576	116.38
344.804	102.38
345.031	112.38
345.259	99.38
345.487	89.38
345.714	102.38
345.942	96.38
346.17	97.38
346.397	100.38
346.625	93.38
346.853	97.38
347.08	89.38
347.308	114.38
347.535	104.38
347.763	108.38
347.99	119.38
348.218	118.38
348.445	106.38
348.673	106.38
348.9	115.38
349.128	117.38
349.355	98.38
349.583	100.38
349.81	104.38
350.037	107.38
350.265	106.38
350.492	105.38
350.72	116.38
350.947	106.38
351.174	110.38
351.402	112.38
351.629	110.38
351.856	104.38
352.083	106.38
352.311	113.38
352.538	101.38
352.765	109.38
352.992	130.38
353.22	118.38
353.447	106.38
353.674	114.38
353.901	108.38
354.128	105.38
354.355	102.38
354.583	91.38
354.81	108.38
355.037	110.38
355.264	107.38
355.491	115.38
355.718	104.38
355.945	101.38
356.172	101.38
356.399	110.38
356.626	100.38
356.853	101.38
357.08	111.38
357.307	112.38
357.534	109.38
357.761	93.38
357.988	103.38
358.215	111.38
358.441	93.38
358.668	106.38
358.895	94.38
359.122	109.38
359.349	98.38
359.576	111.38
359.802	116.38
360.029	98.38
360.256	101.38
360.483	103.38
360.709	100.38
360.936	135.38
361.163	89.38
361.39	118.38
361.616	113.38
361.843	105.38
362.07	116.38
362.296	110.38
362.523	110.38
362.749	104.38
362.976	115.38
363.203	114.38
363.429	115.38
363.656	105.38
363.882	77.38
364.109	112.38
364.335	123.38
364.562	101.38
364.788	99.38
365.015	106.38
365.241	108.38
365.468	105.38
365.694	110.38
365.92	101.38
366.147	108.38
366.373	90.38
366.599	109.38
366.826	109.38
367.052	115.38
367.278	120.38
367.505	98.38
367.731	121.38
367.957	97.38
368.184	113.38
368.41	110.38
368.636	93.38
368.862	108.38
369.089	113.38
369.315	100.38
369.541	95.38
369.767	107.38
369.993	116.38
370.219	110.38
370.445	112.38
370.672	113.38
370.898	104.38
371.124	91.38
371.35	106.38
371.576	113.38
371.802	103.38
372.028	119.38
372.254	118.38
372.48	114.38
372.706	107.38
372.932	104.38
373.158	110.38
373.384	116.38
373.61	116.38
373.835	120.38
374.061	105.38
374.287	104.38
374.513	121.38
374.739	129.38
374.965	106.38
375.191	131.38
375.416	116.38
375.642	120.38
375.868	128.38
376.094	96.38
376.319	108.38
376.545	106.38
376.771	105.38
376.997	108.38
377.222	106.38
377.448	114.38
377.674	108.38
377.899	108.38
378.125	103.38
378.35	119.38
378.576	123.38
378.802	114.38
379.027	116.38
379.253	124.38
379.478	112.38
379.704	104.38
379.929	102.38
380.155	100.38
380.38	102.38
380.606	97.38
380.831	110.38
381.057	117.38
381.282	121.38
381.507	110.38
381.733	119.38
381.958	109.38
382.184	115.38
382.409	98.38
382.634	115.38
382.86	109.38
383.085	119.38
383.31	107.38
383.535	112.38
383.761	124.38
383.986	115.38
384.211	111.38
384.436	111.38
384.662	115.38
384.887	109.38
385.112	107.38
385.337	124.38
385.562	129.38
385.787	107.38
386.013	114.38
386.238	132.38
386.463	107.38
386.688	150.38
386.913	120.38
387.138	122.38
387.363	113.38
387.588	120.38
387.813	106.38
388.038	94.38
388.263	122.38
388.488	120.38
388.713	117.38
388.938	119.38
389.163	102.38
389.387	117.38
389.612	120.38
389.837	104.38
390.062	116.38
390.287	114.38
390.512	105.38
390.736	113.38
390.961	112.38
391.186	137.38
391.411	113.38
391.636	112.38
391.86	105.38
392.085	118.38
392.31	108.38
392.534	116.38
392.759	111.38
392.984	125.38
393.208	120.38
393.433	130.38
393.658	121.38
393.882	122.38
394.107	101.38
394.331	122.38
394.556	124.38
394.78	130.38
395.005	116.38
395.229	119.38
395.454	137.38
395.678	121.38
395.903	120.38
396.127	129.38
396.352	123.38
396.576	110.38
396.801	118.38
397.025	99.38
397.249	121.38
397.474	133.38
397.698	119.38
397.922	115.38
398.147	129.38
398.371	118.38
398.595	137.38
398.82	130.38
399.044	121.38
399.268	129.38
399.492	146.38
399.717	168.38
399.941	149.38
400.165	148.38
400.389	131.38
400.613	130.38
400.837	132.38
401.062	133.38
401.286	141.38
401.51	120.38
401.734	122.38
401.958	128.38
402.182	117.38
402.406	106.38
402.63	125.38
402.854	114.38
403.078	125.38
403.302	119.38
403.526	125.38
403.75	139.38
403.974	130.38
404.198	138.38
404.422	131.38
404.645	125.38
404.869	124.38
405.093	129.38
405.317	116.38
405.541	125.38
405.765	133.38
405.988	126.38
406.212	142.38
406.436	118.38
406.66	151.38
406.883	137.38
407.107	149.38
407.331	137.38
407.555	140.38
407.778	128.38
408.002	139.38
408.226	142.38
408.449	125.38
408.673	115.38
408.896	139.38
409.12	134.38
409.344	138.38
409.567	122.38
409.791	123.38
410.014	133.38
410.238	125.38
410.461	139.38
410.685	137.38
410.908	118.38
411.132	120.38
411.355	119.38
411.578	127.38
411.802	126.38
412.025	121.38
412.249	126.38
412.472	132.38
412.695	125.38
412.919	127.38
413.142	116.38
413.365	129.38
413.589	121.38
413.812	116.38
414.035	121.38
414.258	127.38
414.482	140.38
414.705	132.38
414.928	126.38
415.151	128.38
415.374	128.38
415.597	134.38
415.821	123.38
416.044	129.38
416.267	120.38
416.49	126.38
416.713	109.38
416.936	126.38
417.159	118.38
417.382	129.38
417.605	117.38
417.828	141.38
418.051	128.38
418.274	113.38
418.497	129.38
418.72	130.38
418.943	131.38
419.166	126.38
419.389	129.38
419.611	133.38
419.834	118.38
420.057	118.38
420.28	126.38
420.503	123.38
420.726	131.38
420.948	126.38
421.171	126.38
421.394	129.38
421.617	120.38
421.839	123.38
422.062	141.38
422.285	119.38
422.507	124.38
422.73	119.38
422.953	118.38
423.175	114.38
423.398	119.38
423.621	126.38
423.843	138.38
424.066	128.38
424.288	135.38
424.511	120.38
424.733	123.38
424.956	123.38
425.178	124.38
425.401	126.38
425.623	110.38
425.846	124.38
426.068	116.38
426.291	122.38
426.513	123.38
426.735	131.38
426.958	126.38
427.18	108.38
427.402	122.38
427.625	125.38
427.847	119.38
428.069	119.38
428.292	114.38
428.514	126.38
428.736	116.38
428.958	124.38
429.181	136.38
429.403	119.38
429.625	121.38
429.847	125.38
430.069	127.38
430.292	124.38
430.514	109.38
430.736	123.38
430.958	140.38
431.18	98.38
431.402	113.38
431.624	123.38
431.846	138.38
432.068	112.38
432.29	136.38
432.512	123.38
432.734	137.38
432.956	125.38
433.178	128.38
433.4	116.38
433.622	138.38
433.844	123.38
434.066	112.38
434.287	121.38
434.509	128.38
434.731	129.38
434.953	126.38
435.175	119.38
435.397	133.38
435.618	125.38
435.84	112.38
436.062	120.38
436.284	105.38
436.505	124.38
436.727	103.38
436.949	115.38
437.17	117.38
437.392	107.38
437.614	110.38
437.835	119.38
438.057	113.38
438.278	106.38
438.5	119.38
438.721	114.38
438.943	113.38
439.165	126.38
439.386	92.38
439.608	130.38
439.829	131.38
440.05	121.38
440.272	102.38
440.493	117.38
440.715	124.38
440.936	118.38
441.158	117.38
441.379	137.38
441.6	124.38
441.822	129.38
442.043	129.38
442.264	124.38
442.486	142.38
442.707	122.38
442.928	116.38
443.149	106.38
443.371	134.38
443.592	120.38
443.813	106.38
444.034	121.38
444.255	138.38
444.476	134.38
444.698	131.38
444.919	144.38
445.14	336.38
445.361	209.38
445.582	125.38
445.803	130.38
446.024	131.38
446.245	127.38
446.466	119.38
446.687	121.38
446.908	117.38
447.129	121.38
447.35	139.38
447.571	128.38
447.792	105.38
448.013	95.38
448.234	121.38
448.455	108.38
448.675	133.38
448.896	108.38
449.117	114.38
449.338	120.38
449.559	116.38
449.779	102.38
450	121.38
450.221	110.38
450.442	108.38
450.662	115.38
450.883	130.38
451.104	107.38
451.324	106.38
451.545	117.38
451.766	110.38
451.986	109.38
452.207	109.38
452.428	114.38
452.648	129.38
452.869	113.38
453.089	117.38
453.31	111.38
453.53	119.38
453.751	102.38
453.971	124.38
454.192	118.38
454.412	124.38
454.633	101.38
454.853	109.38
455.073	122.38
455.294	111.38
455.514	110.38
455.734	109.38
455.955	119.38
456.175	109.38
456.395	110.38
456.616	118.38
456.836	111.38
457.056	106.38
457.276	98.38
457.497	112.38
457.717	107.38
457.937	107.38
458.157	109.38
458.377	127.38
458.598	118.38
458.818	114.38
459.038	108.38
459.258	106.38
459.478	115.38
459.698	130.38
459.918	110.38
460.138	124.38
460.358	127.38
460.578	147.38
460.798	125.38
461.018	128.38
461.238	148.38
461.458	135.38
461.678	141.38
461.898	130.38
462.118	150.38
462.338	131.38
462.558	139.38
462.777	139.38
462.997	140.38
463.217	149.38
463.437	151.38
463.657	139.38
463.876	154.38
464.096	133.38
464.316	130.38
464.536	122.38
464.755	124.38
464.975	128.38
465.195	122.38
465.414	126.38
465.634	135.38
465.854	112.38
466.073	121.38
466.293	123.38
466.512	119.38
466.732	116.38
466.951	107.38
467.171	109.38
467.391	92.38
467.61	121.38
467.829	105.38
468.049	111.38
468.268	129.38
468.488	116.38
468.707	106.38
468.927	117.38
469.146	102.38
469.365	119.38
469.585	108.38
469.804	120.38
470.023	118.38
470.243	128.38
470.462	128.38
470.681	108.38
470.901	119.38
471.12	133.38
471.339	125.38
471.558	115.38
471.777	114.38
471.997	118.38
472.216	128.38
472.435	103.38
472.654	115.38
472.873	120.38
473.092	126.38
473.311	107.38
473.53	111.38
473.749	99.38
473.968	125.38
474.187	129.38
474.406	110.38
474.625	125.38
474.844	121.38
475.063	116.38
475.282	118.38
475.501	116.38
475.72	134.38
475.939	113.38
476.158	112.38
476.377	120.38
476.596	133.38
476.814	112.38
477.033	118.38
477.252	139.38
477.471	119.38
477.69	115.38
477.908	122.38
478.127	130.38
478.346	128.38
478.564	124.38
478.783	108.38
479.002	130.38
479.22	131.38
479.439	132.38
479.658	122.38
479.876	126.38
480.095	126.38
480.313	134.38
480.532	137.38
480.751	129.38
480.969	126.38
481.188	147.38
481.406	125.38
481.624	112.38
481.843	125.38
482.061	131.38
482.28	110.38
482.498	128.38
482.717	116.38
482.935	118.38
483.153	119.38
483.372	122.38
483.59	113.38
483.808	129.38
484.027	121.38
484.245	116.38
484.463	130.38
484.681	149.38
484.9	120.38
485.118	128.38
485.336	125.38
485.554	129.38
485.772	134.38
485.99	130.38
486.209	120.38
486.427	126.38
486.645	136.38
486.863	132.38
487.081	134.38
487.299	128.38
487.517	123.38
487.735	135.38
487.953	126.38
488.171	119.38
488.389	120.38
488.607	118.38
488.825	118.38
489.043	132.38
489.261	139.38
489.479	122.38
489.696	139.38
489.914	123.38
490.132	121.38
490.35	118.38
490.568	122.38
490.786	119.38
491.003	136.38
491.221	121.38
491.439	109.38
491.657	131.38
491.874	138.38
492.092	120.38
492.31	113.38
492.527	125.38
492.745	136.38
492.963	131.38
493.18	126.38
493.398	134.38
493.615	123.38
493.833	134.38
494.05	129.38
494.268	127.38
494.485	125.38
494.703	118.38
494.92	133.38
495.138	127.38
495.355	131.38
495.573	137.38
495.79	130.38
496.008	112.38
496.225	117.38
496.442	128.38
496.66	133.38
496.877	135.38
497.094	155.38
497.312	125.38
497.529	138.38
497.746	131.38
497.963	114.38
498.181	149.38
498.398	147.38
498.615	147.38
498.832	159.38
499.049	166.38
499.267	174.38
499.484	174.38
499.701	209.38
499.918	192.38
500.135	212.38
500.352	240.38
500.569	229.38
500.786	239.38
501.003	232.38
501.22	186.38
501.437	181.38
501.654	181.38
501.871	160.38
502.088	168.38
502.305	160.38
502.522	144.38
502.739	135.38
502.956	152.38
503.172	141.38
503.389	132.38
503.606	141.38
503.823	129.38
504.04	137.38
504.256	147.38
504.473	134.38
504.69	150.38
504.907	160.38
505.123	146.38
505.34	135.38
505.557	132.38
505.773	141.38
505.99	128.38
506.207	123.38
506.423	121.38
506.64	122.38
506.856	125.38
507.073	127.38
507.289	128.38
507.506	128.38
507.722	118.38
507.939	132.38
508.155	133.38
508.372	120.38
508.588	111.38
508.805	117.38
509.021	127.38
509.238	125.38
509.454	123.38
509.67	116.38
509.887	117.38
510.103	118.38
510.319	111.38
510.536	128.38
510.752	121.38
510.968	117.38
511.184	121.38
511.401	120.38
511.617	129.38
511.833	127.38
512.049	128.38
512.265	117.38
512.481	105.38
512.698	108.38
512.914	116.38
513.13	111.38
513.346	111.38
513.562	111.38
513.778	126.38
513.994	110.38
514.21	124.38
514.426	120.38
514.642	116.38
514.858	111.38
515.074	104.38
515.29	140.38
515.506	119.38
515.721	122.38
515.937	133.38
516.153	121.38
516.369	121.38
516.585	125.38
516.801	107.38
517.016	124.38
517.232	131.38
517.448	131.38
517.664	128.38
517.879	142.38
518.095	139.38
518.311	140.38
518.527	136.38
518.742	137.38
518.958	130.38
519.173	141.38
519.389	133.38
519.605	124.38
519.82	131.38
520.036	121.38
520.251	126.38
520.467	124.38
520.682	110.38
520.898	108.38
521.113	127.38
521.329	124.38
521.544	117.38
521.76	107.38
521.975	137.38
522.19	125.38
522.406	116.38
522.621	117.38
522.836	108.38
523.052	115.38
523.267	113.38
523.482	122.38
523.698	115.38
523.913	111.38
524.128	120.38
524.343	110.38
524.559	121.38
524.774	111.38
524.989	133.38
525.204	111.38
525.419	106.38
525.634	112.38
525.849	105.38
526.064	119.38
526.28	111.38
526.495	127.38
526.71	108.38
526.925	109.38
527.14	106.38
527.355	109.38
527.57	116.38
527.785	118.38
527.999	109.38
528.214	121.38
528.429	105.38
528.644	107.38
528.859	109.38
529.074	122.38
529.289	118.38
529.503	119.38
529.718	105.38
529.933	122.38
530.148	114.38
530.363	124.38
530.577	110.38
530.792	124.38
531.007	117.38
531.221	116.38
531.436	99.38
531.651	120.38
531.865	130.38
532.08	108.38
532.295	128.38
532.509	104.38
532.724	110.38
532.938	122.38
533.153	111.38
533.367	109.38
533.582	123.38
533.796	116.38
534.011	116.38
534.225	105.38
534.44	105.38
534.654	123.38
534.868	101.38
535.083	130.38
535.297	126.38
535.511	133.38
535.726	125.38
535.94	113.38
536.154	121.38
536.369	114.38
536.583	99.38
536.797	119.38
537.011	119.38
537.225	104.38
537.44	121.38
537.654	123.38
537.868	115.38
538.082	117.38
538.296	106.38
538.51	118.38
538.724	121.38
538.938	114.38
539.153	117.38
539.367	115.38
539.581	99.38
539.795	99.38
540.009	124.38
540.222	110.38
540.436	115.38
540.65	103.38
540.864	107.38
541.078	100.38
541.292	113.38
541.506	113.38
541.72	122.38
541.934	116.38
542.147	124.38
542.361	111.38
542.575	108.38
542.789	115.38
543.002	106.38
543.216	133.38
543.43	118.38
543.644	118.38
543.857	120.38
544.071	109.38
544.285	130.38
544.498	108.38
544.712	118.38
544.925	113.38
545.139	120.38
545.352	110.38
545.566	115.38
545.779	109.38
545.993	122.38
546.206	113.38
546.42	111.38
546.633	116.38
546.847	131.38
547.06	109.38
547.274	118.38
547.487	110.38
547.7	118.38
547.914	117.38
548.127	113.38
548.34	121.38
548.554	115.38
548.767	116.38
548.98	101.38
549.193	106.38
549.407	112.38
549.62	119.38
549.833	111.38
550.046	109.38
550.259	117.38
550.473	109.38
550.686	134.38
550.899	103.38
551.112	107.38
551.325	108.38
551.538	107.38
551.751	120.38
551.964	106.38
552.177	120.38
552.39	102.38
552.603	124.38
552.816	123.38
553.029	125.38
553.242	103.38
553.455	105.38
553.667	126.38
553.88	128.38
554.093	113.38
554.306	108.38
554.519	100.38
554.732	112.38
554.944	113.38
555.157	106.38
555.37	100.38
555.583	107.38
555.795	106.38
556.008	113.38
556.221	113.38
556.433	106.38
556.646	123.38
556.859	104.38
557.071	118.38
557.284	110.38
557.496	104.38
557.709	99.38
557.921	108.38
558.134	112.38
558.346	103.38
558.559	94.38
558.771	108.38
558.984	108.38
559.196	125.38
559.409	118.38
559.621	118.38
559.833	105.38
560.046	111.38
560.258	110.38
560.47	107.38
560.683	103.38
560.895	106.38
561.107	106.38
561.32	105.38
561.532	101.38
561.744	110.38
561.956	107.38
562.168	98.38
562.381	116.38
562.593	112.38
562.805	120.38
563.017	105.38
563.229	122.38
563.441	103.38
563.653	113.38
563.865	114.38
564.077	116.38
564.289	127.38
564.501	102.38
564.713	98.38
564.925	118.38
565.137	107.38
565.349	110.38
565.561	121.38
565.773	131.38
565.985	121.38
566.197	117.38
566.408	125.38
566.62	117.38
566.832	121.38
567.044	138.38
567.255	119.38
567.467	136.38
567.679	140.38
567.891	133.38
568.102	135.38
568.314	141.38
568.526	124.38
568.737	137.38
568.949	122.38
569.161	122.38
569.372	110.38
569.584	118.38
569.795	109.38
570.007	102.38
570.218	113.38
570.43	104.38
570.641	104.38
570.853	121.38
571.064	114.38
571.276	105.38
571.487	127.38
571.698	111.38
571.91	106.38
572.121	96.38
572.333	109.38
572.544	94.38
572.755	110.38
572.966	81.38
573.178	104.38
573.389	106.38
573.6	90.38
573.811	111.38
574.023	114.38
574.234	90.38
574.445	108.38
574.656	101.38
574.867	105.38
575.078	114.38
575.289	118.38
575.501	117.38
575.712	115.38
575.923	109.38
576.134	114.38
576.345	99.38
576.556	107.38
576.767	112.38
576.978	116.38
577.188	107.38
577.399	107.38
577.61	105.38
577.821	106.38
578.032	96.38
578.243	103.38
578.454	99.38
578.665	104.38
578.875	101.38
579.086	123.38
579.297	97.38
579.508	107.38
579.718	103.38
579.929	99.38
580.14	104.38
580.35	98.38
580.561	120.38
580.772	94.38
580.982	100.38
581.193	104.38
581.403	107.38
581.614	108.38
581.825	107.38
582.035	88.38
582.246	109.38
582.456	102.38
582.667	95.38
582.877	97.38
583.087	103.38
583.298	100.38
583.508	103.38
583.719	90.38
583.929	111.38
584.139	121.38
584.35	96.38
584.56	90.38
584.77	112.38
584.981	104.38
585.191	99.38
585.401	94.38
585.611	93.38
585.821	111.38
586.032	99.38
586.242	97.38
586.452	119.38
586.662	88.38
586.872	105.38
587.082	99.38
587.292	105.38
587.502	92.38
587.713	90.38
587.923	104.38
588.133	87.38
588.343	102.38
588.553	106.38
588.762	120.38
588.972	124.38
589.182	87.38
589.392	98.38
589.602	107.38
589.812	92.38
590.022	103.38
590.232	86.38
590.441	104.38
590.651	80.38
590.861	106.38
591.071	101.38
591.281	104.38
591.49	95.38
591.7	106.38
591.91	101.38
592.119	99.38
592.329	99.38
592.539	101.38
592.748	105.38
592.958	121.38
593.167	100.38
593.377	114.38
593.587	146.38
593.796	110.38
594.006	106.38
594.215	96.38
594.424	108.38
594.634	100.38
594.843	101.38
595.053	102.38
595.262	90.38
595.472	105.38
595.681	100.38
595.89	96.38
596.1	120.38
596.309	99.38
596.518	97.38
596.727	95.38
596.937	91.38
597.146	92.38
597.355	87.38
597.564	90.38
597.774	108.38
597.983	90.38
598.192	92.38
598.401	99.38
598.61	96.38
598.819	90.38
599.028	109.38
599.237	85.38
599.446	105.38
599.655	99.38
599.864	100.38
600.073	86.38
600.282	97.38
600.491	99.38
600.7	103.38
600.909	98.38
601.118	83.38
601.327	98.38
601.536	88.38
601.745	96.38
601.953	97.38
602.162	90.38
602.371	96.38
602.58	99.38
602.789	97.38
602.997	88.38
603.206	97.38
603.415	92.38
603.623	92.38
603.832	94.38
604.041	98.38
604.249	96.38
604.458	100.38
604.666	90.38
604.875	96.38
605.084	89.38
605.292	86.38
605.501	89.38
605.709	95.38
605.918	92.38
606.126	101.38
606.334	96.38
606.543	87.38
606.751	88.38
606.96	100.38
607.168	96.38
607.376	105.38
607.585	81.38
607.793	91.38
608.001	78.38
608.21	93.38
608.418	87.38
608.626	95.38
608.834	102.38
609.043	102.38
609.251	94.38
609.459	90.38
609.667	107.38
609.875	98.38
610.083	94.38
610.291	94.38
610.499	101.38
610.707	95.38
610.916	92.38
611.124	96.38
611.332	107.38
611.54	103.38
611.748	86.38
611.955	93.38
612.163	97.38
612.371	106.38
612.579	100.38
612.787	88.38
612.995	92.38
613.203	107.38
613.411	96.38
613.618	96.38
613.826	93.38
614.034	88.38
614.242	90.38
614.449	84.38
614.657	90.38
614.865	88.38
615.072	86.38
615.28	99.38
615.488	96.38
615.695	88.38
615.903	110.38
616.111	93.38
616.318	116.38
616.526	101.38
616.733	104.38
616.941	90.38
617.148	99.38
617.356	120.38
617.563	102.38
617.771	97.38
617.978	87.38
618.185	109.38
618.393	75.38
618.6	78.38
618.807	101.38
619.015	98.38
619.222	90.38
619.429	98.38
619.637	107.38
619.844	99.38
620.051	93.38
620.258	93.38
620.466	102.38
620.673	93.38
620.88	110.38
621.087	86.38
621.294	92.38
621.501	91.38
621.708	89.38
621.915	92.38
622.122	104.38
622.329	97.38
622.536	97.38
622.743	83.38
622.95	86.38
623.157	94.38
623.364	92.38
623.571	101.38
623.778	97.38
623.985	110.38
624.192	92.38
624.399	72.38
624.606	91.38
624.812	98.38
625.019	92.38
625.226	96.38
625.433	102.38
625.639	103.38
625.846	93.38
626.053	97.38
626.259	78.38
626.466	90.38
626.673	84.38
626.879	95.38
627.086	96.38
627.293	96.38
627.499	91.38
627.706	94.38
627.912	76.38
628.119	81.38
628.325	99.38
628.532	90.38
628.738	86.38
628.945	94.38
629.151	77.38
629.357	83.38
629.564	92.38
629.77	93.38
629.976	86.38
630.183	82.38
630.389	74.38
630.595	85.38
630.802	89.38
631.008	90.38
631.214	89.38
631.42	99.38
631.627	84.38
631.833	91.38
632.039	90.38
632.245	88.38
632.451	97.38
632.657	90.38
632.863	95.38
633.069	87.38
633.275	101.38
633.481	87.38
633.688	77.38
633.893	109.38
634.099	91.38
634.305	82.38
634.511	97.38
634.717	108.38
634.923	86.38
635.129	88.38
635.335	77.38
635.541	92.38
635.747	90.38
635.952	84.38
636.158	93.38
636.364	103.38
636.57	94.38
636.775	85.38
636.981	90.38
637.187	85.38
637.392	71.38
637.598	91.38
637.804	90.38
638.009	93.38
638.215	99.38
638.421	87.38
638.626	85.38
638.832	99.38
639.037	88.38
639.243	87.38
639.448	89.38
639.654	92.38
639.859	105.38
640.065	94.38
640.27	105.38
640.475	101.38
640.681	100.38
640.886	77.38
641.091	88.38
641.297	94.38
641.502	93.38
641.707	90.38
641.913	103.38
642.118	87.38
642.323	88.38
642.528	84.38
642.733	88.38
642.939	90.38
643.144	102.38
643.349	86.38
643.554	95.38
643.759	88.38
643.964	83.38
644.169	100.38
644.374	78.38
644.579	89.38
644.784	84.38
644.989	80.38
645.194	74.38
645.399	96.38
645.604	85.38
645.809	90.38
646.014	81.38
646.219	88.38
646.423	93.38
646.628	91.38
646.833	87.38
647.038	83.38
647.243	98.38
647.447	91.38
647.652	76.38
647.857	91.38
648.062	97.38
648.266	76.38
648.471	94.38
648.676	83.38
648.88	98.38
649.085	81.38
649.289	96.38
649.494	84.38
649.698	98.38
649.903	84.38
650.107	77.38
650.312	100.38
650.516	78.38
650.721	88.38
650.925	85.38
651.13	80.38
651.334	88.38
651.539	75.38
651.743	92.38
651.947	84.38
652.152	96.38
652.356	86.38
652.56	80.38
652.764	84.38
652.969	80.38
653.173	92.38
653.377	84.38
653.581	68.38
653.785	101.38
653.99	90.38
654.194	91.38
654.398	79.38
654.602	83.38
654.806	90.38
655.01	86.38
655.214	80.38
655.418	74.38
655.622	86.38
655.826	91.38
656.03	87.38
656.234	97.38
656.438	92.38
656.642	80.38
656.846	83.38
657.049	88.38
657.253	88.38
657.457	81.38
657.661	78.38
657.865	92.38
658.068	98.38
658.272	84.38
658.476	82.38
658.68	82.38
658.883	73.38
659.087	77.38
659.291	84.38
659.494	90.38
659.698	73.38
659.901	75.38
660.105	77.38
660.309	83.38
660.512	80.38
660.716	85.38
660.919	80.38
661.123	81.38
661.326	82.38
661.53	84.38
661.733	82.38
661.936	88.38
662.14	80.38
662.343	64.38
662.546	77.38
662.75	92.38
662.953	81.38
663.156	119.38
663.36	93.38
663.563	73.38
663.766	84.38
663.969	90.38
664.173	84.38
664.376	84.38
664.579	88.38
664.782	92.38
664.985	88.38
665.188	72.38
665.391	85.38
665.594	77.38
665.797	77.38
666	84.38
666.203	96.38
666.406	84.38
666.609	74.38
666.812	78.38
667.015	72.38
667.218	90.38
667.421	86.38
667.624	84.38
667.827	77.38
668.03	66.38
668.232	87.38
668.435	90.38
668.638	86.38
668.841	83.38
669.043	66.38
669.246	78.38
669.449	84.38
669.651	90.38
669.854	69.38
670.057	74.38
670.259	82.38
670.462	75.38
670.665	80.38
670.867	87.38
671.07	68.38
671.272	80.38
671.475	86.38
671.677	76.38
671.88	87.38
672.082	74.38
672.284	89.38
672.487	81.38
672.689	72.38
672.892	72.38
