Data from SampG_HRD10591_00044.txt Node
Date: Mon Jan 19 11:53:58 EST 2026
User: Yrep
Spectrometer: HR+D1059
Trigger mode: 0
Integration Time (sec): 3.443000E-1
Scans to average: 1
Electric dark correction enabled: true
Nonlinearity correction enabled: false
Boxcar width: 0
XAxis mode: Wavelengths
Number of Pixels in Spectrum: 2048
>>>>>Begin Spectral Data<<<<<
223.165	-15.31
223.4	-15.31
223.635	-15.31
223.869	-14.31
224.104	-23.31
224.338	-10.31
224.573	-18.31
224.808	-7.31
225.042	-4.31
225.277	-20.31
225.511	-9.31
225.746	-10.31
225.98	22.69
226.215	12.69
226.449	17.69
226.683	23.69
226.918	20.69
227.152	35.69
227.387	25.69
227.621	41.69
227.856	38.69
228.09	47.69
228.324	51.69
228.559	68.69
228.793	45.69
229.027	69.69
229.262	69.69
229.496	77.69
229.73	66.69
229.964	82.69
230.199	67.69
230.433	84.69
230.667	84.69
230.901	75.69
231.136	79.69
231.37	76.69
231.604	83.69
231.838	89.69
232.072	85.69
232.306	72.69
232.541	92.69
232.775	82.69
233.009	69.69
233.243	84.69
233.477	84.69
233.711	91.69
233.945	71.69
234.179	95.69
234.413	86.69
234.647	95.69
234.881	83.69
235.115	74.69
235.349	92.69
235.583	93.69
235.817	99.69
236.051	90.69
236.285	77.69
236.519	65.69
236.753	78.69
236.987	83.69
237.221	85.69
237.455	75.69
237.689	81.69
237.922	75.69
238.156	92.69
238.39	85.69
238.624	102.69
238.858	83.69
239.091	81.69
239.325	87.69
239.559	88.69
239.793	72.69
240.027	87.69
240.26	82.69
240.494	76.69
240.728	71.69
240.961	79.69
241.195	83.69
241.429	77.69
241.662	85.69
241.896	105.69
242.13	96.69
242.363	79.69
242.597	65.69
242.83	86.69
243.064	79.69
243.298	73.69
243.531	93.69
243.765	96.69
243.998	89.69
244.232	81.69
244.465	92.69
244.699	82.69
244.932	79.69
245.166	92.69
245.399	85.69
245.633	81.69
245.866	90.69
246.099	80.69
246.333	93.69
246.566	79.69
246.8	79.69
247.033	77.69
247.266	91.69
247.5	81.69
247.733	90.69
247.966	98.69
248.2	96.69
248.433	86.69
248.666	86.69
248.899	96.69
249.133	93.69
249.366	104.69
249.599	97.69
249.832	90.69
250.066	99.69
250.299	93.69
250.532	102.69
250.765	87.69
250.998	88.69
251.231	87.69
251.465	83.69
251.698	84.69
251.931	96.69
252.164	92.69
252.397	72.69
252.63	83.69
252.863	92.69
253.096	90.69
253.329	96.69
253.562	83.69
253.795	99.69
254.028	85.69
254.261	85.69
254.494	93.69
254.727	97.69
254.96	100.69
255.193	96.69
255.426	99.69
255.659	91.69
255.892	95.69
256.124	85.69
256.357	99.69
256.59	95.69
256.823	93.69
257.056	95.69
257.289	89.69
257.521	99.69
257.754	85.69
257.987	90.69
258.22	99.69
258.452	97.69
258.685	103.69
258.918	99.69
259.151	98.69
259.383	87.69
259.616	69.69
259.849	92.69
260.081	105.69
260.314	107.69
260.547	105.69
260.779	102.69
261.012	86.69
261.244	98.69
261.477	106.69
261.71	104.69
261.942	87.69
262.175	95.69
262.407	100.69
262.64	97.69
262.872	98.69
263.105	110.69
263.337	95.69
263.57	100.69
263.802	111.69
264.035	106.69
264.267	108.69
264.499	109.69
264.732	100.69
264.964	104.69
265.197	108.69
265.429	87.69
265.661	104.69
265.894	97.69
266.126	113.69
266.358	116.69
266.591	96.69
266.823	104.69
267.055	94.69
267.287	95.69
267.52	105.69
267.752	100.69
267.984	103.69
268.216	108.69
268.448	106.69
268.681	109.69
268.913	112.69
269.145	94.69
269.377	100.69
269.609	97.69
269.841	103.69
270.073	93.69
270.306	88.69
270.538	107.69
270.77	90.69
271.002	98.69
271.234	91.69
271.466	106.69
271.698	93.69
271.93	92.69
272.162	107.69
272.394	100.69
272.626	97.69
272.858	115.69
273.09	97.69
273.322	112.69
273.553	98.69
273.785	106.69
274.017	92.69
274.249	124.69
274.481	133.69
274.713	100.69
274.945	108.69
275.176	106.69
275.408	112.69
275.64	112.69
275.872	114.69
276.104	124.69
276.335	104.69
276.567	97.69
276.799	108.69
277.031	101.69
277.262	112.69
277.494	111.69
277.726	107.69
277.957	115.69
278.189	126.69
278.421	93.69
278.652	99.69
278.884	103.69
279.115	110.69
279.347	115.69
279.579	97.69
279.81	101.69
280.042	109.69
280.273	106.69
280.505	101.69
280.736	107.69
280.968	110.69
281.199	97.69
281.431	108.69
281.662	113.69
281.894	118.69
282.125	102.69
282.356	106.69
282.588	113.69
282.819	105.69
283.051	100.69
283.282	97.69
283.513	124.69
283.745	122.69
283.976	101.69
284.207	107.69
284.439	100.69
284.67	118.69
284.901	116.69
285.132	109.69
285.364	117.69
285.595	100.69
285.826	122.69
286.057	125.69
286.288	114.69
286.52	123.69
286.751	108.69
286.982	113.69
287.213	113.69
287.444	124.69
287.675	107.69
287.906	114.69
288.138	116.69
288.369	107.69
288.6	109.69
288.831	111.69
289.062	116.69
289.293	113.69
289.524	111.69
289.755	96.69
289.986	109.69
290.217	127.69
290.448	109.69
290.679	130.69
290.91	127.69
291.141	121.69
291.371	103.69
291.602	108.69
291.833	96.69
292.064	117.69
292.295	125.69
292.526	107.69
292.757	123.69
292.987	134.69
293.218	105.69
293.449	119.69
293.68	126.69
293.91	99.69
294.141	119.69
294.372	122.69
294.603	143.69
294.833	124.69
295.064	106.69
295.295	121.69
295.525	121.69
295.756	128.69
295.987	128.69
296.217	109.69
296.448	124.69
296.679	129.69
296.909	114.69
297.14	116.69
297.37	118.69
297.601	128.69
297.831	122.69
298.062	107.69
298.292	125.69
298.523	109.69
298.753	122.69
298.984	116.69
299.214	120.69
299.445	125.69
299.675	127.69
299.905	105.69
300.136	132.69
300.366	118.69
300.597	111.69
300.827	135.69
301.057	118.69
301.288	118.69
301.518	125.69
301.748	123.69
301.979	167.69
302.209	125.69
302.439	126.69
302.669	122.69
302.9	118.69
303.13	124.69
303.36	132.69
303.59	114.69
303.82	120.69
304.051	121.69
304.281	129.69
304.511	127.69
304.741	118.69
304.971	117.69
305.201	128.69
305.431	134.69
305.661	124.69
305.891	127.69
306.121	129.69
306.352	123.69
306.582	129.69
306.812	114.69
307.042	113.69
307.272	115.69
307.502	127.69
307.731	112.69
307.961	127.69
308.191	128.69
308.421	134.69
308.651	127.69
308.881	132.69
309.111	123.69
309.341	111.69
309.571	127.69
309.8	129.69
310.03	120.69
310.26	132.69
310.49	129.69
310.72	130.69
310.949	128.69
311.179	140.69
311.409	108.69
311.639	128.69
311.868	129.69
312.098	133.69
312.328	121.69
312.557	124.69
312.787	128.69
313.017	139.69
313.246	134.69
313.476	130.69
313.706	124.69
313.935	119.69
314.165	130.69
314.394	124.69
314.624	124.69
314.853	147.69
315.083	119.69
315.312	134.69
315.542	125.69
315.771	119.69
316.001	117.69
316.23	123.69
316.46	123.69
316.689	133.69
316.919	130.69
317.148	138.69
317.377	133.69
317.607	121.69
317.836	136.69
318.065	130.69
318.295	123.69
318.524	109.69
318.753	130.69
318.983	120.69
319.212	129.69
319.441	118.69
319.67	132.69
319.9	114.69
320.129	127.69
320.358	125.69
320.587	132.69
320.816	138.69
321.046	123.69
321.275	128.69
321.504	124.69
321.733	136.69
321.962	139.69
322.191	124.69
322.42	115.69
322.649	128.69
322.878	126.69
323.108	126.69
323.337	111.69
323.566	141.69
323.795	117.69
324.024	133.69
324.253	116.69
324.482	136.69
324.71	144.69
324.939	127.69
325.168	131.69
325.397	137.69
325.626	124.69
325.855	139.69
326.084	129.69
326.313	114.69
326.542	125.69
326.77	134.69
326.999	133.69
327.228	118.69
327.457	133.69
327.686	132.69
327.914	136.69
328.143	130.69
328.372	146.69
328.6	145.69
328.829	130.69
329.058	131.69
329.287	131.69
329.515	139.69
329.744	161.69
329.972	119.69
330.201	136.69
330.43	131.69
330.658	137.69
330.887	130.69
331.115	139.69
331.344	135.69
331.572	154.69
331.801	146.69
332.03	152.69
332.258	150.69
332.486	140.69
332.715	144.69
332.943	147.69
333.172	154.69
333.4	141.69
333.629	156.69
333.857	163.69
334.085	163.69
334.314	145.69
334.542	162.69
334.771	165.69
334.999	146.69
335.227	145.69
335.455	139.69
335.684	160.69
335.912	147.69
336.14	149.69
336.369	133.69
336.597	141.69
336.825	136.69
337.053	140.69
337.281	148.69
337.51	139.69
337.738	160.69
337.966	131.69
338.194	130.69
338.422	126.69
338.65	143.69
338.878	131.69
339.106	144.69
339.334	145.69
339.562	129.69
339.79	130.69
340.018	144.69
340.246	131.69
340.474	136.69
340.702	130.69
340.93	136.69
341.158	137.69
341.386	139.69
341.614	138.69
341.842	126.69
342.07	141.69
342.298	134.69
342.526	130.69
342.754	125.69
342.981	123.69
343.209	128.69
343.437	157.69
343.665	151.69
343.893	151.69
344.12	160.69
344.348	146.69
344.576	145.69
344.804	141.69
345.031	120.69
345.259	156.69
345.487	145.69
345.714	147.69
345.942	123.69
346.17	136.69
346.397	133.69
346.625	139.69
346.853	136.69
347.08	130.69
347.308	139.69
347.535	146.69
347.763	135.69
347.99	127.69
348.218	128.69
348.445	129.69
348.673	129.69
348.9	140.69
349.128	136.69
349.355	136.69
349.583	124.69
349.81	132.69
350.037	129.69
350.265	138.69
350.492	122.69
350.72	136.69
350.947	141.69
351.174	136.69
351.402	139.69
351.629	137.69
351.856	123.69
352.083	132.69
352.311	140.69
352.538	128.69
352.765	130.69
352.992	147.69
353.22	128.69
353.447	130.69
353.674	125.69
353.901	130.69
354.128	146.69
354.355	133.69
354.583	128.69
354.81	136.69
355.037	129.69
355.264	141.69
355.491	154.69
355.718	129.69
355.945	147.69
356.172	131.69
356.399	130.69
356.626	132.69
356.853	145.69
357.08	144.69
357.307	137.69
357.534	127.69
357.761	143.69
357.988	157.69
358.215	130.69
358.441	113.69
358.668	127.69
358.895	125.69
359.122	124.69
359.349	139.69
359.576	124.69
359.802	119.69
360.029	149.69
360.256	140.69
360.483	139.69
360.709	120.69
360.936	149.69
361.163	133.69
361.39	125.69
361.616	130.69
361.843	121.69
362.07	121.69
362.296	132.69
362.523	133.69
362.749	130.69
362.976	127.69
363.203	161.69
363.429	132.69
363.656	140.69
363.882	127.69
364.109	139.69
364.335	132.69
364.562	132.69
364.788	127.69
365.015	128.69
365.241	134.69
365.468	132.69
365.694	115.69
365.92	131.69
366.147	147.69
366.373	124.69
366.599	139.69
366.826	136.69
367.052	138.69
367.278	129.69
367.505	136.69
367.731	161.69
367.957	135.69
368.184	139.69
368.41	128.69
368.636	137.69
368.862	162.69
369.089	131.69
369.315	115.69
369.541	128.69
369.767	133.69
369.993	130.69
370.219	133.69
370.445	137.69
370.672	146.69
370.898	135.69
371.124	124.69
371.35	132.69
371.576	140.69
371.802	142.69
372.028	144.69
372.254	139.69
372.48	137.69
372.706	140.69
372.932	140.69
373.158	128.69
373.384	152.69
373.61	138.69
373.835	149.69
374.061	129.69
374.287	136.69
374.513	149.69
374.739	138.69
374.965	144.69
375.191	143.69
375.416	163.69
375.642	143.69
375.868	154.69
376.094	140.69
376.319	145.69
376.545	127.69
376.771	133.69
376.997	118.69
377.222	150.69
377.448	143.69
377.674	149.69
377.899	145.69
378.125	117.69
378.35	141.69
378.576	130.69
378.802	145.69
379.027	140.69
379.253	143.69
379.478	127.69
379.704	126.69
379.929	138.69
380.155	133.69
380.38	126.69
380.606	135.69
380.831	139.69
381.057	137.69
381.282	127.69
381.507	126.69
381.733	132.69
381.958	152.69
382.184	148.69
382.409	138.69
382.634	143.69
382.86	141.69
383.085	139.69
383.31	126.69
383.535	143.69
383.761	163.69
383.986	153.69
384.211	133.69
384.436	144.69
384.662	148.69
384.887	156.69
385.112	159.69
385.337	166.69
385.562	152.69
385.787	151.69
386.013	164.69
386.238	162.69
386.463	144.69
386.688	191.69
386.913	163.69
387.138	164.69
387.363	158.69
387.588	157.69
387.813	172.69
388.038	153.69
388.263	147.69
388.488	152.69
388.713	149.69
388.938	147.69
389.163	149.69
389.387	139.69
389.612	164.69
389.837	152.69
390.062	177.69
390.287	154.69
390.512	149.69
390.736	152.69
390.961	153.69
391.186	156.69
391.411	161.69
391.636	167.69
391.86	173.69
392.085	182.69
392.31	164.69
392.534	164.69
392.759	172.69
392.984	157.69
393.208	146.69
393.433	156.69
393.658	137.69
393.882	161.69
394.107	160.69
394.331	170.69
394.556	160.69
394.78	170.69
395.005	145.69
395.229	138.69
395.454	137.69
395.678	156.69
395.903	162.69
396.127	159.69
396.352	156.69
396.576	157.69
396.801	174.69
397.025	173.69
397.249	167.69
397.474	163.69
397.698	160.69
397.922	163.69
398.147	164.69
398.371	151.69
398.595	167.69
398.82	171.69
399.044	181.69
399.268	207.69
399.492	211.69
399.717	261.69
399.941	218.69
400.165	195.69
400.389	168.69
400.613	181.69
400.837	171.69
401.062	192.69
401.286	186.69
401.51	183.69
401.734	170.69
401.958	170.69
402.182	178.69
402.406	183.69
402.63	159.69
402.854	165.69
403.078	176.69
403.302	184.69
403.526	188.69
403.75	202.69
403.974	208.69
404.198	198.69
404.422	195.69
404.645	197.69
404.869	197.69
405.093	204.69
405.317	175.69
405.541	185.69
405.765	201.69
405.988	179.69
406.212	180.69
406.436	173.69
406.66	182.69
406.883	196.69
407.107	176.69
407.331	206.69
407.555	208.69
407.778	199.69
408.002	186.69
408.226	207.69
408.449	203.69
408.673	191.69
408.896	170.69
409.12	187.69
409.344	179.69
409.567	184.69
409.791	198.69
410.014	180.69
410.238	201.69
410.461	187.69
410.685	183.69
410.908	176.69
411.132	187.69
411.355	173.69
411.578	183.69
411.802	164.69
412.025	187.69
412.249	173.69
412.472	178.69
412.695	171.69
412.919	148.69
413.142	180.69
413.365	171.69
413.589	180.69
413.812	183.69
414.035	173.69
414.258	177.69
414.482	183.69
414.705	186.69
414.928	185.69
415.151	173.69
415.374	167.69
415.597	168.69
415.821	177.69
416.044	160.69
416.267	171.69
416.49	177.69
416.713	172.69
416.936	166.69
417.159	150.69
417.382	167.69
417.605	174.69
417.828	177.69
418.051	180.69
418.274	187.69
418.497	171.69
418.72	168.69
418.943	187.69
419.166	172.69
419.389	203.69
419.611	191.69
419.834	171.69
420.057	179.69
420.28	181.69
420.503	178.69
420.726	166.69
420.948	183.69
421.171	162.69
421.394	179.69
421.617	175.69
421.839	166.69
422.062	159.69
422.285	177.69
422.507	179.69
422.73	179.69
422.953	184.69
423.175	175.69
423.398	153.69
423.621	186.69
423.843	184.69
424.066	176.69
424.288	161.69
424.511	184.69
424.733	177.69
424.956	180.69
425.178	186.69
425.401	182.69
425.623	192.69
425.846	177.69
426.068	168.69
426.291	179.69
426.513	173.69
426.735	166.69
426.958	170.69
427.18	163.69
427.402	168.69
427.625	176.69
427.847	160.69
428.069	176.69
428.292	176.69
428.514	161.69
428.736	143.69
428.958	157.69
429.181	159.69
429.403	145.69
429.625	174.69
429.847	168.69
430.069	168.69
430.292	149.69
430.514	169.69
430.736	163.69
430.958	161.69
431.18	154.69
431.402	148.69
431.624	169.69
431.846	154.69
432.068	180.69
432.29	167.69
432.512	171.69
432.734	136.69
432.956	169.69
433.178	167.69
433.4	168.69
433.622	154.69
433.844	162.69
434.066	159.69
434.287	165.69
434.509	154.69
434.731	159.69
434.953	167.69
435.175	189.69
435.397	185.69
435.618	147.69
435.84	177.69
436.062	172.69
436.284	180.69
436.505	146.69
436.727	152.69
436.949	155.69
437.17	156.69
437.392	155.69
437.614	156.69
437.835	164.69
438.057	164.69
438.278	158.69
438.5	152.69
438.721	159.69
438.943	170.69
439.165	169.69
439.386	170.69
439.608	161.69
439.829	175.69
440.05	164.69
440.272	169.69
440.493	167.69
440.715	147.69
440.936	167.69
441.158	171.69
441.379	180.69
441.6	184.69
441.822	174.69
442.043	174.69
442.264	172.69
442.486	170.69
442.707	165.69
442.928	170.69
443.149	177.69
443.371	168.69
443.592	167.69
443.813	173.69
444.034	187.69
444.255	180.69
444.476	188.69
444.698	202.69
444.919	193.69
445.14	442.69
445.361	302.69
445.582	167.69
445.803	182.69
446.024	190.69
446.245	183.69
446.466	169.69
446.687	177.69
446.908	170.69
447.129	154.69
447.35	153.69
447.571	154.69
447.792	154.69
448.013	151.69
448.234	148.69
448.455	152.69
448.675	170.69
448.896	154.69
449.117	164.69
449.338	149.69
449.559	153.69
449.779	151.69
450	145.69
450.221	153.69
450.442	151.69
450.662	141.69
450.883	153.69
451.104	166.69
451.324	148.69
451.545	157.69
451.766	158.69
451.986	131.69
452.207	161.69
452.428	146.69
452.648	160.69
452.869	134.69
453.089	157.69
453.31	147.69
453.53	144.69
453.751	145.69
453.971	142.69
454.192	164.69
454.412	150.69
454.633	148.69
454.853	143.69
455.073	149.69
455.294	144.69
455.514	153.69
455.734	144.69
455.955	148.69
456.175	154.69
456.395	146.69
456.616	151.69
456.836	152.69
457.056	148.69
457.276	138.69
457.497	149.69
457.717	147.69
457.937	162.69
458.157	125.69
458.377	141.69
458.598	152.69
458.818	164.69
459.038	162.69
459.258	145.69
459.478	172.69
459.698	176.69
459.918	188.69
460.138	179.69
460.358	181.69
460.578	198.69
460.798	176.69
461.018	175.69
461.238	193.69
461.458	173.69
461.678	185.69
461.898	186.69
462.118	181.69
462.338	181.69
462.558	192.69
462.777	196.69
462.997	207.69
463.217	227.69
463.437	219.69
463.657	210.69
463.876	179.69
464.096	216.69
464.316	199.69
464.536	204.69
464.755	218.69
464.975	186.69
465.195	174.69
465.414	179.69
465.634	177.69
465.854	167.69
466.073	153.69
466.293	163.69
466.512	140.69
466.732	160.69
466.951	155.69
467.171	159.69
467.391	159.69
467.61	155.69
467.829	158.69
468.049	157.69
468.268	168.69
468.488	163.69
468.707	160.69
468.927	147.69
469.146	159.69
469.365	150.69
469.585	163.69
469.804	154.69
470.023	163.69
470.243	157.69
470.462	149.69
470.681	176.69
470.901	160.69
471.12	165.69
471.339	156.69
471.558	159.69
471.777	143.69
471.997	153.69
472.216	149.69
472.435	151.69
472.654	158.69
472.873	156.69
473.092	156.69
473.311	165.69
473.53	152.69
473.749	155.69
473.968	147.69
474.187	147.69
474.406	158.69
474.625	167.69
474.844	159.69
475.063	157.69
475.282	146.69
475.501	147.69
475.72	173.69
475.939	162.69
476.158	170.69
476.377	157.69
476.596	167.69
476.814	154.69
477.033	158.69
477.252	167.69
477.471	166.69
477.69	168.69
477.908	173.69
478.127	164.69
478.346	164.69
478.564	172.69
478.783	169.69
479.002	177.69
479.22	187.69
479.439	184.69
479.658	180.69
479.876	171.69
480.095	173.69
480.313	184.69
480.532	183.69
480.751	191.69
480.969	171.69
481.188	172.69
481.406	179.69
481.624	181.69
481.843	186.69
482.061	174.69
482.28	151.69
482.498	172.69
482.717	178.69
482.935	161.69
483.153	154.69
483.372	171.69
483.59	187.69
483.808	151.69
484.027	166.69
484.245	176.69
484.463	163.69
484.681	188.69
484.9	161.69
485.118	166.69
485.336	170.69
485.554	158.69
485.772	171.69
485.99	186.69
486.209	164.69
486.427	178.69
486.645	151.69
486.863	172.69
487.081	171.69
487.299	164.69
487.517	183.69
487.735	170.69
487.953	161.69
488.171	184.69
488.389	171.69
488.607	148.69
488.825	155.69
489.043	183.69
489.261	183.69
489.479	181.69
489.696	192.69
489.914	178.69
490.132	177.69
490.35	181.69
490.568	180.69
490.786	178.69
491.003	166.69
491.221	187.69
491.439	169.69
491.657	187.69
491.874	184.69
492.092	166.69
492.31	169.69
492.527	150.69
492.745	168.69
492.963	172.69
493.18	176.69
493.398	180.69
493.615	199.69
493.833	172.69
494.05	161.69
494.268	193.69
494.485	185.69
494.703	179.69
494.92	187.69
495.138	175.69
495.355	177.69
495.573	187.69
495.79	179.69
496.008	183.69
496.225	195.69
496.442	191.69
496.66	187.69
496.877	173.69
497.094	196.69
497.312	190.69
497.529	215.69
497.746	200.69
497.963	198.69
498.181	207.69
498.398	207.69
498.615	235.69
498.832	229.69
499.049	239.69
499.267	251.69
499.484	281.69
499.701	319.69
499.918	323.69
500.135	380.69
500.352	384.69
500.569	405.69
500.786	389.69
501.003	351.69
501.22	326.69
501.437	297.69
501.654	274.69
501.871	260.69
502.088	245.69
502.305	248.69
502.522	242.69
502.739	226.69
502.956	219.69
503.172	201.69
503.389	210.69
503.606	193.69
503.823	217.69
504.04	209.69
504.256	202.69
504.473	195.69
504.69	207.69
504.907	211.69
505.123	182.69
505.34	186.69
505.557	187.69
505.773	166.69
505.99	165.69
506.207	159.69
506.423	177.69
506.64	183.69
506.856	177.69
507.073	166.69
507.289	163.69
507.506	165.69
507.722	167.69
507.939	171.69
508.155	164.69
508.372	162.69
508.588	157.69
508.805	173.69
509.021	163.69
509.238	163.69
509.454	155.69
509.67	163.69
509.887	160.69
510.103	166.69
510.319	166.69
510.536	154.69
510.752	149.69
510.968	165.69
511.184	151.69
511.401	161.69
511.617	167.69
511.833	167.69
512.049	166.69
512.265	162.69
512.481	165.69
512.698	162.69
512.914	155.69
513.13	170.69
513.346	157.69
513.562	176.69
513.778	160.69
513.994	151.69
514.21	152.69
514.426	161.69
514.642	161.69
514.858	169.69
515.074	163.69
515.29	164.69
515.506	186.69
515.721	145.69
515.937	167.69
516.153	162.69
516.369	175.69
516.585	168.69
516.801	182.69
517.016	200.69
517.232	193.69
517.448	183.69
517.664	208.69
517.879	216.69
518.095	198.69
518.311	213.69
518.527	202.69
518.742	172.69
518.958	191.69
519.173	173.69
519.389	180.69
519.605	164.69
519.82	159.69
520.036	179.69
520.251	167.69
520.467	161.69
520.682	168.69
520.898	153.69
521.113	152.69
521.329	149.69
521.544	155.69
521.76	166.69
521.975	140.69
522.19	171.69
522.406	168.69
522.621	170.69
522.836	162.69
523.052	150.69
523.267	156.69
523.482	169.69
523.698	146.69
523.913	159.69
524.128	151.69
524.343	144.69
524.559	162.69
524.774	138.69
524.989	163.69
525.204	158.69
525.419	168.69
525.634	152.69
525.849	144.69
526.064	160.69
526.28	157.69
526.495	153.69
526.71	164.69
526.925	159.69
527.14	153.69
527.355	143.69
527.57	170.69
527.785	126.69
527.999	149.69
528.214	167.69
528.429	163.69
528.644	137.69
528.859	172.69
529.074	147.69
529.289	165.69
529.503	157.69
529.718	157.69
529.933	153.69
530.148	152.69
530.363	153.69
530.577	128.69
530.792	144.69
531.007	141.69
531.221	163.69
531.436	157.69
531.651	151.69
531.865	146.69
532.08	151.69
532.295	162.69
532.509	138.69
532.724	151.69
532.938	152.69
533.153	144.69
533.367	157.69
533.582	164.69
533.796	163.69
534.011	146.69
534.225	162.69
534.44	140.69
534.654	163.69
534.868	153.69
535.083	159.69
535.297	155.69
535.511	163.69
535.726	140.69
535.94	143.69
536.154	144.69
536.369	161.69
536.583	173.69
536.797	160.69
537.011	144.69
537.225	138.69
537.44	144.69
537.654	151.69
537.868	137.69
538.082	144.69
538.296	144.69
538.51	153.69
538.724	137.69
538.938	144.69
539.153	141.69
539.367	150.69
539.581	136.69
539.795	150.69
540.009	147.69
540.222	151.69
540.436	166.69
540.65	144.69
540.864	146.69
541.078	145.69
541.292	143.69
541.506	156.69
541.72	142.69
541.934	149.69
542.147	150.69
542.361	143.69
542.575	154.69
542.789	152.69
543.002	149.69
543.216	142.69
543.43	154.69
543.644	137.69
543.857	142.69
544.071	147.69
544.285	147.69
544.498	147.69
544.712	137.69
544.925	150.69
545.139	139.69
545.352	153.69
545.566	175.69
545.779	147.69
545.993	150.69
546.206	149.69
546.42	136.69
546.633	148.69
546.847	162.69
547.06	152.69
547.274	154.69
547.487	149.69
547.7	159.69
547.914	151.69
548.127	159.69
548.34	151.69
548.554	145.69
548.767	149.69
548.98	140.69
549.193	150.69
549.407	161.69
549.62	147.69
549.833	145.69
550.046	144.69
550.259	156.69
550.473	144.69
550.686	151.69
550.899	149.69
551.112	147.69
551.325	153.69
551.538	142.69
551.751	137.69
551.964	135.69
552.177	137.69
552.39	137.69
552.603	159.69
552.816	149.69
553.029	170.69
553.242	161.69
553.455	159.69
553.667	161.69
553.88	159.69
554.093	148.69
554.306	157.69
554.519	149.69
554.732	154.69
554.944	146.69
555.157	155.69
555.37	148.69
555.583	147.69
555.795	143.69
556.008	160.69
556.221	138.69
556.433	132.69
556.646	149.69
556.859	132.69
557.071	143.69
557.284	145.69
557.496	128.69
557.709	145.69
557.921	168.69
558.134	126.69
558.346	138.69
558.559	136.69
558.771	122.69
558.984	131.69
559.196	145.69
559.409	137.69
559.621	147.69
559.833	134.69
560.046	149.69
560.258	138.69
560.47	140.69
560.683	128.69
560.895	136.69
561.107	132.69
561.32	133.69
561.532	136.69
561.744	138.69
561.956	136.69
562.168	133.69
562.381	148.69
562.593	144.69
562.805	161.69
563.017	159.69
563.229	155.69
563.441	128.69
563.653	140.69
563.865	120.69
564.077	133.69
564.289	129.69
564.501	147.69
564.713	144.69
564.925	137.69
565.137	138.69
565.349	154.69
565.561	147.69
565.773	148.69
565.985	162.69
566.197	147.69
566.408	171.69
566.62	183.69
566.832	174.69
567.044	184.69
567.255	193.69
567.467	199.69
567.679	201.69
567.891	204.69
568.102	213.69
568.314	196.69
568.526	183.69
568.737	195.69
568.949	157.69
569.161	159.69
569.372	157.69
569.584	134.69
569.795	157.69
570.007	132.69
570.218	139.69
570.43	144.69
570.641	140.69
570.853	140.69
571.064	149.69
571.276	152.69
571.487	128.69
571.698	144.69
571.91	130.69
572.121	138.69
572.333	131.69
572.544	126.69
572.755	132.69
572.966	112.69
573.178	113.69
573.389	138.69
573.6	129.69
573.811	137.69
574.023	124.69
574.234	128.69
574.445	145.69
574.656	141.69
574.867	135.69
575.078	122.69
575.289	127.69
575.501	135.69
575.712	119.69
575.923	122.69
576.134	123.69
576.345	130.69
576.556	135.69
576.767	139.69
576.978	126.69
577.188	129.69
577.399	123.69
577.61	125.69
577.821	129.69
578.032	131.69
578.243	120.69
578.454	123.69
578.665	114.69
578.875	118.69
579.086	120.69
579.297	115.69
579.508	111.69
579.718	124.69
579.929	137.69
580.14	132.69
580.35	129.69
580.561	121.69
580.772	117.69
580.982	120.69
581.193	126.69
581.403	121.69
581.614	111.69
581.825	101.69
582.035	115.69
582.246	112.69
582.456	131.69
582.667	118.69
582.877	117.69
583.087	117.69
583.298	122.69
583.508	123.69
583.719	99.69
583.929	130.69
584.139	110.69
584.35	122.69
584.56	128.69
584.77	125.69
584.981	117.69
585.191	122.69
585.401	111.69
585.611	101.69
585.821	124.69
586.032	128.69
586.242	114.69
586.452	127.69
586.662	113.69
586.872	123.69
587.082	125.69
587.292	128.69
587.502	117.69
587.713	105.69
587.923	129.69
588.133	137.69
588.343	104.69
588.553	114.69
588.762	126.69
588.972	113.69
589.182	115.69
589.392	121.69
589.602	110.69
589.812	120.69
590.022	107.69
590.232	133.69
590.441	97.69
590.651	119.69
590.861	126.69
591.071	129.69
591.281	131.69
591.49	111.69
591.7	122.69
591.91	107.69
592.119	116.69
592.329	128.69
592.539	122.69
592.748	148.69
592.958	137.69
593.167	147.69
593.377	122.69
593.587	150.69
593.796	120.69
594.006	124.69
594.215	130.69
594.424	131.69
594.634	127.69
594.843	122.69
595.053	137.69
595.262	133.69
595.472	140.69
595.681	127.69
595.89	137.69
596.1	125.69
596.309	107.69
596.518	108.69
596.727	128.69
596.937	119.69
597.146	112.69
597.355	122.69
597.564	102.69
597.774	114.69
597.983	124.69
598.192	117.69
598.401	113.69
598.61	129.69
598.819	111.69
599.028	107.69
599.237	113.69
599.446	95.69
599.655	113.69
599.864	109.69
600.073	111.69
600.282	123.69
600.491	122.69
600.7	116.69
600.909	100.69
601.118	127.69
601.327	117.69
601.536	107.69
601.745	103.69
601.953	122.69
602.162	95.69
602.371	119.69
602.58	115.69
602.789	113.69
602.997	112.69
603.206	113.69
603.415	118.69
603.623	121.69
603.832	114.69
604.041	115.69
604.249	103.69
604.458	98.69
604.666	98.69
604.875	107.69
605.084	99.69
605.292	115.69
605.501	111.69
605.709	117.69
605.918	107.69
606.126	121.69
606.334	112.69
606.543	108.69
606.751	123.69
606.96	109.69
607.168	108.69
607.376	102.69
607.585	132.69
607.793	101.69
608.001	117.69
608.21	119.69
608.418	103.69
608.626	97.69
608.834	105.69
609.043	116.69
609.251	97.69
609.459	97.69
609.667	113.69
609.875	106.69
610.083	97.69
610.291	111.69
610.499	100.69
610.707	108.69
610.916	121.69
611.124	105.69
611.332	93.69
611.54	110.69
611.748	116.69
611.955	116.69
612.163	109.69
612.371	121.69
612.579	109.69
612.787	100.69
612.995	122.69
613.203	111.69
613.411	109.69
613.618	112.69
613.826	122.69
614.034	97.69
614.242	113.69
614.449	108.69
614.657	113.69
614.865	104.69
615.072	120.69
615.28	115.69
615.488	114.69
615.695	108.69
615.903	108.69
616.111	117.69
616.318	119.69
616.526	93.69
616.733	115.69
616.941	97.69
617.148	111.69
617.356	113.69
617.563	112.69
617.771	100.69
617.978	112.69
618.185	113.69
618.393	104.69
618.6	108.69
618.807	87.69
619.015	123.69
619.222	107.69
619.429	99.69
619.637	101.69
619.844	102.69
620.051	105.69
620.258	108.69
620.466	101.69
620.673	94.69
620.88	107.69
621.087	97.69
621.294	116.69
621.501	86.69
621.708	105.69
621.915	103.69
622.122	108.69
622.329	118.69
622.536	109.69
622.743	105.69
622.95	111.69
623.157	96.69
623.364	111.69
623.571	104.69
623.778	120.69
623.985	112.69
624.192	116.69
624.399	118.69
624.606	118.69
624.812	97.69
625.019	110.69
625.226	102.69
625.433	117.69
625.639	109.69
625.846	106.69
626.053	94.69
626.259	99.69
626.466	101.69
626.673	104.69
626.879	92.69
627.086	91.69
627.293	92.69
627.499	102.69
627.706	110.69
627.912	99.69
628.119	105.69
628.325	105.69
628.532	95.69
628.738	104.69
628.945	109.69
629.151	107.69
629.357	101.69
629.564	100.69
629.77	96.69
629.976	92.69
630.183	106.69
630.389	83.69
630.595	96.69
630.802	92.69
631.008	99.69
631.214	105.69
631.42	102.69
631.627	113.69
631.833	104.69
632.039	96.69
632.245	93.69
632.451	91.69
632.657	97.69
632.863	101.69
633.069	98.69
633.275	95.69
633.481	87.69
633.688	99.69
633.893	92.69
634.099	107.69
634.305	99.69
634.511	93.69
634.717	97.69
634.923	88.69
635.129	95.69
635.335	93.69
635.541	99.69
635.747	89.69
635.952	87.69
636.158	103.69
636.364	97.69
636.57	89.69
636.775	100.69
636.981	96.69
637.187	96.69
637.392	91.69
637.598	98.69
637.804	109.69
638.009	108.69
638.215	92.69
638.421	90.69
638.626	101.69
638.832	97.69
639.037	101.69
639.243	92.69
639.448	96.69
639.654	105.69
639.859	81.69
640.065	90.69
640.27	115.69
640.475	93.69
640.681	98.69
640.886	88.69
641.091	90.69
641.297	100.69
641.502	87.69
641.707	91.69
641.913	89.69
642.118	84.69
642.323	86.69
642.528	96.69
642.733	99.69
642.939	114.69
643.144	101.69
643.349	93.69
643.554	101.69
643.759	104.69
643.964	87.69
644.169	104.69
644.374	93.69
644.579	110.69
644.784	104.69
644.989	97.69
645.194	97.69
645.399	106.69
645.604	84.69
645.809	92.69
646.014	84.69
646.219	104.69
646.423	106.69
646.628	99.69
646.833	94.69
647.038	97.69
647.243	84.69
647.447	97.69
647.652	105.69
647.857	96.69
648.062	102.69
648.266	91.69
648.471	99.69
648.676	99.69
648.88	93.69
649.085	116.69
649.289	96.69
649.494	100.69
649.698	118.69
649.903	97.69
650.107	99.69
650.312	104.69
650.516	106.69
650.721	92.69
650.925	97.69
651.13	114.69
651.334	92.69
651.539	93.69
651.743	103.69
651.947	84.69
652.152	90.69
652.356	88.69
652.56	96.69
652.764	87.69
652.969	97.69
653.173	80.69
653.377	85.69
653.581	83.69
653.785	85.69
653.99	85.69
654.194	93.69
654.398	90.69
654.602	90.69
654.806	73.69
655.01	88.69
655.214	79.69
655.418	83.69
655.622	85.69
655.826	81.69
656.03	93.69
656.234	103.69
656.438	93.69
656.642	90.69
656.846	90.69
657.049	82.69
657.253	88.69
657.457	76.69
657.661	84.69
657.865	89.69
658.068	79.69
658.272	79.69
658.476	77.69
658.68	89.69
658.883	85.69
659.087	82.69
659.291	85.69
659.494	90.69
659.698	88.69
659.901	93.69
660.105	88.69
660.309	85.69
660.512	83.69
660.716	88.69
660.919	95.69
661.123	86.69
661.326	72.69
661.53	95.69
661.733	66.69
661.936	79.69
662.14	85.69
662.343	86.69
662.546	71.69
662.75	83.69
662.953	72.69
663.156	110.69
663.36	95.69
663.563	81.69
663.766	80.69
663.969	84.69
664.173	75.69
664.376	73.69
664.579	84.69
664.782	92.69
664.985	72.69
665.188	70.69
665.391	82.69
665.594	85.69
665.797	65.69
666	84.69
666.203	97.69
666.406	77.69
666.609	75.69
666.812	85.69
667.015	74.69
667.218	90.69
667.421	60.69
667.624	76.69
667.827	95.69
668.03	73.69
668.232	77.69
668.435	86.69
668.638	83.69
668.841	92.69
669.043	74.69
669.246	89.69
669.449	72.69
669.651	87.69
669.854	89.69
670.057	87.69
670.259	59.69
670.462	88.69
670.665	91.69
670.867	91.69
671.07	79.69
671.272	94.69
671.475	104.69
671.677	75.69
671.88	85.69
672.082	80.69
672.284	89.69
672.487	95.69
672.689	68.69
672.892	76.69
