Data from SampG_HRD10591_00076.txt Node
Date: Mon Jan 19 11:54:09 EST 2026
User: Yrep
Spectrometer: HR+D1059
Trigger mode: 0
Integration Time (sec): 3.443000E-1
Scans to average: 1
Electric dark correction enabled: true
Nonlinearity correction enabled: false
Boxcar width: 0
XAxis mode: Wavelengths
Number of Pixels in Spectrum: 2048
>>>>>Begin Spectral Data<<<<<
223.165	-12.75
223.4	-12.75
223.635	-12.75
223.869	-29.75
224.104	-19.75
224.338	-10.75
224.573	-6.75
224.808	-14.75
225.042	0.25
225.277	14.25
225.511	-4.75
225.746	4.25
225.98	12.25
226.215	1.25
226.449	12.25
226.683	13.25
226.918	19.25
227.152	22.25
227.387	27.25
227.621	41.25
227.856	51.25
228.09	48.25
228.324	53.25
228.559	73.25
228.793	75.25
229.027	61.25
229.262	66.25
229.496	63.25
229.73	74.25
229.964	77.25
230.199	74.25
230.433	63.25
230.667	79.25
230.901	84.25
231.136	81.25
231.37	77.25
231.604	106.25
231.838	83.25
232.072	77.25
232.306	88.25
232.541	91.25
232.775	70.25
233.009	88.25
233.243	87.25
233.477	84.25
233.711	97.25
233.945	79.25
234.179	79.25
234.413	87.25
234.647	82.25
234.881	87.25
235.115	85.25
235.349	73.25
235.583	83.25
235.817	92.25
236.051	80.25
236.285	81.25
236.519	70.25
236.753	85.25
236.987	81.25
237.221	82.25
237.455	102.25
237.689	82.25
237.922	85.25
238.156	83.25
238.39	79.25
238.624	85.25
238.858	95.25
239.091	75.25
239.325	82.25
239.559	81.25
239.793	88.25
240.027	95.25
240.26	76.25
240.494	81.25
240.728	73.25
240.961	86.25
241.195	74.25
241.429	76.25
241.662	86.25
241.896	71.25
242.13	81.25
242.363	88.25
242.597	70.25
242.83	79.25
243.064	90.25
243.298	98.25
243.531	86.25
243.765	79.25
243.998	75.25
244.232	109.25
244.465	89.25
244.699	103.25
244.932	98.25
245.166	92.25
245.399	80.25
245.633	76.25
245.866	88.25
246.099	81.25
246.333	92.25
246.566	83.25
246.8	88.25
247.033	69.25
247.266	75.25
247.5	85.25
247.733	79.25
247.966	95.25
248.2	83.25
248.433	84.25
248.666	84.25
248.899	83.25
249.133	98.25
249.366	105.25
249.599	88.25
249.832	95.25
250.066	83.25
250.299	95.25
250.532	93.25
250.765	93.25
250.998	82.25
251.231	91.25
251.465	97.25
251.698	92.25
251.931	83.25
252.164	93.25
252.397	87.25
252.63	93.25
252.863	80.25
253.096	88.25
253.329	97.25
253.562	89.25
253.795	75.25
254.028	97.25
254.261	97.25
254.494	93.25
254.727	93.25
254.96	93.25
255.193	76.25
255.426	104.25
255.659	99.25
255.892	107.25
256.124	82.25
256.357	78.25
256.59	82.25
256.823	108.25
257.056	96.25
257.289	97.25
257.521	90.25
257.754	97.25
257.987	85.25
258.22	109.25
258.452	97.25
258.685	97.25
258.918	89.25
259.151	103.25
259.383	105.25
259.616	104.25
259.849	85.25
260.081	103.25
260.314	99.25
260.547	79.25
260.779	90.25
261.012	92.25
261.244	85.25
261.477	116.25
261.71	88.25
261.942	100.25
262.175	97.25
262.407	95.25
262.64	91.25
262.872	89.25
263.105	92.25
263.337	104.25
263.57	89.25
263.802	96.25
264.035	113.25
264.267	97.25
264.499	104.25
264.732	101.25
264.964	79.25
265.197	95.25
265.429	95.25
265.661	109.25
265.894	101.25
266.126	117.25
266.358	99.25
266.591	116.25
266.823	99.25
267.055	90.25
267.287	101.25
267.52	103.25
267.752	91.25
267.984	100.25
268.216	109.25
268.448	107.25
268.681	96.25
268.913	89.25
269.145	95.25
269.377	107.25
269.609	94.25
269.841	97.25
270.073	103.25
270.306	91.25
270.538	99.25
270.77	115.25
271.002	112.25
271.234	103.25
271.466	110.25
271.698	99.25
271.93	102.25
272.162	109.25
272.394	114.25
272.626	110.25
272.858	107.25
273.09	108.25
273.322	100.25
273.553	108.25
273.785	103.25
274.017	116.25
274.249	124.25
274.481	109.25
274.713	101.25
274.945	103.25
275.176	99.25
275.408	102.25
275.64	111.25
275.872	124.25
276.104	113.25
276.335	108.25
276.567	92.25
276.799	105.25
277.031	110.25
277.262	91.25
277.494	98.25
277.726	106.25
277.957	105.25
278.189	102.25
278.421	89.25
278.652	113.25
278.884	116.25
279.115	111.25
279.347	109.25
279.579	107.25
279.81	94.25
280.042	97.25
280.273	117.25
280.505	109.25
280.736	108.25
280.968	109.25
281.199	112.25
281.431	117.25
281.662	97.25
281.894	106.25
282.125	109.25
282.356	100.25
282.588	93.25
282.819	103.25
283.051	89.25
283.282	107.25
283.513	102.25
283.745	115.25
283.976	108.25
284.207	106.25
284.439	109.25
284.67	125.25
284.901	109.25
285.132	122.25
285.364	111.25
285.595	117.25
285.826	102.25
286.057	122.25
286.288	108.25
286.52	106.25
286.751	102.25
286.982	116.25
287.213	112.25
287.444	109.25
287.675	106.25
287.906	120.25
288.138	115.25
288.369	128.25
288.6	113.25
288.831	107.25
289.062	112.25
289.293	111.25
289.524	115.25
289.755	110.25
289.986	106.25
290.217	111.25
290.448	119.25
290.679	112.25
290.91	132.25
291.141	121.25
291.371	116.25
291.602	112.25
291.833	116.25
292.064	116.25
292.295	121.25
292.526	124.25
292.757	109.25
292.987	115.25
293.218	113.25
293.449	101.25
293.68	123.25
293.91	110.25
294.141	114.25
294.372	115.25
294.603	122.25
294.833	126.25
295.064	113.25
295.295	125.25
295.525	121.25
295.756	128.25
295.987	122.25
296.217	111.25
296.448	107.25
296.679	108.25
296.909	128.25
297.14	115.25
297.37	133.25
297.601	130.25
297.831	119.25
298.062	122.25
298.292	137.25
298.523	124.25
298.753	120.25
298.984	132.25
299.214	122.25
299.445	113.25
299.675	117.25
299.905	108.25
300.136	130.25
300.366	107.25
300.597	115.25
300.827	117.25
301.057	103.25
301.288	127.25
301.518	124.25
301.748	130.25
301.979	156.25
302.209	113.25
302.439	121.25
302.669	111.25
302.9	136.25
303.13	128.25
303.36	124.25
303.59	106.25
303.82	119.25
304.051	123.25
304.281	129.25
304.511	124.25
304.741	136.25
304.971	120.25
305.201	120.25
305.431	125.25
305.661	116.25
305.891	110.25
306.121	106.25
306.352	104.25
306.582	123.25
306.812	120.25
307.042	115.25
307.272	118.25
307.502	123.25
307.731	113.25
307.961	114.25
308.191	109.25
308.421	130.25
308.651	128.25
308.881	107.25
309.111	133.25
309.341	127.25
309.571	122.25
309.8	122.25
310.03	111.25
310.26	120.25
310.49	116.25
310.72	122.25
310.949	101.25
311.179	113.25
311.409	126.25
311.639	109.25
311.868	119.25
312.098	127.25
312.328	127.25
312.557	121.25
312.787	114.25
313.017	120.25
313.246	129.25
313.476	139.25
313.706	115.25
313.935	121.25
314.165	133.25
314.394	118.25
314.624	134.25
314.853	129.25
315.083	128.25
315.312	120.25
315.542	128.25
315.771	120.25
316.001	128.25
316.23	128.25
316.46	118.25
316.689	115.25
316.919	124.25
317.148	126.25
317.377	141.25
317.607	122.25
317.836	130.25
318.065	114.25
318.295	123.25
318.524	126.25
318.753	111.25
318.983	119.25
319.212	130.25
319.441	120.25
319.67	133.25
319.9	125.25
320.129	132.25
320.358	128.25
320.587	123.25
320.816	124.25
321.046	107.25
321.275	116.25
321.504	130.25
321.733	118.25
321.962	120.25
322.191	116.25
322.42	122.25
322.649	124.25
322.878	115.25
323.108	121.25
323.337	123.25
323.566	111.25
323.795	114.25
324.024	129.25
324.253	131.25
324.482	120.25
324.71	126.25
324.939	114.25
325.168	121.25
325.397	124.25
325.626	135.25
325.855	133.25
326.084	128.25
326.313	134.25
326.542	126.25
326.77	140.25
326.999	131.25
327.228	130.25
327.457	140.25
327.686	128.25
327.914	129.25
328.143	135.25
328.372	121.25
328.6	135.25
328.829	131.25
329.058	113.25
329.287	130.25
329.515	124.25
329.744	121.25
329.972	123.25
330.201	119.25
330.43	117.25
330.658	116.25
330.887	127.25
331.115	122.25
331.344	116.25
331.572	125.25
331.801	129.25
332.03	140.25
332.258	152.25
332.486	141.25
332.715	129.25
332.943	146.25
333.172	146.25
333.4	170.25
333.629	147.25
333.857	147.25
334.085	150.25
334.314	155.25
334.542	143.25
334.771	145.25
334.999	138.25
335.227	133.25
335.455	155.25
335.684	132.25
335.912	147.25
336.14	134.25
336.369	133.25
336.597	124.25
336.825	153.25
337.053	136.25
337.281	133.25
337.51	147.25
337.738	148.25
337.966	126.25
338.194	131.25
338.422	143.25
338.65	120.25
338.878	146.25
339.106	138.25
339.334	140.25
339.562	137.25
339.79	147.25
340.018	131.25
340.246	127.25
340.474	138.25
340.702	124.25
340.93	121.25
341.158	122.25
341.386	132.25
341.614	103.25
341.842	134.25
342.07	138.25
342.298	158.25
342.526	129.25
342.754	110.25
342.981	128.25
343.209	119.25
343.437	168.25
343.665	136.25
343.893	134.25
344.12	162.25
344.348	149.25
344.576	126.25
344.804	138.25
345.031	121.25
345.259	136.25
345.487	123.25
345.714	130.25
345.942	136.25
346.17	146.25
346.397	128.25
346.625	117.25
346.853	126.25
347.08	125.25
347.308	127.25
347.535	112.25
347.763	130.25
347.99	143.25
348.218	132.25
348.445	127.25
348.673	126.25
348.9	125.25
349.128	123.25
349.355	115.25
349.583	136.25
349.81	115.25
350.037	116.25
350.265	132.25
350.492	136.25
350.72	109.25
350.947	132.25
351.174	137.25
351.402	118.25
351.629	130.25
351.856	121.25
352.083	117.25
352.311	129.25
352.538	122.25
352.765	136.25
352.992	147.25
353.22	126.25
353.447	123.25
353.674	143.25
353.901	124.25
354.128	132.25
354.355	130.25
354.583	129.25
354.81	130.25
355.037	116.25
355.264	137.25
355.491	124.25
355.718	129.25
355.945	126.25
356.172	141.25
356.399	125.25
356.626	115.25
356.853	129.25
357.08	125.25
357.307	132.25
357.534	125.25
357.761	124.25
357.988	123.25
358.215	134.25
358.441	126.25
358.668	136.25
358.895	125.25
359.122	141.25
359.349	118.25
359.576	135.25
359.802	140.25
360.029	132.25
360.256	134.25
360.483	137.25
360.709	115.25
360.936	131.25
361.163	129.25
361.39	130.25
361.616	120.25
361.843	135.25
362.07	130.25
362.296	144.25
362.523	123.25
362.749	119.25
362.976	117.25
363.203	129.25
363.429	130.25
363.656	119.25
363.882	115.25
364.109	141.25
364.335	141.25
364.562	124.25
364.788	124.25
365.015	118.25
365.241	124.25
365.468	135.25
365.694	126.25
365.92	135.25
366.147	129.25
366.373	130.25
366.599	127.25
366.826	127.25
367.052	132.25
367.278	123.25
367.505	128.25
367.731	138.25
367.957	131.25
368.184	138.25
368.41	139.25
368.636	129.25
368.862	126.25
369.089	131.25
369.315	132.25
369.541	146.25
369.767	129.25
369.993	136.25
370.219	120.25
370.445	114.25
370.672	133.25
370.898	119.25
371.124	129.25
371.35	127.25
371.576	139.25
371.802	148.25
372.028	133.25
372.254	132.25
372.48	140.25
372.706	137.25
372.932	140.25
373.158	160.25
373.384	122.25
373.61	149.25
373.835	149.25
374.061	130.25
374.287	145.25
374.513	133.25
374.739	139.25
374.965	136.25
375.191	143.25
375.416	150.25
375.642	133.25
375.868	157.25
376.094	130.25
376.319	136.25
376.545	129.25
376.771	138.25
376.997	131.25
377.222	124.25
377.448	124.25
377.674	116.25
377.899	135.25
378.125	129.25
378.35	120.25
378.576	125.25
378.802	128.25
379.027	138.25
379.253	141.25
379.478	128.25
379.704	126.25
379.929	127.25
380.155	133.25
380.38	123.25
380.606	132.25
380.831	125.25
381.057	140.25
381.282	124.25
381.507	133.25
381.733	150.25
381.958	134.25
382.184	143.25
382.409	147.25
382.634	139.25
382.86	156.25
383.085	159.25
383.31	139.25
383.535	136.25
383.761	149.25
383.986	135.25
384.211	148.25
384.436	145.25
384.662	138.25
384.887	147.25
385.112	140.25
385.337	147.25
385.562	145.25
385.787	149.25
386.013	152.25
386.238	150.25
386.463	132.25
386.688	175.25
386.913	152.25
387.138	147.25
387.363	167.25
387.588	146.25
387.813	143.25
388.038	145.25
388.263	175.25
388.488	158.25
388.713	138.25
388.938	133.25
389.163	152.25
389.387	143.25
389.612	131.25
389.837	131.25
390.062	145.25
390.287	148.25
390.512	159.25
390.736	155.25
390.961	140.25
391.186	150.25
391.411	155.25
391.636	147.25
391.86	147.25
392.085	157.25
392.31	148.25
392.534	151.25
392.759	154.25
392.984	152.25
393.208	154.25
393.433	164.25
393.658	143.25
393.882	147.25
394.107	138.25
394.331	150.25
394.556	140.25
394.78	137.25
395.005	164.25
395.229	149.25
395.454	155.25
395.678	157.25
395.903	162.25
396.127	161.25
396.352	149.25
396.576	143.25
396.801	151.25
397.025	156.25
397.249	153.25
397.474	173.25
397.698	153.25
397.922	175.25
398.147	144.25
398.371	171.25
398.595	163.25
398.82	163.25
399.044	165.25
399.268	188.25
399.492	214.25
399.717	224.25
399.941	220.25
400.165	190.25
400.389	168.25
400.613	185.25
400.837	168.25
401.062	170.25
401.286	169.25
401.51	184.25
401.734	178.25
401.958	159.25
402.182	178.25
402.406	173.25
402.63	161.25
402.854	165.25
403.078	172.25
403.302	179.25
403.526	183.25
403.75	198.25
403.974	188.25
404.198	183.25
404.422	199.25
404.645	169.25
404.869	179.25
405.093	193.25
405.317	193.25
405.541	163.25
405.765	186.25
405.988	184.25
406.212	181.25
406.436	185.25
406.66	180.25
406.883	186.25
407.107	184.25
407.331	177.25
407.555	197.25
407.778	197.25
408.002	170.25
408.226	169.25
408.449	170.25
408.673	181.25
408.896	163.25
409.12	185.25
409.344	170.25
409.567	191.25
409.791	171.25
410.014	191.25
410.238	173.25
410.461	191.25
410.685	177.25
410.908	153.25
411.132	180.25
411.355	169.25
411.578	174.25
411.802	162.25
412.025	172.25
412.249	171.25
412.472	165.25
412.695	161.25
412.919	160.25
413.142	161.25
413.365	171.25
413.589	163.25
413.812	155.25
414.035	179.25
414.258	172.25
414.482	162.25
414.705	163.25
414.928	143.25
415.151	164.25
415.374	178.25
415.597	160.25
415.821	171.25
416.044	160.25
416.267	151.25
416.49	152.25
416.713	159.25
416.936	177.25
417.159	152.25
417.382	163.25
417.605	151.25
417.828	165.25
418.051	171.25
418.274	183.25
418.497	176.25
418.72	165.25
418.943	170.25
419.166	178.25
419.389	197.25
419.611	181.25
419.834	170.25
420.057	183.25
420.28	166.25
420.503	153.25
420.726	139.25
420.948	171.25
421.171	172.25
421.394	161.25
421.617	160.25
421.839	156.25
422.062	175.25
422.285	167.25
422.507	162.25
422.73	163.25
422.953	176.25
423.175	160.25
423.398	165.25
423.621	173.25
423.843	167.25
424.066	182.25
424.288	182.25
424.511	167.25
424.733	181.25
424.956	192.25
425.178	167.25
425.401	177.25
425.623	162.25
425.846	155.25
426.068	181.25
426.291	156.25
426.513	169.25
426.735	177.25
426.958	166.25
427.18	146.25
427.402	164.25
427.625	138.25
427.847	161.25
428.069	162.25
428.292	146.25
428.514	161.25
428.736	150.25
428.958	150.25
429.181	143.25
429.403	139.25
429.625	159.25
429.847	156.25
430.069	159.25
430.292	167.25
430.514	145.25
430.736	154.25
430.958	147.25
431.18	158.25
431.402	143.25
431.624	143.25
431.846	150.25
432.068	161.25
432.29	153.25
432.512	178.25
432.734	148.25
432.956	148.25
433.178	152.25
433.4	148.25
433.622	160.25
433.844	155.25
434.066	158.25
434.287	150.25
434.509	171.25
434.731	167.25
434.953	167.25
435.175	164.25
435.397	173.25
435.618	171.25
435.84	164.25
436.062	159.25
436.284	147.25
436.505	156.25
436.727	151.25
436.949	157.25
437.17	139.25
437.392	145.25
437.614	147.25
437.835	155.25
438.057	154.25
438.278	149.25
438.5	150.25
438.721	171.25
438.943	143.25
439.165	143.25
439.386	153.25
439.608	159.25
439.829	160.25
440.05	158.25
440.272	141.25
440.493	152.25
440.715	167.25
440.936	152.25
441.158	165.25
441.379	156.25
441.6	167.25
441.822	170.25
442.043	175.25
442.264	173.25
442.486	159.25
442.707	159.25
442.928	164.25
443.149	162.25
443.371	183.25
443.592	160.25
443.813	170.25
444.034	158.25
444.255	178.25
444.476	172.25
444.698	193.25
444.919	191.25
445.14	370.25
445.361	267.25
445.582	174.25
445.803	163.25
446.024	145.25
446.245	159.25
446.466	152.25
446.687	149.25
446.908	169.25
447.129	164.25
447.35	148.25
447.571	161.25
447.792	152.25
448.013	140.25
448.234	147.25
448.455	139.25
448.675	139.25
448.896	145.25
449.117	136.25
449.338	146.25
449.559	147.25
449.779	146.25
450	147.25
450.221	140.25
450.442	141.25
450.662	136.25
450.883	161.25
451.104	154.25
451.324	140.25
451.545	132.25
451.766	138.25
451.986	164.25
452.207	147.25
452.428	146.25
452.648	158.25
452.869	154.25
453.089	155.25
453.31	148.25
453.53	156.25
453.751	136.25
453.971	145.25
454.192	145.25
454.412	135.25
454.633	137.25
454.853	151.25
455.073	148.25
455.294	135.25
455.514	134.25
455.734	144.25
455.955	143.25
456.175	140.25
456.395	125.25
456.616	147.25
456.836	145.25
457.056	145.25
457.276	135.25
457.497	144.25
457.717	135.25
457.937	147.25
458.157	145.25
458.377	146.25
458.598	143.25
458.818	136.25
459.038	152.25
459.258	143.25
459.478	148.25
459.698	163.25
459.918	173.25
460.138	161.25
460.358	164.25
460.578	178.25
460.798	165.25
461.018	183.25
461.238	172.25
461.458	171.25
461.678	170.25
461.898	191.25
462.118	176.25
462.338	173.25
462.558	194.25
462.777	199.25
462.997	199.25
463.217	189.25
463.437	199.25
463.657	183.25
463.876	179.25
464.096	189.25
464.316	188.25
464.536	189.25
464.755	194.25
464.975	170.25
465.195	192.25
465.414	163.25
465.634	164.25
465.854	159.25
466.073	162.25
466.293	144.25
466.512	146.25
466.732	153.25
466.951	151.25
467.171	169.25
467.391	164.25
467.61	163.25
467.829	146.25
468.049	155.25
468.268	156.25
468.488	149.25
468.707	135.25
468.927	161.25
469.146	146.25
469.365	141.25
469.585	152.25
469.804	144.25
470.023	152.25
470.243	165.25
470.462	153.25
470.681	151.25
470.901	153.25
471.12	135.25
471.339	169.25
471.558	150.25
471.777	157.25
471.997	145.25
472.216	141.25
472.435	162.25
472.654	163.25
472.873	140.25
473.092	140.25
473.311	146.25
473.53	125.25
473.749	132.25
473.968	163.25
474.187	143.25
474.406	147.25
474.625	160.25
474.844	170.25
475.063	140.25
475.282	153.25
475.501	160.25
475.72	163.25
475.939	147.25
476.158	147.25
476.377	160.25
476.596	155.25
476.814	162.25
477.033	143.25
477.252	157.25
477.471	145.25
477.69	152.25
477.908	168.25
478.127	173.25
478.346	148.25
478.564	147.25
478.783	162.25
479.002	174.25
479.22	158.25
479.439	167.25
479.658	179.25
479.876	172.25
480.095	178.25
480.313	182.25
480.532	169.25
480.751	198.25
480.969	160.25
481.188	173.25
481.406	166.25
481.624	150.25
481.843	154.25
482.061	139.25
482.28	169.25
482.498	160.25
482.717	161.25
482.935	159.25
483.153	150.25
483.372	145.25
483.59	151.25
483.808	152.25
484.027	157.25
484.245	151.25
484.463	163.25
484.681	172.25
484.9	163.25
485.118	170.25
485.336	175.25
485.554	161.25
485.772	177.25
485.99	163.25
486.209	177.25
486.427	158.25
486.645	157.25
486.863	161.25
487.081	153.25
487.299	169.25
487.517	162.25
487.735	159.25
487.953	149.25
488.171	183.25
488.389	167.25
488.607	159.25
488.825	179.25
489.043	155.25
489.261	143.25
489.479	148.25
489.696	170.25
489.914	179.25
490.132	169.25
490.35	172.25
490.568	160.25
490.786	184.25
491.003	159.25
491.221	181.25
491.439	165.25
491.657	170.25
491.874	174.25
492.092	159.25
492.31	172.25
492.527	161.25
492.745	162.25
492.963	166.25
493.18	178.25
493.398	169.25
493.615	160.25
493.833	165.25
494.05	172.25
494.268	179.25
494.485	187.25
494.703	171.25
494.92	179.25
495.138	172.25
495.355	179.25
495.573	185.25
495.79	166.25
496.008	164.25
496.225	171.25
496.442	170.25
496.66	192.25
496.877	164.25
497.094	199.25
497.312	178.25
497.529	186.25
497.746	188.25
497.963	181.25
498.181	186.25
498.398	222.25
498.615	224.25
498.832	205.25
499.049	237.25
499.267	247.25
499.484	263.25
499.701	305.25
499.918	295.25
500.135	348.25
500.352	375.25
500.569	370.25
500.786	361.25
501.003	353.25
501.22	314.25
501.437	279.25
501.654	272.25
501.871	248.25
502.088	233.25
502.305	221.25
502.522	213.25
502.739	209.25
502.956	208.25
503.172	209.25
503.389	201.25
503.606	187.25
503.823	180.25
504.04	182.25
504.256	181.25
504.473	198.25
504.69	205.25
504.907	193.25
505.123	174.25
505.34	163.25
505.557	176.25
505.773	187.25
505.99	169.25
506.207	164.25
506.423	171.25
506.64	159.25
506.856	167.25
507.073	145.25
507.289	181.25
507.506	165.25
507.722	157.25
507.939	160.25
508.155	152.25
508.372	157.25
508.588	168.25
508.805	159.25
509.021	159.25
509.238	144.25
509.454	147.25
509.67	167.25
509.887	154.25
510.103	154.25
510.319	147.25
510.536	152.25
510.752	154.25
510.968	155.25
511.184	163.25
511.401	154.25
511.617	159.25
511.833	133.25
512.049	170.25
512.265	155.25
512.481	145.25
512.698	159.25
512.914	148.25
513.13	158.25
513.346	149.25
513.562	171.25
513.778	165.25
513.994	159.25
514.21	143.25
514.426	157.25
514.642	154.25
514.858	145.25
515.074	149.25
515.29	172.25
515.506	167.25
515.721	152.25
515.937	170.25
516.153	161.25
516.369	169.25
516.585	169.25
516.801	159.25
517.016	192.25
517.232	178.25
517.448	172.25
517.664	202.25
517.879	190.25
518.095	202.25
518.311	166.25
518.527	181.25
518.742	175.25
518.958	173.25
519.173	157.25
519.389	172.25
519.605	155.25
519.82	170.25
520.036	177.25
520.251	149.25
520.467	149.25
520.682	151.25
520.898	127.25
521.113	144.25
521.329	161.25
521.544	154.25
521.76	147.25
521.975	156.25
522.19	154.25
522.406	156.25
522.621	159.25
522.836	163.25
523.052	170.25
523.267	157.25
523.482	164.25
523.698	142.25
523.913	147.25
524.128	142.25
524.343	153.25
524.559	169.25
524.774	154.25
524.989	159.25
525.204	155.25
525.419	153.25
525.634	140.25
525.849	128.25
526.064	155.25
526.28	151.25
526.495	129.25
526.71	159.25
526.925	138.25
527.14	147.25
527.355	162.25
527.57	147.25
527.785	160.25
527.999	153.25
528.214	153.25
528.429	156.25
528.644	153.25
528.859	156.25
529.074	148.25
529.289	154.25
529.503	151.25
529.718	152.25
529.933	144.25
530.148	144.25
530.363	138.25
530.577	155.25
530.792	151.25
531.007	138.25
531.221	150.25
531.436	152.25
531.651	139.25
531.865	145.25
532.08	145.25
532.295	136.25
532.509	150.25
532.724	130.25
532.938	141.25
533.153	155.25
533.367	151.25
533.582	152.25
533.796	135.25
534.011	151.25
534.225	155.25
534.44	157.25
534.654	168.25
534.868	147.25
535.083	151.25
535.297	134.25
535.511	153.25
535.726	131.25
535.94	133.25
536.154	149.25
536.369	147.25
536.583	129.25
536.797	140.25
537.011	128.25
537.225	136.25
537.44	137.25
537.654	141.25
537.868	129.25
538.082	144.25
538.296	145.25
538.51	156.25
538.724	152.25
538.938	143.25
539.153	148.25
539.367	150.25
539.581	151.25
539.795	137.25
540.009	124.25
540.222	163.25
540.436	147.25
540.65	133.25
540.864	145.25
541.078	140.25
541.292	154.25
541.506	140.25
541.72	143.25
541.934	133.25
542.147	146.25
542.361	140.25
542.575	134.25
542.789	132.25
543.002	115.25
543.216	140.25
543.43	131.25
543.644	132.25
543.857	136.25
544.071	147.25
544.285	153.25
544.498	134.25
544.712	133.25
544.925	147.25
545.139	147.25
545.352	143.25
545.566	142.25
545.779	159.25
545.993	150.25
546.206	154.25
546.42	147.25
546.633	135.25
546.847	140.25
547.06	137.25
547.274	132.25
547.487	157.25
547.7	159.25
547.914	136.25
548.127	147.25
548.34	163.25
548.554	149.25
548.767	149.25
548.98	140.25
549.193	148.25
549.407	163.25
549.62	137.25
549.833	152.25
550.046	136.25
550.259	139.25
550.473	135.25
550.686	145.25
550.899	144.25
551.112	144.25
551.325	133.25
551.538	141.25
551.751	134.25
551.964	160.25
552.177	158.25
552.39	133.25
552.603	147.25
552.816	148.25
553.029	158.25
553.242	158.25
553.455	144.25
553.667	151.25
553.88	127.25
554.093	159.25
554.306	161.25
554.519	149.25
554.732	138.25
554.944	150.25
555.157	140.25
555.37	144.25
555.583	144.25
555.795	148.25
556.008	126.25
556.221	131.25
556.433	142.25
556.646	136.25
556.859	132.25
557.071	128.25
557.284	125.25
557.496	153.25
557.709	140.25
557.921	128.25
558.134	137.25
558.346	132.25
558.559	144.25
558.771	117.25
558.984	115.25
559.196	126.25
559.409	130.25
559.621	144.25
559.833	122.25
560.046	126.25
560.258	128.25
560.47	133.25
560.683	133.25
560.895	140.25
561.107	129.25
561.32	151.25
561.532	139.25
561.744	137.25
561.956	134.25
562.168	125.25
562.381	128.25
562.593	131.25
562.805	133.25
563.017	143.25
563.229	126.25
563.441	123.25
563.653	130.25
563.865	147.25
564.077	118.25
564.289	134.25
564.501	148.25
564.713	156.25
564.925	141.25
565.137	128.25
565.349	140.25
565.561	156.25
565.773	158.25
565.985	154.25
566.197	167.25
566.408	155.25
566.62	158.25
566.832	183.25
567.044	185.25
567.255	179.25
567.467	185.25
567.679	201.25
567.891	195.25
568.102	210.25
568.314	198.25
568.526	181.25
568.737	182.25
568.949	159.25
569.161	140.25
569.372	134.25
569.584	132.25
569.795	141.25
570.007	129.25
570.218	141.25
570.43	135.25
570.641	143.25
570.853	150.25
571.064	130.25
571.276	124.25
571.487	133.25
571.698	133.25
571.91	133.25
572.121	114.25
572.333	128.25
572.544	107.25
572.755	140.25
572.966	143.25
573.178	124.25
573.389	138.25
573.6	130.25
573.811	128.25
574.023	126.25
574.234	125.25
574.445	130.25
574.656	114.25
574.867	121.25
575.078	109.25
575.289	105.25
575.501	124.25
575.712	136.25
575.923	119.25
576.134	136.25
576.345	118.25
576.556	114.25
576.767	116.25
576.978	113.25
577.188	126.25
577.399	125.25
577.61	117.25
577.821	131.25
578.032	120.25
578.243	121.25
578.454	127.25
578.665	108.25
578.875	125.25
579.086	107.25
579.297	105.25
579.508	127.25
579.718	121.25
579.929	127.25
580.14	127.25
580.35	111.25
580.561	123.25
580.772	133.25
580.982	99.25
581.193	102.25
581.403	119.25
581.614	120.25
581.825	122.25
582.035	112.25
582.246	131.25
582.456	123.25
582.667	116.25
582.877	122.25
583.087	103.25
583.298	111.25
583.508	107.25
583.719	121.25
583.929	123.25
584.139	119.25
584.35	121.25
584.56	111.25
584.77	117.25
584.981	128.25
585.191	116.25
585.401	119.25
585.611	115.25
585.821	126.25
586.032	107.25
586.242	113.25
586.452	100.25
586.662	119.25
586.872	131.25
587.082	116.25
587.292	115.25
587.502	120.25
587.713	119.25
587.923	108.25
588.133	114.25
588.343	119.25
588.553	117.25
588.762	123.25
588.972	113.25
589.182	104.25
589.392	117.25
589.602	108.25
589.812	101.25
590.022	115.25
590.232	109.25
590.441	115.25
590.651	115.25
590.861	121.25
591.071	113.25
591.281	131.25
591.49	109.25
591.7	111.25
591.91	124.25
592.119	112.25
592.329	111.25
592.539	114.25
592.748	117.25
592.958	145.25
593.167	137.25
593.377	143.25
593.587	136.25
593.796	136.25
594.006	140.25
594.215	127.25
594.424	127.25
594.634	115.25
594.843	125.25
595.053	125.25
595.262	116.25
595.472	120.25
595.681	125.25
595.89	120.25
596.1	116.25
596.309	115.25
596.518	118.25
596.727	114.25
596.937	104.25
597.146	117.25
597.355	99.25
597.564	104.25
597.774	120.25
597.983	114.25
598.192	101.25
598.401	109.25
598.61	111.25
598.819	103.25
599.028	100.25
599.237	103.25
599.446	100.25
599.655	114.25
599.864	113.25
600.073	109.25
600.282	125.25
600.491	100.25
600.7	103.25
600.909	107.25
601.118	101.25
601.327	106.25
601.536	100.25
601.745	103.25
601.953	120.25
602.162	90.25
602.371	99.25
602.58	106.25
602.789	98.25
602.997	114.25
603.206	126.25
603.415	101.25
603.623	103.25
603.832	116.25
604.041	108.25
604.249	94.25
604.458	104.25
604.666	102.25
604.875	121.25
605.084	99.25
605.292	100.25
605.501	100.25
605.709	108.25
605.918	115.25
606.126	120.25
606.334	98.25
606.543	103.25
606.751	91.25
606.96	96.25
607.168	108.25
607.376	106.25
607.585	109.25
607.793	99.25
608.001	93.25
608.21	98.25
608.418	93.25
608.626	93.25
608.834	110.25
609.043	105.25
609.251	100.25
609.459	84.25
609.667	117.25
609.875	108.25
610.083	101.25
610.291	98.25
610.499	112.25
610.707	109.25
610.916	107.25
611.124	108.25
611.332	105.25
611.54	100.25
611.748	90.25
611.955	97.25
612.163	86.25
612.371	105.25
612.579	99.25
612.787	101.25
612.995	107.25
613.203	103.25
613.411	118.25
613.618	96.25
613.826	107.25
614.034	104.25
614.242	100.25
614.449	107.25
614.657	106.25
614.865	110.25
615.072	107.25
615.28	108.25
615.488	107.25
615.695	105.25
615.903	124.25
616.111	118.25
616.318	137.25
616.526	105.25
616.733	96.25
616.941	106.25
617.148	103.25
617.356	113.25
617.563	93.25
617.771	104.25
617.978	90.25
618.185	105.25
618.393	96.25
618.6	107.25
618.807	97.25
619.015	122.25
619.222	93.25
619.429	123.25
619.637	108.25
619.844	87.25
620.051	104.25
620.258	98.25
620.466	99.25
620.673	92.25
620.88	103.25
621.087	86.25
621.294	99.25
621.501	94.25
621.708	99.25
621.915	107.25
622.122	93.25
622.329	116.25
622.536	109.25
622.743	105.25
622.95	103.25
623.157	97.25
623.364	109.25
623.571	90.25
623.778	99.25
623.985	113.25
624.192	102.25
624.399	101.25
624.606	115.25
624.812	113.25
625.019	93.25
625.226	103.25
625.433	91.25
625.639	92.25
625.846	99.25
626.053	90.25
626.259	109.25
626.466	115.25
626.673	96.25
626.879	92.25
627.086	111.25
627.293	92.25
627.499	99.25
627.706	114.25
627.912	97.25
628.119	92.25
628.325	104.25
628.532	105.25
628.738	93.25
628.945	95.25
629.151	100.25
629.357	97.25
629.564	102.25
629.77	106.25
629.976	105.25
630.183	95.25
630.389	87.25
630.595	99.25
630.802	90.25
631.008	87.25
631.214	84.25
631.42	95.25
631.627	127.25
631.833	100.25
632.039	91.25
632.245	99.25
632.451	87.25
632.657	98.25
632.863	113.25
633.069	107.25
633.275	106.25
633.481	103.25
633.688	97.25
633.893	101.25
634.099	115.25
634.305	90.25
634.511	98.25
634.717	104.25
634.923	93.25
635.129	107.25
635.335	91.25
635.541	88.25
635.747	99.25
635.952	89.25
636.158	115.25
636.364	101.25
636.57	90.25
636.775	91.25
636.981	103.25
637.187	99.25
637.392	87.25
637.598	93.25
637.804	97.25
638.009	87.25
638.215	89.25
638.421	101.25
638.626	103.25
638.832	102.25
639.037	92.25
639.243	104.25
639.448	109.25
639.654	100.25
639.859	71.25
640.065	101.25
640.27	99.25
640.475	93.25
640.681	85.25
640.886	98.25
641.091	91.25
641.297	95.25
641.502	88.25
641.707	98.25
641.913	98.25
642.118	94.25
642.323	91.25
642.528	111.25
642.733	92.25
642.939	87.25
643.144	98.25
643.349	91.25
643.554	100.25
643.759	87.25
643.964	99.25
644.169	97.25
644.374	72.25
644.579	94.25
644.784	108.25
644.989	100.25
645.194	102.25
645.399	83.25
645.604	92.25
645.809	97.25
646.014	98.25
646.219	108.25
646.423	91.25
646.628	99.25
646.833	97.25
647.038	95.25
647.243	105.25
647.447	104.25
647.652	92.25
647.857	89.25
648.062	98.25
648.266	103.25
648.471	88.25
648.676	95.25
648.88	100.25
649.085	99.25
649.289	95.25
649.494	89.25
649.698	89.25
649.903	85.25
650.107	102.25
650.312	103.25
650.516	92.25
650.721	86.25
650.925	83.25
651.13	79.25
651.334	103.25
651.539	87.25
651.743	77.25
651.947	105.25
652.152	105.25
652.356	102.25
652.56	92.25
652.764	87.25
652.969	98.25
653.173	76.25
653.377	74.25
653.581	105.25
653.785	84.25
653.99	92.25
654.194	94.25
654.398	104.25
654.602	99.25
654.806	72.25
655.01	97.25
655.214	83.25
655.418	71.25
655.622	81.25
655.826	82.25
656.03	82.25
656.234	97.25
656.438	93.25
656.642	96.25
656.846	82.25
657.049	99.25
657.253	100.25
657.457	97.25
657.661	88.25
657.865	90.25
658.068	86.25
658.272	83.25
658.476	80.25
658.68	69.25
658.883	71.25
659.087	82.25
659.291	100.25
659.494	82.25
659.698	72.25
659.901	73.25
660.105	82.25
660.309	81.25
660.512	89.25
660.716	87.25
660.919	82.25
661.123	111.25
661.326	73.25
661.53	82.25
661.733	87.25
661.936	75.25
662.14	67.25
662.343	90.25
662.546	81.25
662.75	82.25
662.953	96.25
663.156	96.25
663.36	84.25
663.563	76.25
663.766	75.25
663.969	75.25
664.173	88.25
664.376	74.25
664.579	81.25
664.782	59.25
664.985	72.25
665.188	74.25
665.391	80.25
665.594	71.25
665.797	78.25
666	83.25
666.203	72.25
666.406	81.25
666.609	81.25
666.812	83.25
667.015	73.25
667.218	75.25
667.421	85.25
667.624	87.25
667.827	86.25
668.03	84.25
668.232	75.25
668.435	84.25
668.638	83.25
668.841	82.25
669.043	88.25
669.246	83.25
669.449	81.25
669.651	75.25
669.854	67.25
670.057	89.25
670.259	72.25
670.462	72.25
670.665	81.25
670.867	73.25
671.07	85.25
671.272	89.25
671.475	87.25
671.677	79.25
671.88	81.25
672.082	89.25
672.284	78.25
672.487	68.25
672.689	72.25
672.892	79.25
