Data from 17600_3_HRD10591_00023.txt Node
Date: Mon Jan 19 14:09:35 EST 2026
User: Yrep
Spectrometer: HR+D1059
Trigger mode: 1
Integration Time (sec): 1.000000E-1
Scans to average: 1
Electric dark correction enabled: true
Nonlinearity correction enabled: false
Boxcar width: 0
XAxis mode: Wavelengths
Number of Pixels in Spectrum: 2048
>>>>>Begin Spectral Data<<<<<
223.165	-27.44
223.4	-27.44
223.635	-27.44
223.869	-33.44
224.104	-24.44
224.338	-7.44
224.573	-28.44
224.808	-12.44
225.042	-4.44
225.277	-4.44
225.511	7.56
225.746	11.56
225.98	4.56
226.215	6.56
226.449	16.56
226.683	32.56
226.918	23.56
227.152	39.56
227.387	36.56
227.621	39.56
227.856	44.56
228.09	55.56
228.324	59.56
228.559	55.56
228.793	66.56
229.027	70.56
229.262	73.56
229.496	69.56
229.73	69.56
229.964	66.56
230.199	72.56
230.433	82.56
230.667	76.56
230.901	84.56
231.136	92.56
231.37	69.56
231.604	80.56
231.838	70.56
232.072	77.56
232.306	61.56
232.541	74.56
232.775	83.56
233.009	70.56
233.243	73.56
233.477	83.56
233.711	91.56
233.945	79.56
234.179	88.56
234.413	64.56
234.647	79.56
234.881	77.56
235.115	80.56
235.349	74.56
235.583	73.56
235.817	82.56
236.051	84.56
236.285	72.56
236.519	72.56
236.753	89.56
236.987	90.56
237.221	76.56
237.455	69.56
237.689	84.56
237.922	81.56
238.156	80.56
238.39	67.56
238.624	76.56
238.858	66.56
239.091	75.56
239.325	95.56
239.559	76.56
239.793	83.56
240.027	88.56
240.26	66.56
240.494	83.56
240.728	78.56
240.961	85.56
241.195	74.56
241.429	74.56
241.662	76.56
241.896	75.56
242.13	74.56
242.363	91.56
242.597	79.56
242.83	80.56
243.064	75.56
243.298	67.56
243.531	67.56
243.765	85.56
243.998	61.56
244.232	89.56
244.465	85.56
244.699	83.56
244.932	77.56
245.166	73.56
245.399	84.56
245.633	80.56
245.866	74.56
246.099	80.56
246.333	78.56
246.566	86.56
246.8	88.56
247.033	82.56
247.266	91.56
247.5	88.56
247.733	78.56
247.966	77.56
248.2	75.56
248.433	83.56
248.666	82.56
248.899	94.56
249.133	82.56
249.366	92.56
249.599	72.56
249.832	85.56
250.066	95.56
250.299	79.56
250.532	74.56
250.765	86.56
250.998	82.56
251.231	78.56
251.465	70.56
251.698	91.56
251.931	86.56
252.164	82.56
252.397	90.56
252.63	72.56
252.863	83.56
253.096	82.56
253.329	66.56
253.562	82.56
253.795	71.56
254.028	82.56
254.261	98.56
254.494	83.56
254.727	80.56
254.96	111.56
255.193	74.56
255.426	70.56
255.659	98.56
255.892	86.56
256.124	72.56
256.357	67.56
256.59	64.56
256.823	74.56
257.056	65.56
257.289	69.56
257.521	59.56
257.754	73.56
257.987	81.56
258.22	97.56
258.452	87.56
258.685	86.56
258.918	96.56
259.151	85.56
259.383	89.56
259.616	83.56
259.849	87.56
260.081	73.56
260.314	82.56
260.547	69.56
260.779	83.56
261.012	77.56
261.244	87.56
261.477	70.56
261.71	89.56
261.942	89.56
262.175	74.56
262.407	86.56
262.64	91.56
262.872	70.56
263.105	84.56
263.337	82.56
263.57	83.56
263.802	64.56
264.035	76.56
264.267	77.56
264.499	80.56
264.732	73.56
264.964	94.56
265.197	81.56
265.429	77.56
265.661	69.56
265.894	82.56
266.126	86.56
266.358	71.56
266.591	77.56
266.823	73.56
267.055	71.56
267.287	93.56
267.52	86.56
267.752	87.56
267.984	91.56
268.216	73.56
268.448	72.56
268.681	64.56
268.913	71.56
269.145	77.56
269.377	82.56
269.609	86.56
269.841	87.56
270.073	87.56
270.306	91.56
270.538	92.56
270.77	90.56
271.002	90.56
271.234	72.56
271.466	83.56
271.698	77.56
271.93	96.56
272.162	77.56
272.394	83.56
272.626	80.56
272.858	94.56
273.09	87.56
273.322	88.56
273.553	90.56
273.785	82.56
274.017	87.56
274.249	81.56
274.481	74.56
274.713	74.56
274.945	90.56
275.176	76.56
275.408	83.56
275.64	89.56
275.872	88.56
276.104	78.56
276.335	78.56
276.567	60.56
276.799	111.56
277.031	80.56
277.262	81.56
277.494	84.56
277.726	87.56
277.957	80.56
278.189	87.56
278.421	95.56
278.652	90.56
278.884	78.56
279.115	82.56
279.347	90.56
279.579	98.56
279.81	85.56
280.042	94.56
280.273	89.56
280.505	100.56
280.736	87.56
280.968	84.56
281.199	76.56
281.431	79.56
281.662	80.56
281.894	95.56
282.125	86.56
282.356	82.56
282.588	74.56
282.819	91.56
283.051	82.56
283.282	84.56
283.513	87.56
283.745	77.56
283.976	74.56
284.207	86.56
284.439	82.56
284.67	88.56
284.901	82.56
285.132	94.56
285.364	86.56
285.595	82.56
285.826	74.56
286.057	86.56
286.288	77.56
286.52	82.56
286.751	76.56
286.982	82.56
287.213	86.56
287.444	85.56
287.675	83.56
287.906	89.56
288.138	72.56
288.369	79.56
288.6	104.56
288.831	76.56
289.062	95.56
289.293	79.56
289.524	75.56
289.755	70.56
289.986	76.56
290.217	87.56
290.448	86.56
290.679	82.56
290.91	73.56
291.141	83.56
291.371	86.56
291.602	77.56
291.833	69.56
292.064	81.56
292.295	83.56
292.526	84.56
292.757	74.56
292.987	87.56
293.218	81.56
293.449	87.56
293.68	95.56
293.91	93.56
294.141	94.56
294.372	92.56
294.603	80.56
294.833	90.56
295.064	94.56
295.295	77.56
295.525	76.56
295.756	83.56
295.987	84.56
296.217	74.56
296.448	81.56
296.679	80.56
296.909	94.56
297.14	81.56
297.37	94.56
297.601	94.56
297.831	80.56
298.062	85.56
298.292	100.56
298.523	73.56
298.753	77.56
298.984	80.56
299.214	85.56
299.445	96.56
299.675	74.56
299.905	84.56
300.136	71.56
300.366	100.56
300.597	94.56
300.827	87.56
301.057	95.56
301.288	76.56
301.518	92.56
301.748	94.56
301.979	98.56
302.209	83.56
302.439	76.56
302.669	81.56
302.9	94.56
303.13	79.56
303.36	99.56
303.59	76.56
303.82	83.56
304.051	86.56
304.281	87.56
304.511	83.56
304.741	77.56
304.971	70.56
305.201	82.56
305.431	80.56
305.661	82.56
305.891	83.56
306.121	92.56
306.352	86.56
306.582	85.56
306.812	84.56
307.042	84.56
307.272	68.56
307.502	83.56
307.731	92.56
307.961	100.56
308.191	83.56
308.421	75.56
308.651	107.56
308.881	76.56
309.111	95.56
309.341	92.56
309.571	94.56
309.8	87.56
310.03	77.56
310.26	80.56
310.49	85.56
310.72	80.56
310.949	80.56
311.179	82.56
311.409	76.56
311.639	75.56
311.868	81.56
312.098	91.56
312.328	86.56
312.557	87.56
312.787	85.56
313.017	71.56
313.246	84.56
313.476	91.56
313.706	97.56
313.935	85.56
314.165	99.56
314.394	91.56
314.624	80.56
314.853	92.56
315.083	88.56
315.312	95.56
315.542	82.56
315.771	99.56
316.001	86.56
316.23	101.56
316.46	95.56
316.689	79.56
316.919	80.56
317.148	98.56
317.377	91.56
317.607	83.56
317.836	102.56
318.065	94.56
318.295	93.56
318.524	84.56
318.753	75.56
318.983	75.56
319.212	87.56
319.441	93.56
319.67	90.56
319.9	74.56
320.129	88.56
320.358	77.56
320.587	76.56
320.816	85.56
321.046	85.56
321.275	104.56
321.504	78.56
321.733	83.56
321.962	80.56
322.191	91.56
322.42	84.56
322.649	90.56
322.878	82.56
323.108	86.56
323.337	83.56
323.566	88.56
323.795	89.56
324.024	86.56
324.253	83.56
324.482	84.56
324.71	75.56
324.939	80.56
325.168	88.56
325.397	80.56
325.626	88.56
325.855	76.56
326.084	85.56
326.313	97.56
326.542	105.56
326.77	81.56
326.999	81.56
327.228	70.56
327.457	73.56
327.686	98.56
327.914	78.56
328.143	77.56
328.372	87.56
328.6	79.56
328.829	77.56
329.058	77.56
329.287	81.56
329.515	90.56
329.744	76.56
329.972	81.56
330.201	94.56
330.43	90.56
330.658	81.56
330.887	89.56
331.115	94.56
331.344	72.56
331.572	94.56
331.801	95.56
332.03	72.56
332.258	90.56
332.486	88.56
332.715	78.56
332.943	76.56
333.172	78.56
333.4	87.56
333.629	78.56
333.857	75.56
334.085	95.56
334.314	88.56
334.542	91.56
334.771	102.56
334.999	90.56
335.227	95.56
335.455	87.56
335.684	97.56
335.912	102.56
336.14	69.56
336.369	95.56
336.597	91.56
336.825	82.56
337.053	83.56
337.281	82.56
337.51	90.56
337.738	87.56
337.966	82.56
338.194	59.56
338.422	80.56
338.65	95.56
338.878	82.56
339.106	85.56
339.334	90.56
339.562	88.56
339.79	89.56
340.018	69.56
340.246	77.56
340.474	76.56
340.702	69.56
340.93	82.56
341.158	82.56
341.386	76.56
341.614	77.56
341.842	90.56
342.07	78.56
342.298	82.56
342.526	76.56
342.754	92.56
342.981	94.56
343.209	94.56
343.437	99.56
343.665	85.56
343.893	83.56
344.12	87.56
344.348	86.56
344.576	88.56
344.804	83.56
345.031	85.56
345.259	84.56
345.487	84.56
345.714	90.56
345.942	84.56
346.17	101.56
346.397	92.56
346.625	114.56
346.853	73.56
347.08	82.56
347.308	82.56
347.535	76.56
347.763	82.56
347.99	94.56
348.218	94.56
348.445	79.56
348.673	81.56
348.9	94.56
349.128	82.56
349.355	82.56
349.583	84.56
349.81	82.56
350.037	84.56
350.265	89.56
350.492	76.56
350.72	81.56
350.947	84.56
351.174	94.56
351.402	83.56
351.629	91.56
351.856	98.56
352.083	82.56
352.311	80.56
352.538	76.56
352.765	91.56
352.992	90.56
353.22	88.56
353.447	86.56
353.674	93.56
353.901	86.56
354.128	84.56
354.355	79.56
354.583	91.56
354.81	98.56
355.037	98.56
355.264	94.56
355.491	76.56
355.718	100.56
355.945	80.56
356.172	92.56
356.399	87.56
356.626	96.56
356.853	96.56
357.08	85.56
357.307	77.56
357.534	86.56
357.761	94.56
357.988	95.56
358.215	92.56
358.441	86.56
358.668	84.56
358.895	76.56
359.122	78.56
359.349	88.56
359.576	84.56
359.802	83.56
360.029	73.56
360.256	75.56
360.483	92.56
360.709	82.56
360.936	89.56
361.163	69.56
361.39	88.56
361.616	75.56
361.843	94.56
362.07	84.56
362.296	101.56
362.523	88.56
362.749	90.56
362.976	102.56
363.203	103.56
363.429	104.56
363.656	100.56
363.882	77.56
364.109	105.56
364.335	114.56
364.562	115.56
364.788	99.56
365.015	90.56
365.241	78.56
365.468	93.56
365.694	82.56
365.92	78.56
366.147	82.56
366.373	80.56
366.599	93.56
366.826	89.56
367.052	85.56
367.278	91.56
367.505	88.56
367.731	100.56
367.957	91.56
368.184	77.56
368.41	76.56
368.636	95.56
368.862	71.56
369.089	90.56
369.315	76.56
369.541	116.56
369.767	92.56
369.993	84.56
370.219	85.56
370.445	86.56
370.672	95.56
370.898	89.56
371.124	87.56
371.35	82.56
371.576	80.56
371.802	92.56
372.028	87.56
372.254	86.56
372.48	99.56
372.706	85.56
372.932	83.56
373.158	94.56
373.384	95.56
373.61	110.56
373.835	98.56
374.061	99.56
374.287	100.56
374.513	97.56
374.739	88.56
374.965	92.56
375.191	96.56
375.416	82.56
375.642	84.56
375.868	98.56
376.094	95.56
376.319	77.56
376.545	101.56
376.771	83.56
376.997	92.56
377.222	90.56
377.448	74.56
377.674	76.56
377.899	86.56
378.125	89.56
378.35	95.56
378.576	85.56
378.802	72.56
379.027	81.56
379.253	92.56
379.478	95.56
379.704	83.56
379.929	92.56
380.155	73.56
380.38	81.56
380.606	86.56
380.831	88.56
381.057	90.56
381.282	91.56
381.507	95.56
381.733	88.56
381.958	82.56
382.184	97.56
382.409	101.56
382.634	110.56
382.86	89.56
383.085	94.56
383.31	94.56
383.535	93.56
383.761	100.56
383.986	104.56
384.211	104.56
384.436	86.56
384.662	103.56
384.887	88.56
385.112	95.56
385.337	98.56
385.562	88.56
385.787	99.56
386.013	96.56
386.238	104.56
386.463	97.56
386.688	103.56
386.913	83.56
387.138	110.56
387.363	96.56
387.588	88.56
387.813	87.56
388.038	94.56
388.263	91.56
388.488	94.56
388.713	78.56
388.938	85.56
389.163	78.56
389.387	102.56
389.612	76.56
389.837	92.56
390.062	90.56
390.287	85.56
390.512	96.56
390.736	89.56
390.961	84.56
391.186	82.56
391.411	90.56
391.636	91.56
391.86	87.56
392.085	91.56
392.31	88.56
392.534	102.56
392.759	115.56
392.984	157.56
393.208	227.56
393.433	341.56
393.658	258.56
393.882	134.56
394.107	97.56
394.331	106.56
394.556	118.56
394.78	108.56
395.005	92.56
395.229	86.56
395.454	96.56
395.678	98.56
395.903	105.56
396.127	129.56
396.352	133.56
396.576	153.56
396.801	218.56
397.025	268.56
397.249	156.56
397.474	102.56
397.698	101.56
397.922	97.56
398.147	103.56
398.371	75.56
398.595	106.56
398.82	88.56
399.044	85.56
399.268	100.56
399.492	98.56
399.717	87.56
399.941	102.56
400.165	85.56
400.389	75.56
400.613	91.56
400.837	82.56
401.062	89.56
401.286	81.56
401.51	98.56
401.734	80.56
401.958	96.56
402.182	71.56
402.406	80.56
402.63	81.56
402.854	77.56
403.078	73.56
403.302	84.56
403.526	89.56
403.75	89.56
403.974	71.56
404.198	80.56
404.422	73.56
404.645	94.56
404.869	96.56
405.093	85.56
405.317	92.56
405.541	79.56
405.765	84.56
405.988	88.56
406.212	81.56
406.436	90.56
406.66	96.56
406.883	87.56
407.107	86.56
407.331	92.56
407.555	107.56
407.778	112.56
408.002	111.56
408.226	84.56
408.449	82.56
408.673	81.56
408.896	88.56
409.12	94.56
409.344	93.56
409.567	86.56
409.791	88.56
410.014	88.56
410.238	85.56
410.461	82.56
410.685	97.56
410.908	91.56
411.132	83.56
411.355	68.56
411.578	88.56
411.802	72.56
412.025	89.56
412.249	86.56
412.472	90.56
412.695	83.56
412.919	86.56
413.142	83.56
413.365	84.56
413.589	72.56
413.812	89.56
414.035	75.56
414.258	93.56
414.482	70.56
414.705	85.56
414.928	77.56
415.151	88.56
415.374	97.56
415.597	77.56
415.821	86.56
416.044	90.56
416.267	79.56
416.49	72.56
416.713	87.56
416.936	95.56
417.159	92.56
417.382	86.56
417.605	91.56
417.828	87.56
418.051	67.56
418.274	80.56
418.497	87.56
418.72	81.56
418.943	83.56
419.166	83.56
419.389	98.56
419.611	88.56
419.834	82.56
420.057	78.56
420.28	94.56
420.503	87.56
420.726	81.56
420.948	91.56
421.171	99.56
421.394	116.56
421.617	112.56
421.839	128.56
422.062	121.56
422.285	150.56
422.507	211.56
422.73	303.56
422.953	294.56
423.175	175.56
423.398	110.56
423.621	109.56
423.843	93.56
424.066	103.56
424.288	91.56
424.511	94.56
424.733	91.56
424.956	96.56
425.178	104.56
425.401	85.56
425.623	101.56
425.846	91.56
426.068	95.56
426.291	84.56
426.513	80.56
426.735	87.56
426.958	85.56
427.18	76.56
427.402	95.56
427.625	83.56
427.847	93.56
428.069	94.56
428.292	107.56
428.514	110.56
428.736	90.56
428.958	110.56
429.181	116.56
429.403	94.56
429.625	86.56
429.847	123.56
430.069	139.56
430.292	145.56
430.514	132.56
430.736	112.56
430.958	110.56
431.18	95.56
431.402	94.56
431.624	106.56
431.846	104.56
432.068	120.56
432.29	92.56
432.512	84.56
432.734	76.56
432.956	93.56
433.178	84.56
433.4	90.56
433.622	87.56
433.844	80.56
434.066	88.56
434.287	76.56
434.509	98.56
434.731	70.56
434.953	82.56
435.175	83.56
435.397	88.56
435.618	92.56
435.84	89.56
436.062	83.56
436.284	84.56
436.505	91.56
436.727	83.56
436.949	88.56
437.17	85.56
437.392	79.56
437.614	94.56
437.835	91.56
438.057	89.56
438.278	86.56
438.5	103.56
438.721	90.56
438.943	95.56
439.165	99.56
439.386	71.56
439.608	87.56
439.829	89.56
440.05	89.56
440.272	69.56
440.493	90.56
440.715	82.56
440.936	74.56
441.158	82.56
441.379	80.56
441.6	72.56
441.822	99.56
442.043	92.56
442.264	84.56
442.486	120.56
442.707	130.56
442.928	100.56
443.149	107.56
443.371	139.56
443.592	189.56
443.813	166.56
444.034	90.56
444.255	88.56
444.476	94.56
444.698	88.56
444.919	96.56
445.14	149.56
445.361	168.56
445.582	204.56
445.803	196.56
446.024	116.56
446.245	89.56
446.466	89.56
446.687	80.56
446.908	79.56
447.129	86.56
447.35	78.56
447.571	83.56
447.792	88.56
448.013	73.56
448.234	86.56
448.455	103.56
448.675	88.56
448.896	90.56
449.117	106.56
449.338	89.56
449.559	89.56
449.779	90.56
450	94.56
450.221	85.56
450.442	78.56
450.662	91.56
450.883	72.56
451.104	77.56
451.324	95.56
451.545	85.56
451.766	100.56
451.986	84.56
452.207	72.56
452.428	80.56
452.648	83.56
452.869	106.56
453.089	83.56
453.31	86.56
453.53	88.56
453.751	95.56
453.971	81.56
454.192	74.56
454.412	86.56
454.633	72.56
454.853	97.56
455.073	84.56
455.294	89.56
455.514	88.56
455.734	88.56
455.955	90.56
456.175	82.56
456.395	86.56
456.616	82.56
456.836	71.56
457.056	81.56
457.276	78.56
457.497	80.56
457.717	96.56
457.937	105.56
458.157	116.56
458.377	102.56
458.598	95.56
458.818	115.56
459.038	84.56
459.258	95.56
459.478	92.56
459.698	74.56
459.918	91.56
460.138	80.56
460.358	84.56
460.578	92.56
460.798	119.56
461.018	119.56
461.238	88.56
461.458	85.56
461.678	94.56
461.898	103.56
462.118	92.56
462.338	97.56
462.558	74.56
462.777	78.56
462.997	70.56
463.217	69.56
463.437	75.56
463.657	73.56
463.876	84.56
464.096	87.56
464.316	92.56
464.536	81.56
464.755	83.56
464.975	82.56
465.195	86.56
465.414	72.56
465.634	88.56
465.854	91.56
466.073	97.56
466.293	91.56
466.512	75.56
466.732	100.56
466.951	87.56
467.171	78.56
467.391	89.56
467.61	68.56
467.829	82.56
468.049	88.56
468.268	89.56
468.488	92.56
468.707	82.56
468.927	90.56
469.146	87.56
469.365	91.56
469.585	88.56
469.804	83.56
470.023	92.56
470.243	84.56
470.462	78.56
470.681	93.56
470.901	87.56
471.12	94.56
471.339	98.56
471.558	82.56
471.777	92.56
471.997	90.56
472.216	96.56
472.435	90.56
472.654	86.56
472.873	86.56
473.092	91.56
473.311	86.56
473.53	82.56
473.749	88.56
473.968	88.56
474.187	85.56
474.406	85.56
474.625	95.56
474.844	95.56
475.063	74.56
475.282	84.56
475.501	70.56
475.72	82.56
475.939	85.56
476.158	96.56
476.377	90.56
476.596	80.56
476.814	88.56
477.033	97.56
477.252	87.56
477.471	98.56
477.69	84.56
477.908	84.56
478.127	86.56
478.346	84.56
478.564	83.56
478.783	77.56
479.002	77.56
479.22	86.56
479.439	88.56
479.658	83.56
479.876	79.56
480.095	87.56
480.313	91.56
480.532	102.56
480.751	85.56
480.969	81.56
481.188	77.56
481.406	112.56
481.624	72.56
481.843	79.56
482.061	80.56
482.28	73.56
482.498	87.56
482.717	69.56
482.935	96.56
483.153	90.56
483.372	100.56
483.59	99.56
483.808	91.56
484.027	94.56
484.245	88.56
484.463	84.56
484.681	89.56
484.9	99.56
485.118	100.56
485.336	83.56
485.554	96.56
485.772	86.56
485.99	78.56
486.209	91.56
486.427	85.56
486.645	76.56
486.863	97.56
487.081	86.56
487.299	96.56
487.517	113.56
487.735	108.56
487.953	148.56
488.171	125.56
488.389	86.56
488.607	82.56
488.825	85.56
489.043	97.56
489.261	83.56
489.479	91.56
489.696	77.56
489.914	92.56
490.132	86.56
490.35	82.56
490.568	82.56
490.786	90.56
491.003	85.56
491.221	92.56
491.439	68.56
491.657	77.56
491.874	88.56
492.092	88.56
492.31	91.56
492.527	92.56
492.745	98.56
492.963	82.56
493.18	95.56
493.398	86.56
493.615	96.56
493.833	86.56
494.05	96.56
494.268	77.56
494.485	105.56
494.703	88.56
494.92	87.56
495.138	93.56
495.355	92.56
495.573	98.56
495.79	88.56
496.008	92.56
496.225	105.56
496.442	87.56
496.66	103.56
496.877	101.56
497.094	94.56
497.312	93.56
497.529	95.56
497.746	99.56
497.963	89.56
498.181	100.56
498.398	108.56
498.615	77.56
498.832	104.56
499.049	91.56
499.267	94.56
499.484	85.56
499.701	88.56
499.918	96.56
500.135	100.56
500.352	68.56
500.569	87.56
500.786	88.56
501.003	97.56
501.22	105.56
501.437	80.56
501.654	98.56
501.871	96.56
502.088	85.56
502.305	83.56
502.522	86.56
502.739	74.56
502.956	72.56
503.172	99.56
503.389	90.56
503.606	79.56
503.823	87.56
504.04	91.56
504.256	122.56
504.473	132.56
504.69	104.56
504.907	96.56
505.123	98.56
505.34	91.56
505.557	98.56
505.773	84.56
505.99	88.56
506.207	92.56
506.423	89.56
506.64	67.56
506.856	94.56
507.073	90.56
507.289	99.56
507.506	97.56
507.722	89.56
507.939	88.56
508.155	98.56
508.372	83.56
508.588	73.56
508.805	81.56
509.021	88.56
509.238	86.56
509.454	95.56
509.67	78.56
509.887	84.56
510.103	84.56
510.319	90.56
510.536	98.56
510.752	93.56
510.968	83.56
511.184	91.56
511.401	84.56
511.617	88.56
511.833	82.56
512.049	94.56
512.265	89.56
512.481	90.56
512.698	94.56
512.914	86.56
513.13	85.56
513.346	89.56
513.562	83.56
513.778	81.56
513.994	85.56
514.21	100.56
514.426	84.56
514.642	71.56
514.858	88.56
515.074	80.56
515.29	84.56
515.506	82.56
515.721	84.56
515.937	98.56
516.153	85.56
516.369	84.56
516.585	76.56
516.801	104.56
517.016	87.56
517.232	96.56
517.448	110.56
517.664	86.56
517.879	78.56
518.095	97.56
518.311	90.56
518.527	123.56
518.742	106.56
518.958	146.56
519.173	138.56
519.389	103.56
519.605	94.56
519.82	99.56
520.036	96.56
520.251	95.56
520.467	98.56
520.682	89.56
520.898	93.56
521.113	79.56
521.329	98.56
521.544	89.56
521.76	75.56
521.975	86.56
522.19	87.56
522.406	92.56
522.621	97.56
522.836	97.56
523.052	100.56
523.267	95.56
523.482	91.56
523.698	92.56
523.913	102.56
524.128	101.56
524.343	103.56
524.559	104.56
524.774	97.56
524.989	76.56
525.204	91.56
525.419	94.56
525.634	96.56
525.849	98.56
526.064	105.56
526.28	182.56
526.495	225.56
526.71	250.56
526.925	167.56
527.14	204.56
527.355	195.56
527.57	103.56
527.785	117.56
527.999	93.56
528.214	104.56
528.429	88.56
528.644	94.56
528.859	102.56
529.074	94.56
529.289	102.56
529.503	100.56
529.718	76.56
529.933	90.56
530.148	92.56
530.363	95.56
530.577	99.56
530.792	92.56
531.007	107.56
531.221	95.56
531.436	90.56
531.651	98.56
531.865	112.56
532.08	87.56
532.295	108.56
532.509	93.56
532.724	103.56
532.938	99.56
533.153	86.56
533.367	117.56
533.582	102.56
533.796	98.56
534.011	99.56
534.225	93.56
534.44	113.56
534.654	112.56
534.868	110.56
535.083	147.56
535.297	135.56
535.511	100.56
535.726	91.56
535.94	104.56
536.154	93.56
536.369	91.56
536.583	106.56
536.797	99.56
537.011	107.56
537.225	105.56
537.44	96.56
537.654	92.56
537.868	100.56
538.082	95.56
538.296	101.56
538.51	103.56
538.724	107.56
538.938	90.56
539.153	103.56
539.367	116.56
539.581	102.56
539.795	110.56
540.009	104.56
540.222	98.56
540.436	94.56
540.65	104.56
540.864	98.56
541.078	103.56
541.292	109.56
541.506	102.56
541.72	98.56
541.934	107.56
542.147	107.56
542.361	103.56
542.575	102.56
542.789	104.56
543.002	100.56
543.216	101.56
543.43	98.56
543.644	102.56
543.857	112.56
544.071	104.56
544.285	106.56
544.498	98.56
544.712	104.56
544.925	95.56
545.139	97.56
545.352	97.56
545.566	108.56
545.779	115.56
545.993	121.56
546.206	116.56
546.42	123.56
546.633	113.56
546.847	122.56
547.06	125.56
547.274	128.56
547.487	164.56
547.7	179.56
547.914	198.56
548.127	194.56
548.34	203.56
548.554	201.56
548.767	216.56
548.98	210.56
549.193	195.56
549.407	210.56
549.62	231.56
549.833	225.56
550.046	262.56
550.259	282.56
550.473	271.56
550.686	284.56
550.899	296.56
551.112	325.56
551.325	360.56
551.538	355.56
551.751	348.56
551.964	339.56
552.177	348.56
552.39	362.56
552.603	337.56
552.816	324.56
553.029	323.56
553.242	319.56
553.455	340.56
553.667	369.56
553.88	371.56
554.093	378.56
554.306	396.56
554.519	397.56
554.732	399.56
554.944	374.56
555.157	362.56
555.37	369.56
555.583	344.56
555.795	343.56
556.008	312.56
556.221	286.56
556.433	283.56
556.646	273.56
556.859	244.56
557.071	245.56
557.284	212.56
557.496	215.56
557.709	194.56
557.921	202.56
558.134	187.56
558.346	227.56
558.559	214.56
558.771	182.56
558.984	286.56
559.196	304.56
559.409	206.56
559.621	267.56
559.833	203.56
560.046	247.56
560.258	222.56
560.47	205.56
560.683	154.56
560.895	132.56
561.107	131.56
561.32	128.56
561.532	123.56
561.744	105.56
561.956	116.56
562.168	130.56
562.381	127.56
562.593	126.56
562.805	118.56
563.017	90.56
563.229	110.56
563.441	110.56
563.653	104.56
563.865	114.56
564.077	103.56
564.289	130.56
564.501	126.56
564.713	105.56
564.925	107.56
565.137	103.56
565.349	106.56
565.561	107.56
565.773	110.56
565.985	90.56
566.197	102.56
566.408	103.56
566.62	99.56
566.832	95.56
567.044	98.56
567.255	107.56
567.467	107.56
567.679	111.56
567.891	107.56
568.102	108.56
568.314	110.56
568.526	119.56
568.737	107.56
568.949	114.56
569.161	119.56
569.372	101.56
569.584	117.56
569.795	105.56
570.007	97.56
570.218	91.56
570.43	106.56
570.641	116.56
570.853	88.56
571.064	112.56
571.276	113.56
571.487	98.56
571.698	114.56
571.91	103.56
572.121	107.56
572.333	102.56
572.544	96.56
572.755	102.56
572.966	105.56
573.178	110.56
573.389	110.56
573.6	119.56
573.811	94.56
574.023	110.56
574.234	110.56
574.445	111.56
574.656	108.56
574.867	102.56
575.078	85.56
575.289	105.56
575.501	97.56
575.712	97.56
575.923	100.56
576.134	102.56
576.345	105.56
576.556	96.56
576.767	97.56
576.978	100.56
577.188	108.56
577.399	94.56
577.61	99.56
577.821	100.56
578.032	110.56
578.243	92.56
578.454	102.56
578.665	89.56
578.875	107.56
579.086	92.56
579.297	99.56
579.508	84.56
579.718	123.56
579.929	105.56
580.14	86.56
580.35	99.56
580.561	102.56
580.772	99.56
580.982	100.56
581.193	99.56
581.403	102.56
581.614	116.56
581.825	107.56
582.035	103.56
582.246	93.56
582.456	96.56
582.667	103.56
582.877	102.56
583.087	120.56
583.298	100.56
583.508	102.56
583.719	97.56
583.929	108.56
584.139	94.56
584.35	106.56
584.56	111.56
584.77	101.56
584.981	100.56
585.191	113.56
585.401	105.56
585.611	112.56
585.821	135.56
586.032	195.56
586.242	122.56
586.452	114.56
586.662	120.56
586.872	108.56
587.082	96.56
587.292	120.56
587.502	119.56
587.713	104.56
587.923	111.56
588.133	128.56
588.343	131.56
588.553	127.56
588.762	163.56
588.972	280.56
589.182	593.56
589.392	436.56
589.602	308.56
589.812	489.56
590.022	278.56
590.232	165.56
590.441	140.56
590.651	135.56
590.861	117.56
591.071	135.56
591.281	119.56
591.49	126.56
591.7	134.56
591.91	118.56
592.119	116.56
592.329	130.56
592.539	114.56
592.748	143.56
592.958	130.56
593.167	136.56
593.377	147.56
593.587	155.56
593.796	131.56
594.006	148.56
594.215	135.56
594.424	134.56
594.634	154.56
594.843	145.56
595.053	148.56
595.262	160.56
595.472	148.56
595.681	170.56
595.89	188.56
596.1	181.56
596.309	183.56
596.518	183.56
596.727	183.56
596.937	202.56
597.146	200.56
597.355	211.56
597.564	208.56
597.774	210.56
597.983	207.56
598.192	196.56
598.401	218.56
598.61	246.56
598.819	232.56
599.028	243.56
599.237	226.56
599.446	234.56
599.655	227.56
599.864	213.56
600.073	213.56
600.282	229.56
600.491	224.56
600.7	245.56
600.909	233.56
601.118	214.56
601.327	194.56
601.536	200.56
601.745	190.56
601.953	198.56
602.162	200.56
602.371	218.56
602.58	212.56
602.789	226.56
602.997	214.56
603.206	221.56
603.415	249.56
603.623	228.56
603.832	230.56
604.041	201.56
604.249	224.56
604.458	240.56
604.666	230.56
604.875	212.56
605.084	246.56
605.292	256.56
605.501	257.56
605.709	250.56
605.918	278.56
606.126	291.56
606.334	279.56
606.543	267.56
606.751	270.56
606.96	253.56
607.168	254.56
607.376	229.56
607.585	244.56
607.793	236.56
608.001	248.56
608.21	214.56
608.418	240.56
608.626	229.56
608.834	252.56
609.043	272.56
609.251	252.56
609.459	253.56
609.667	257.56
609.875	282.56
610.083	283.56
610.291	277.56
610.499	320.56
610.707	287.56
610.916	278.56
611.124	275.56
611.332	279.56
611.54	274.56
611.748	304.56
611.955	295.56
612.163	306.56
612.371	374.56
612.579	362.56
612.787	320.56
612.995	322.56
613.203	295.56
613.411	277.56
613.618	291.56
613.826	271.56
614.034	280.56
614.242	307.56
614.449	305.56
614.657	315.56
614.865	293.56
615.072	309.56
615.28	297.56
615.488	322.56
615.695	281.56
615.903	307.56
616.111	314.56
616.318	398.56
616.526	442.56
616.733	336.56
616.941	331.56
617.148	373.56
617.356	328.56
617.563	310.56
617.771	316.56
617.978	295.56
618.185	325.56
618.393	297.56
618.6	304.56
618.807	290.56
619.015	277.56
619.222	279.56
619.429	270.56
619.637	272.56
619.844	298.56
620.051	293.56
620.258	300.56
620.466	281.56
620.673	282.56
620.88	300.56
621.087	295.56
621.294	295.56
621.501	280.56
621.708	292.56
621.915	290.56
622.122	290.56
622.329	298.56
622.536	302.56
622.743	293.56
622.95	295.56
623.157	297.56
623.364	304.56
623.571	295.56
623.778	287.56
623.985	281.56
624.192	295.56
624.399	302.56
624.606	295.56
624.812	272.56
625.019	287.56
625.226	291.56
625.433	259.56
625.639	268.56
625.846	262.56
626.053	260.56
626.259	244.56
626.466	251.56
626.673	214.56
626.879	222.56
627.086	206.56
627.293	205.56
627.499	194.56
627.706	202.56
627.912	183.56
628.119	177.56
628.325	179.56
628.532	159.56
628.738	150.56
628.945	143.56
629.151	131.56
629.357	144.56
629.564	151.56
629.77	125.56
629.976	130.56
630.183	127.56
630.389	124.56
630.595	128.56
630.802	121.56
631.008	122.56
631.214	122.56
631.42	131.56
631.627	123.56
631.833	124.56
632.039	118.56
632.245	116.56
632.451	121.56
632.657	111.56
632.863	104.56
633.069	124.56
633.275	115.56
633.481	119.56
633.688	111.56
633.893	107.56
634.099	115.56
634.305	112.56
634.511	123.56
634.717	116.56
634.923	125.56
635.129	120.56
635.335	114.56
635.541	100.56
635.747	103.56
635.952	115.56
636.158	119.56
636.364	115.56
636.57	112.56
636.775	112.56
636.981	122.56
637.187	121.56
637.392	114.56
637.598	106.56
637.804	121.56
638.009	103.56
638.215	106.56
638.421	121.56
638.626	110.56
638.832	115.56
639.037	102.56
639.243	106.56
639.448	94.56
639.654	100.56
639.859	102.56
640.065	106.56
640.27	105.56
640.475	110.56
640.681	111.56
640.886	102.56
641.091	112.56
641.297	112.56
641.502	99.56
641.707	100.56
641.913	95.56
642.118	114.56
642.323	114.56
642.528	116.56
642.733	111.56
642.939	114.56
643.144	96.56
643.349	105.56
643.554	112.56
643.759	101.56
643.964	139.56
644.169	154.56
644.374	124.56
644.579	121.56
644.784	115.56
644.989	106.56
645.194	122.56
645.399	113.56
645.604	114.56
645.809	111.56
646.014	110.56
646.219	119.56
646.423	157.56
646.628	154.56
646.833	115.56
647.038	101.56
647.243	114.56
647.447	102.56
647.652	104.56
647.857	104.56
648.062	106.56
648.266	96.56
648.471	101.56
648.676	90.56
648.88	92.56
649.085	102.56
649.289	90.56
649.494	115.56
649.698	129.56
649.903	97.56
650.107	106.56
650.312	100.56
650.516	80.56
650.721	84.56
650.925	96.56
651.13	89.56
651.334	92.56
651.539	88.56
651.743	85.56
651.947	96.56
652.152	84.56
652.356	90.56
652.56	98.56
652.764	92.56
652.969	80.56
653.173	88.56
653.377	94.56
653.581	80.56
653.785	90.56
653.99	92.56
654.194	87.56
654.398	94.56
654.602	84.56
654.806	76.56
655.01	75.56
655.214	82.56
655.418	87.56
655.622	94.56
655.826	83.56
656.03	80.56
656.234	81.56
656.438	80.56
656.642	95.56
656.846	87.56
657.049	87.56
657.253	82.56
657.457	86.56
657.661	87.56
657.865	78.56
658.068	74.56
658.272	71.56
658.476	76.56
658.68	106.56
658.883	72.56
659.087	89.56
659.291	66.56
659.494	78.56
659.698	82.56
659.901	73.56
660.105	72.56
660.309	82.56
660.512	77.56
660.716	84.56
660.919	82.56
661.123	83.56
661.326	81.56
661.53	91.56
661.733	79.56
661.936	90.56
662.14	73.56
662.343	85.56
662.546	83.56
662.75	87.56
662.953	86.56
663.156	90.56
663.36	77.56
663.563	98.56
663.766	83.56
663.969	74.56
664.173	102.56
664.376	82.56
664.579	77.56
664.782	79.56
664.985	87.56
665.188	81.56
665.391	90.56
665.594	80.56
665.797	84.56
666	75.56
666.203	80.56
666.406	87.56
666.609	73.56
666.812	81.56
667.015	81.56
667.218	76.56
667.421	75.56
667.624	83.56
667.827	100.56
668.03	91.56
668.232	83.56
668.435	73.56
668.638	76.56
668.841	98.56
669.043	73.56
669.246	84.56
669.449	87.56
669.651	80.56
669.854	68.56
670.057	80.56
670.259	84.56
670.462	86.56
670.665	70.56
670.867	86.56
671.07	89.56
671.272	76.56
671.475	84.56
671.677	91.56
671.88	81.56
672.082	92.56
672.284	82.56
672.487	81.56
672.689	83.56
672.892	71.56
