Data from 17600_3_HRD10591_00045.txt Node
Date: Mon Jan 19 14:09:46 EST 2026
User: Yrep
Spectrometer: HR+D1059
Trigger mode: 1
Integration Time (sec): 1.000000E-1
Scans to average: 1
Electric dark correction enabled: true
Nonlinearity correction enabled: false
Boxcar width: 0
XAxis mode: Wavelengths
Number of Pixels in Spectrum: 2048
>>>>>Begin Spectral Data<<<<<
223.165	0.44
223.4	0.44
223.635	0.44
223.869	-21.56
224.104	-16.56
224.338	-22.56
224.573	-15.56
224.808	-13.56
225.042	-10.56
225.277	-1.56
225.511	-9.56
225.746	-2.56
225.98	8.44
226.215	7.44
226.449	17.44
226.683	14.44
226.918	29.44
227.152	36.44
227.387	20.44
227.621	31.44
227.856	38.44
228.09	35.44
228.324	65.44
228.559	58.44
228.793	38.44
229.027	52.44
229.262	74.44
229.496	57.44
229.73	58.44
229.964	66.44
230.199	74.44
230.433	72.44
230.667	69.44
230.901	50.44
231.136	69.44
231.37	72.44
231.604	91.44
231.838	86.44
232.072	87.44
232.306	82.44
232.541	72.44
232.775	88.44
233.009	86.44
233.243	82.44
233.477	81.44
233.711	70.44
233.945	80.44
234.179	80.44
234.413	75.44
234.647	76.44
234.881	80.44
235.115	75.44
235.349	74.44
235.583	80.44
235.817	71.44
236.051	83.44
236.285	78.44
236.519	80.44
236.753	80.44
236.987	72.44
237.221	69.44
237.455	64.44
237.689	74.44
237.922	78.44
238.156	90.44
238.39	81.44
238.624	74.44
238.858	73.44
239.091	73.44
239.325	79.44
239.559	83.44
239.793	68.44
240.027	70.44
240.26	70.44
240.494	90.44
240.728	80.44
240.961	70.44
241.195	76.44
241.429	79.44
241.662	74.44
241.896	83.44
242.13	74.44
242.363	78.44
242.597	70.44
242.83	70.44
243.064	77.44
243.298	74.44
243.531	75.44
243.765	60.44
243.998	74.44
244.232	88.44
244.465	75.44
244.699	71.44
244.932	71.44
245.166	81.44
245.399	70.44
245.633	76.44
245.866	73.44
246.099	68.44
246.333	77.44
246.566	69.44
246.8	72.44
247.033	70.44
247.266	79.44
247.5	72.44
247.733	66.44
247.966	82.44
248.2	74.44
248.433	78.44
248.666	76.44
248.899	60.44
249.133	73.44
249.366	85.44
249.599	79.44
249.832	80.44
250.066	78.44
250.299	82.44
250.532	97.44
250.765	71.44
250.998	79.44
251.231	70.44
251.465	58.44
251.698	76.44
251.931	72.44
252.164	85.44
252.397	86.44
252.63	98.44
252.863	71.44
253.096	72.44
253.329	72.44
253.562	79.44
253.795	77.44
254.028	76.44
254.261	94.44
254.494	82.44
254.727	80.44
254.96	86.44
255.193	69.44
255.426	72.44
255.659	70.44
255.892	88.44
256.124	74.44
256.357	76.44
256.59	88.44
256.823	78.44
257.056	93.44
257.289	85.44
257.521	80.44
257.754	70.44
257.987	73.44
258.22	80.44
258.452	76.44
258.685	69.44
258.918	75.44
259.151	79.44
259.383	96.44
259.616	76.44
259.849	89.44
260.081	78.44
260.314	93.44
260.547	80.44
260.779	72.44
261.012	78.44
261.244	78.44
261.477	89.44
261.71	88.44
261.942	76.44
262.175	79.44
262.407	79.44
262.64	80.44
262.872	65.44
263.105	85.44
263.337	78.44
263.57	69.44
263.802	84.44
264.035	71.44
264.267	78.44
264.499	78.44
264.732	77.44
264.964	88.44
265.197	77.44
265.429	88.44
265.661	82.44
265.894	81.44
266.126	88.44
266.358	81.44
266.591	84.44
266.823	92.44
267.055	90.44
267.287	89.44
267.52	84.44
267.752	85.44
267.984	75.44
268.216	78.44
268.448	74.44
268.681	80.44
268.913	86.44
269.145	78.44
269.377	81.44
269.609	76.44
269.841	78.44
270.073	106.44
270.306	89.44
270.538	79.44
270.77	66.44
271.002	84.44
271.234	70.44
271.466	78.44
271.698	78.44
271.93	73.44
272.162	79.44
272.394	92.44
272.626	65.44
272.858	80.44
273.09	82.44
273.322	95.44
273.553	80.44
273.785	72.44
274.017	79.44
274.249	82.44
274.481	74.44
274.713	90.44
274.945	97.44
275.176	84.44
275.408	69.44
275.64	80.44
275.872	67.44
276.104	92.44
276.335	75.44
276.567	65.44
276.799	81.44
277.031	80.44
277.262	96.44
277.494	78.44
277.726	80.44
277.957	81.44
278.189	74.44
278.421	91.44
278.652	80.44
278.884	76.44
279.115	89.44
279.347	84.44
279.579	75.44
279.81	89.44
280.042	96.44
280.273	71.44
280.505	88.44
280.736	71.44
280.968	72.44
281.199	81.44
281.431	72.44
281.662	84.44
281.894	80.44
282.125	88.44
282.356	79.44
282.588	88.44
282.819	85.44
283.051	72.44
283.282	90.44
283.513	74.44
283.745	78.44
283.976	80.44
284.207	78.44
284.439	90.44
284.67	82.44
284.901	80.44
285.132	74.44
285.364	82.44
285.595	80.44
285.826	82.44
286.057	71.44
286.288	79.44
286.52	83.44
286.751	73.44
286.982	80.44
287.213	84.44
287.444	90.44
287.675	80.44
287.906	76.44
288.138	86.44
288.369	70.44
288.6	79.44
288.831	70.44
289.062	65.44
289.293	73.44
289.524	81.44
289.755	86.44
289.986	93.44
290.217	76.44
290.448	78.44
290.679	81.44
290.91	82.44
291.141	92.44
291.371	84.44
291.602	92.44
291.833	81.44
292.064	84.44
292.295	82.44
292.526	78.44
292.757	84.44
292.987	87.44
293.218	84.44
293.449	65.44
293.68	84.44
293.91	92.44
294.141	87.44
294.372	86.44
294.603	84.44
294.833	91.44
295.064	104.44
295.295	90.44
295.525	100.44
295.756	88.44
295.987	80.44
296.217	73.44
296.448	84.44
296.679	75.44
296.909	90.44
297.14	83.44
297.37	76.44
297.601	80.44
297.831	85.44
298.062	84.44
298.292	70.44
298.523	86.44
298.753	81.44
298.984	95.44
299.214	74.44
299.445	70.44
299.675	78.44
299.905	82.44
300.136	79.44
300.366	86.44
300.597	89.44
300.827	75.44
301.057	80.44
301.288	80.44
301.518	84.44
301.748	86.44
301.979	99.44
302.209	84.44
302.439	82.44
302.669	78.44
302.9	62.44
303.13	88.44
303.36	69.44
303.59	85.44
303.82	89.44
304.051	80.44
304.281	80.44
304.511	90.44
304.741	86.44
304.971	80.44
305.201	72.44
305.431	77.44
305.661	75.44
305.891	95.44
306.121	76.44
306.352	68.44
306.582	85.44
306.812	73.44
307.042	79.44
307.272	84.44
307.502	91.44
307.731	89.44
307.961	89.44
308.191	88.44
308.421	78.44
308.651	73.44
308.881	79.44
309.111	91.44
309.341	83.44
309.571	79.44
309.8	80.44
310.03	93.44
310.26	78.44
310.49	89.44
310.72	72.44
310.949	88.44
311.179	95.44
311.409	89.44
311.639	85.44
311.868	93.44
312.098	85.44
312.328	71.44
312.557	81.44
312.787	60.44
313.017	90.44
313.246	80.44
313.476	68.44
313.706	72.44
313.935	78.44
314.165	90.44
314.394	88.44
314.624	89.44
314.853	87.44
315.083	82.44
315.312	82.44
315.542	80.44
315.771	86.44
316.001	90.44
316.23	78.44
316.46	65.44
316.689	89.44
316.919	80.44
317.148	84.44
317.377	90.44
317.607	81.44
317.836	79.44
318.065	96.44
318.295	81.44
318.524	84.44
318.753	94.44
318.983	86.44
319.212	85.44
319.441	80.44
319.67	90.44
319.9	89.44
320.129	73.44
320.358	70.44
320.587	89.44
320.816	79.44
321.046	96.44
321.275	74.44
321.504	76.44
321.733	79.44
321.962	80.44
322.191	86.44
322.42	81.44
322.649	81.44
322.878	91.44
323.108	86.44
323.337	75.44
323.566	80.44
323.795	78.44
324.024	88.44
324.253	89.44
324.482	93.44
324.71	78.44
324.939	88.44
325.168	96.44
325.397	100.44
325.626	93.44
325.855	84.44
326.084	84.44
326.313	90.44
326.542	81.44
326.77	92.44
326.999	80.44
327.228	77.44
327.457	80.44
327.686	81.44
327.914	97.44
328.143	80.44
328.372	73.44
328.6	85.44
328.829	76.44
329.058	89.44
329.287	73.44
329.515	77.44
329.744	80.44
329.972	76.44
330.201	62.44
330.43	75.44
330.658	75.44
330.887	81.44
331.115	94.44
331.344	80.44
331.572	82.44
331.801	88.44
332.03	77.44
332.258	92.44
332.486	86.44
332.715	93.44
332.943	88.44
333.172	75.44
333.4	89.44
333.629	75.44
333.857	93.44
334.085	84.44
334.314	82.44
334.542	83.44
334.771	84.44
334.999	76.44
335.227	80.44
335.455	77.44
335.684	86.44
335.912	90.44
336.14	86.44
336.369	69.44
336.597	75.44
336.825	86.44
337.053	94.44
337.281	80.44
337.51	94.44
337.738	78.44
337.966	87.44
338.194	86.44
338.422	80.44
338.65	82.44
338.878	71.44
339.106	77.44
339.334	83.44
339.562	90.44
339.79	88.44
340.018	80.44
340.246	76.44
340.474	88.44
340.702	72.44
340.93	72.44
341.158	96.44
341.386	87.44
341.614	80.44
341.842	84.44
342.07	84.44
342.298	75.44
342.526	73.44
342.754	66.44
342.981	75.44
343.209	91.44
343.437	85.44
343.665	70.44
343.893	88.44
344.12	80.44
344.348	84.44
344.576	83.44
344.804	77.44
345.031	87.44
345.259	84.44
345.487	80.44
345.714	76.44
345.942	84.44
346.17	88.44
346.397	77.44
346.625	92.44
346.853	94.44
347.08	96.44
347.308	67.44
347.535	75.44
347.763	79.44
347.99	79.44
348.218	93.44
348.445	83.44
348.673	85.44
348.9	84.44
349.128	88.44
349.355	94.44
349.583	73.44
349.81	80.44
350.037	84.44
350.265	85.44
350.492	76.44
350.72	66.44
350.947	74.44
351.174	75.44
351.402	80.44
351.629	90.44
351.856	94.44
352.083	76.44
352.311	82.44
352.538	72.44
352.765	83.44
352.992	106.44
353.22	82.44
353.447	80.44
353.674	76.44
353.901	94.44
354.128	90.44
354.355	84.44
354.583	81.44
354.81	85.44
355.037	76.44
355.264	76.44
355.491	73.44
355.718	70.44
355.945	75.44
356.172	87.44
356.399	91.44
356.626	78.44
356.853	93.44
357.08	80.44
357.307	102.44
357.534	82.44
357.761	85.44
357.988	80.44
358.215	93.44
358.441	82.44
358.668	76.44
358.895	77.44
359.122	86.44
359.349	94.44
359.576	78.44
359.802	83.44
360.029	84.44
360.256	86.44
360.483	83.44
360.709	80.44
360.936	95.44
361.163	82.44
361.39	69.44
361.616	82.44
361.843	87.44
362.07	97.44
362.296	86.44
362.523	79.44
362.749	96.44
362.976	76.44
363.203	104.44
363.429	86.44
363.656	93.44
363.882	93.44
364.109	88.44
364.335	91.44
364.562	84.44
364.788	76.44
365.015	78.44
365.241	81.44
365.468	74.44
365.694	88.44
365.92	75.44
366.147	70.44
366.373	88.44
366.599	79.44
366.826	80.44
367.052	85.44
367.278	91.44
367.505	96.44
367.731	81.44
367.957	87.44
368.184	82.44
368.41	86.44
368.636	62.44
368.862	81.44
369.089	106.44
369.315	88.44
369.541	76.44
369.767	73.44
369.993	80.44
370.219	78.44
370.445	67.44
370.672	73.44
370.898	75.44
371.124	102.44
371.35	91.44
371.576	84.44
371.802	96.44
372.028	89.44
372.254	79.44
372.48	75.44
372.706	79.44
372.932	78.44
373.158	81.44
373.384	86.44
373.61	92.44
373.835	78.44
374.061	81.44
374.287	74.44
374.513	78.44
374.739	69.44
374.965	78.44
375.191	93.44
375.416	71.44
375.642	81.44
375.868	92.44
376.094	72.44
376.319	84.44
376.545	97.44
376.771	92.44
376.997	75.44
377.222	70.44
377.448	74.44
377.674	80.44
377.899	60.44
378.125	87.44
378.35	85.44
378.576	84.44
378.802	84.44
379.027	72.44
379.253	85.44
379.478	72.44
379.704	69.44
379.929	95.44
380.155	68.44
380.38	73.44
380.606	84.44
380.831	94.44
381.057	95.44
381.282	86.44
381.507	89.44
381.733	70.44
381.958	82.44
382.184	74.44
382.409	77.44
382.634	85.44
382.86	75.44
383.085	82.44
383.31	94.44
383.535	87.44
383.761	79.44
383.986	88.44
384.211	80.44
384.436	71.44
384.662	86.44
384.887	84.44
385.112	77.44
385.337	81.44
385.562	67.44
385.787	80.44
386.013	82.44
386.238	82.44
386.463	76.44
386.688	66.44
386.913	79.44
387.138	66.44
387.363	71.44
387.588	83.44
387.813	84.44
388.038	71.44
388.263	85.44
388.488	88.44
388.713	70.44
388.938	83.44
389.163	92.44
389.387	90.44
389.612	75.44
389.837	75.44
390.062	80.44
390.287	80.44
390.512	68.44
390.736	76.44
390.961	80.44
391.186	70.44
391.411	88.44
391.636	94.44
391.86	86.44
392.085	81.44
392.31	73.44
392.534	73.44
392.759	84.44
392.984	90.44
393.208	147.44
393.433	198.44
393.658	169.44
393.882	105.44
394.107	90.44
394.331	97.44
394.556	84.44
394.78	96.44
395.005	83.44
395.229	74.44
395.454	76.44
395.678	74.44
395.903	94.44
396.127	96.44
396.352	97.44
396.576	105.44
396.801	154.44
397.025	162.44
397.249	112.44
397.474	101.44
397.698	75.44
397.922	79.44
398.147	78.44
398.371	84.44
398.595	74.44
398.82	82.44
399.044	73.44
399.268	78.44
399.492	78.44
399.717	78.44
399.941	81.44
400.165	89.44
400.389	74.44
400.613	74.44
400.837	69.44
401.062	81.44
401.286	80.44
401.51	95.44
401.734	83.44
401.958	84.44
402.182	90.44
402.406	85.44
402.63	94.44
402.854	78.44
403.078	84.44
403.302	80.44
403.526	75.44
403.75	80.44
403.974	81.44
404.198	86.44
404.422	65.44
404.645	76.44
404.869	79.44
405.093	69.44
405.317	69.44
405.541	72.44
405.765	75.44
405.988	80.44
406.212	77.44
406.436	68.44
406.66	81.44
406.883	82.44
407.107	78.44
407.331	76.44
407.555	82.44
407.778	84.44
408.002	98.44
408.226	75.44
408.449	66.44
408.673	66.44
408.896	76.44
409.12	78.44
409.344	92.44
409.567	77.44
409.791	73.44
410.014	78.44
410.238	78.44
410.461	89.44
410.685	72.44
410.908	62.44
411.132	91.44
411.355	80.44
411.578	72.44
411.802	77.44
412.025	86.44
412.249	81.44
412.472	72.44
412.695	70.44
412.919	81.44
413.142	74.44
413.365	85.44
413.589	76.44
413.812	75.44
414.035	73.44
414.258	81.44
414.482	68.44
414.705	88.44
414.928	86.44
415.151	75.44
415.374	70.44
415.597	85.44
415.821	76.44
416.044	83.44
416.267	70.44
416.49	75.44
416.713	74.44
416.936	72.44
417.159	86.44
417.382	90.44
417.605	84.44
417.828	75.44
418.051	80.44
418.274	83.44
418.497	80.44
418.72	73.44
418.943	71.44
419.166	78.44
419.389	91.44
419.611	90.44
419.834	86.44
420.057	90.44
420.28	94.44
420.503	88.44
420.726	76.44
420.948	85.44
421.171	86.44
421.394	88.44
421.617	95.44
421.839	87.44
422.062	79.44
422.285	89.44
422.507	105.44
422.73	154.44
422.953	135.44
423.175	87.44
423.398	89.44
423.621	89.44
423.843	89.44
424.066	68.44
424.288	71.44
424.511	67.44
424.733	88.44
424.956	86.44
425.178	68.44
425.401	80.44
425.623	75.44
425.846	70.44
426.068	74.44
426.291	77.44
426.513	74.44
426.735	71.44
426.958	67.44
427.18	82.44
427.402	85.44
427.625	74.44
427.847	75.44
428.069	85.44
428.292	84.44
428.514	73.44
428.736	92.44
428.958	92.44
429.181	65.44
429.403	74.44
429.625	80.44
429.847	81.44
430.069	97.44
430.292	97.44
430.514	98.44
430.736	80.44
430.958	73.44
431.18	62.44
431.402	65.44
431.624	69.44
431.846	71.44
432.068	89.44
432.29	78.44
432.512	67.44
432.734	72.44
432.956	83.44
433.178	88.44
433.4	71.44
433.622	85.44
433.844	89.44
434.066	67.44
434.287	87.44
434.509	67.44
434.731	91.44
434.953	72.44
435.175	73.44
435.397	77.44
435.618	73.44
435.84	82.44
436.062	85.44
436.284	64.44
436.505	76.44
436.727	73.44
436.949	74.44
437.17	79.44
437.392	68.44
437.614	77.44
437.835	82.44
438.057	74.44
438.278	88.44
438.5	96.44
438.721	74.44
438.943	83.44
439.165	90.44
439.386	98.44
439.608	93.44
439.829	96.44
440.05	73.44
440.272	82.44
440.493	84.44
440.715	80.44
440.936	74.44
441.158	87.44
441.379	73.44
441.6	74.44
441.822	80.44
442.043	73.44
442.264	81.44
442.486	83.44
442.707	90.44
442.928	75.44
443.149	80.44
443.371	83.44
443.592	97.44
443.813	91.44
444.034	85.44
444.255	84.44
444.476	79.44
444.698	86.44
444.919	66.44
445.14	144.44
445.361	113.44
445.582	126.44
445.803	112.44
446.024	80.44
446.245	82.44
446.466	82.44
446.687	90.44
446.908	83.44
447.129	80.44
447.35	78.44
447.571	87.44
447.792	87.44
448.013	81.44
448.234	72.44
448.455	76.44
448.675	77.44
448.896	71.44
449.117	83.44
449.338	69.44
449.559	77.44
449.779	86.44
450	86.44
450.221	85.44
450.442	73.44
450.662	58.44
450.883	75.44
451.104	86.44
451.324	82.44
451.545	73.44
451.766	84.44
451.986	62.44
452.207	57.44
452.428	68.44
452.648	78.44
452.869	97.44
453.089	83.44
453.31	92.44
453.53	80.44
453.751	85.44
453.971	69.44
454.192	75.44
454.412	84.44
454.633	73.44
454.853	90.44
455.073	87.44
455.294	68.44
455.514	88.44
455.734	76.44
455.955	82.44
456.175	74.44
456.395	76.44
456.616	108.44
456.836	96.44
457.056	86.44
457.276	54.44
457.497	79.44
457.717	82.44
457.937	75.44
458.157	87.44
458.377	90.44
458.598	85.44
458.818	78.44
459.038	71.44
459.258	76.44
459.478	73.44
459.698	96.44
459.918	72.44
460.138	71.44
460.358	96.44
460.578	86.44
460.798	89.44
461.018	84.44
461.238	68.44
461.458	85.44
461.678	72.44
461.898	80.44
462.118	93.44
462.338	82.44
462.558	69.44
462.777	69.44
462.997	88.44
463.217	69.44
463.437	72.44
463.657	82.44
463.876	78.44
464.096	84.44
464.316	80.44
464.536	86.44
464.755	94.44
464.975	78.44
465.195	75.44
465.414	80.44
465.634	62.44
465.854	77.44
466.073	78.44
466.293	72.44
466.512	58.44
466.732	81.44
466.951	74.44
467.171	80.44
467.391	79.44
467.61	85.44
467.829	85.44
468.049	84.44
468.268	82.44
468.488	75.44
468.707	90.44
468.927	77.44
469.146	70.44
469.365	76.44
469.585	78.44
469.804	76.44
470.023	76.44
470.243	82.44
470.462	80.44
470.681	80.44
470.901	73.44
471.12	64.44
471.339	82.44
471.558	68.44
471.777	72.44
471.997	90.44
472.216	80.44
472.435	80.44
472.654	86.44
472.873	80.44
473.092	84.44
473.311	95.44
473.53	84.44
473.749	85.44
473.968	96.44
474.187	84.44
474.406	76.44
474.625	89.44
474.844	76.44
475.063	77.44
475.282	75.44
475.501	75.44
475.72	96.44
475.939	64.44
476.158	81.44
476.377	84.44
476.596	88.44
476.814	79.44
477.033	77.44
477.252	78.44
477.471	71.44
477.69	88.44
477.908	88.44
478.127	78.44
478.346	80.44
478.564	89.44
478.783	82.44
479.002	85.44
479.22	100.44
479.439	74.44
479.658	75.44
479.876	68.44
480.095	86.44
480.313	84.44
480.532	88.44
480.751	73.44
480.969	73.44
481.188	97.44
481.406	83.44
481.624	71.44
481.843	80.44
482.061	92.44
482.28	73.44
482.498	81.44
482.717	94.44
482.935	74.44
483.153	92.44
483.372	79.44
483.59	67.44
483.808	75.44
484.027	90.44
484.245	96.44
484.463	82.44
484.681	64.44
484.9	73.44
485.118	75.44
485.336	82.44
485.554	83.44
485.772	92.44
485.99	79.44
486.209	86.44
486.427	84.44
486.645	80.44
486.863	77.44
487.081	70.44
487.299	83.44
487.517	84.44
487.735	72.44
487.953	105.44
488.171	89.44
488.389	84.44
488.607	78.44
488.825	80.44
489.043	80.44
489.261	75.44
489.479	70.44
489.696	86.44
489.914	84.44
490.132	84.44
490.35	84.44
490.568	82.44
490.786	74.44
491.003	73.44
491.221	71.44
491.439	82.44
491.657	84.44
491.874	68.44
492.092	84.44
492.31	74.44
492.527	72.44
492.745	89.44
492.963	93.44
493.18	88.44
493.398	88.44
493.615	84.44
493.833	75.44
494.05	86.44
494.268	79.44
494.485	91.44
494.703	82.44
494.92	88.44
495.138	86.44
495.355	82.44
495.573	85.44
495.79	84.44
496.008	78.44
496.225	76.44
496.442	64.44
496.66	92.44
496.877	62.44
497.094	80.44
497.312	79.44
497.529	69.44
497.746	90.44
497.963	92.44
498.181	98.44
498.398	81.44
498.615	84.44
498.832	72.44
499.049	93.44
499.267	88.44
499.484	77.44
499.701	87.44
499.918	88.44
500.135	72.44
500.352	80.44
500.569	80.44
500.786	82.44
501.003	81.44
501.22	95.44
501.437	80.44
501.654	87.44
501.871	93.44
502.088	92.44
502.305	85.44
502.522	80.44
502.739	94.44
502.956	71.44
503.172	74.44
503.389	70.44
503.606	65.44
503.823	101.44
504.04	80.44
504.256	86.44
504.473	76.44
504.69	82.44
504.907	83.44
505.123	81.44
505.34	90.44
505.557	81.44
505.773	83.44
505.99	74.44
506.207	78.44
506.423	79.44
506.64	73.44
506.856	73.44
507.073	73.44
507.289	79.44
507.506	83.44
507.722	86.44
507.939	80.44
508.155	89.44
508.372	72.44
508.588	94.44
508.805	84.44
509.021	75.44
509.238	86.44
509.454	88.44
509.67	78.44
509.887	77.44
510.103	87.44
510.319	90.44
510.536	89.44
510.752	76.44
510.968	98.44
511.184	77.44
511.401	70.44
511.617	87.44
511.833	83.44
512.049	75.44
512.265	71.44
512.481	80.44
512.698	69.44
512.914	80.44
513.13	87.44
513.346	88.44
513.562	90.44
513.778	71.44
513.994	85.44
514.21	72.44
514.426	78.44
514.642	92.44
514.858	85.44
515.074	62.44
515.29	77.44
515.506	73.44
515.721	74.44
515.937	73.44
516.153	88.44
516.369	78.44
516.585	93.44
516.801	88.44
517.016	69.44
517.232	74.44
517.448	78.44
517.664	94.44
517.879	85.44
518.095	92.44
518.311	72.44
518.527	82.44
518.742	85.44
518.958	76.44
519.173	94.44
519.389	90.44
519.605	83.44
519.82	75.44
520.036	89.44
520.251	93.44
520.467	82.44
520.682	87.44
520.898	73.44
521.113	91.44
521.329	95.44
521.544	85.44
521.76	80.44
521.975	85.44
522.19	86.44
522.406	81.44
522.621	66.44
522.836	87.44
523.052	87.44
523.267	92.44
523.482	82.44
523.698	82.44
523.913	74.44
524.128	82.44
524.343	80.44
524.559	92.44
524.774	78.44
524.989	78.44
525.204	72.44
525.419	82.44
525.634	78.44
525.849	87.44
526.064	80.44
526.28	96.44
526.495	94.44
526.71	99.44
526.925	91.44
527.14	101.44
527.355	91.44
527.57	92.44
527.785	75.44
527.999	73.44
528.214	89.44
528.429	88.44
528.644	73.44
528.859	71.44
529.074	81.44
529.289	84.44
529.503	82.44
529.718	92.44
529.933	89.44
530.148	88.44
530.363	77.44
530.577	84.44
530.792	75.44
531.007	91.44
531.221	80.44
531.436	87.44
531.651	99.44
531.865	84.44
532.08	83.44
532.295	89.44
532.509	84.44
532.724	85.44
532.938	78.44
533.153	92.44
533.367	86.44
533.582	67.44
533.796	78.44
534.011	100.44
534.225	95.44
534.44	84.44
534.654	92.44
534.868	84.44
535.083	82.44
535.297	82.44
535.511	90.44
535.726	95.44
535.94	87.44
536.154	84.44
536.369	80.44
536.583	77.44
536.797	76.44
537.011	87.44
537.225	84.44
537.44	65.44
537.654	69.44
537.868	97.44
538.082	89.44
538.296	80.44
538.51	84.44
538.724	81.44
538.938	84.44
539.153	97.44
539.367	89.44
539.581	82.44
539.795	94.44
540.009	86.44
540.222	92.44
540.436	80.44
540.65	87.44
540.864	83.44
541.078	86.44
541.292	84.44
541.506	81.44
541.72	89.44
541.934	98.44
542.147	84.44
542.361	91.44
542.575	91.44
542.789	78.44
543.002	83.44
543.216	82.44
543.43	86.44
543.644	86.44
543.857	80.44
544.071	86.44
544.285	82.44
544.498	104.44
544.712	90.44
544.925	87.44
545.139	84.44
545.352	77.44
545.566	85.44
545.779	98.44
545.993	86.44
546.206	87.44
546.42	87.44
546.633	94.44
546.847	104.44
547.06	85.44
547.274	99.44
547.487	102.44
547.7	75.44
547.914	98.44
548.127	101.44
548.34	88.44
548.554	88.44
548.767	95.44
548.98	96.44
549.193	84.44
549.407	99.44
549.62	95.44
549.833	93.44
550.046	97.44
550.259	95.44
550.473	98.44
550.686	101.44
550.899	104.44
551.112	102.44
551.325	106.44
551.538	97.44
551.751	87.44
551.964	102.44
552.177	114.44
552.39	101.44
552.603	96.44
552.816	98.44
553.029	99.44
553.242	110.44
553.455	103.44
553.667	108.44
553.88	100.44
554.093	92.44
554.306	111.44
554.519	112.44
554.732	97.44
554.944	113.44
555.157	115.44
555.37	112.44
555.583	109.44
555.795	86.44
556.008	96.44
556.221	98.44
556.433	93.44
556.646	97.44
556.859	77.44
557.071	91.44
557.284	105.44
557.496	85.44
557.709	84.44
557.921	89.44
558.134	105.44
558.346	112.44
558.559	92.44
558.771	95.44
558.984	124.44
559.196	128.44
559.409	104.44
559.621	120.44
559.833	96.44
560.046	112.44
560.258	103.44
560.47	101.44
560.683	94.44
560.895	89.44
561.107	76.44
561.32	81.44
561.532	86.44
561.744	77.44
561.956	93.44
562.168	75.44
562.381	89.44
562.593	97.44
562.805	83.44
563.017	87.44
563.229	86.44
563.441	85.44
563.653	80.44
563.865	97.44
564.077	84.44
564.289	94.44
564.501	101.44
564.713	92.44
564.925	90.44
565.137	89.44
565.349	93.44
565.561	82.44
565.773	84.44
565.985	78.44
566.197	73.44
566.408	88.44
566.62	78.44
566.832	82.44
567.044	84.44
567.255	80.44
567.467	81.44
567.679	72.44
567.891	81.44
568.102	82.44
568.314	95.44
568.526	86.44
568.737	78.44
568.949	89.44
569.161	84.44
569.372	86.44
569.584	82.44
569.795	75.44
570.007	83.44
570.218	62.44
570.43	81.44
570.641	81.44
570.853	90.44
571.064	78.44
571.276	88.44
571.487	81.44
571.698	71.44
571.91	89.44
572.121	79.44
572.333	77.44
572.544	70.44
572.755	98.44
572.966	73.44
573.178	89.44
573.389	95.44
573.6	84.44
573.811	83.44
574.023	89.44
574.234	88.44
574.445	77.44
574.656	94.44
574.867	87.44
575.078	94.44
575.289	93.44
575.501	89.44
575.712	93.44
575.923	93.44
576.134	76.44
576.345	79.44
576.556	89.44
576.767	96.44
576.978	79.44
577.188	90.44
577.399	88.44
577.61	94.44
577.821	89.44
578.032	84.44
578.243	93.44
578.454	81.44
578.665	71.44
578.875	70.44
579.086	90.44
579.297	72.44
579.508	84.44
579.718	77.44
579.929	74.44
580.14	80.44
580.35	87.44
580.561	66.44
580.772	90.44
580.982	95.44
581.193	83.44
581.403	83.44
581.614	73.44
581.825	86.44
582.035	93.44
582.246	83.44
582.456	82.44
582.667	85.44
582.877	86.44
583.087	82.44
583.298	82.44
583.508	83.44
583.719	91.44
583.929	89.44
584.139	72.44
584.35	76.44
584.56	92.44
584.77	92.44
584.981	84.44
585.191	93.44
585.401	78.44
585.611	91.44
585.821	101.44
586.032	90.44
586.242	74.44
586.452	68.44
586.662	85.44
586.872	72.44
587.082	80.44
587.292	80.44
587.502	92.44
587.713	83.44
587.923	92.44
588.133	87.44
588.343	90.44
588.553	80.44
588.762	89.44
588.972	108.44
589.182	169.44
589.392	133.44
589.602	112.44
589.812	145.44
590.022	108.44
590.232	96.44
590.441	94.44
590.651	73.44
590.861	82.44
591.071	87.44
591.281	84.44
591.49	85.44
591.7	78.44
591.91	71.44
592.119	91.44
592.329	85.44
592.539	84.44
592.748	95.44
592.958	81.44
593.167	78.44
593.377	92.44
593.587	92.44
593.796	84.44
594.006	89.44
594.215	74.44
594.424	77.44
594.634	73.44
594.843	89.44
595.053	97.44
595.262	77.44
595.472	74.44
595.681	81.44
595.89	88.44
596.1	79.44
596.309	88.44
596.518	79.44
596.727	112.44
596.937	100.44
597.146	97.44
597.355	105.44
597.564	80.44
597.774	95.44
597.983	100.44
598.192	78.44
598.401	89.44
598.61	71.44
598.819	87.44
599.028	100.44
599.237	109.44
599.446	100.44
599.655	97.44
599.864	93.44
600.073	97.44
600.282	101.44
600.491	109.44
600.7	102.44
600.909	96.44
601.118	95.44
601.327	88.44
601.536	90.44
601.745	103.44
601.953	98.44
602.162	89.44
602.371	87.44
602.58	84.44
602.789	74.44
602.997	94.44
603.206	88.44
603.415	95.44
603.623	96.44
603.832	97.44
604.041	88.44
604.249	86.44
604.458	90.44
604.666	81.44
604.875	96.44
605.084	97.44
605.292	100.44
605.501	108.44
605.709	77.44
605.918	88.44
606.126	100.44
606.334	105.44
606.543	92.44
606.751	95.44
606.96	110.44
607.168	100.44
607.376	105.44
607.585	102.44
607.793	72.44
608.001	75.44
608.21	98.44
608.418	86.44
608.626	112.44
608.834	113.44
609.043	95.44
609.251	101.44
609.459	92.44
609.667	99.44
609.875	92.44
610.083	99.44
610.291	97.44
610.499	107.44
610.707	90.44
610.916	90.44
611.124	84.44
611.332	96.44
611.54	93.44
611.748	93.44
611.955	112.44
612.163	107.44
612.371	128.44
612.579	96.44
612.787	115.44
612.995	108.44
613.203	113.44
613.411	90.44
613.618	86.44
613.826	94.44
614.034	90.44
614.242	89.44
614.449	111.44
614.657	107.44
614.865	92.44
615.072	102.44
615.28	100.44
615.488	80.44
615.695	101.44
615.903	97.44
616.111	108.44
616.318	113.44
616.526	144.44
616.733	102.44
616.941	95.44
617.148	125.44
617.356	117.44
617.563	108.44
617.771	94.44
617.978	98.44
618.185	108.44
618.393	104.44
618.6	91.44
618.807	92.44
619.015	89.44
619.222	81.44
619.429	99.44
619.637	102.44
619.844	84.44
620.051	98.44
620.258	104.44
620.466	89.44
620.673	108.44
620.88	95.44
621.087	92.44
621.294	97.44
621.501	94.44
621.708	101.44
621.915	88.44
622.122	92.44
622.329	98.44
622.536	89.44
622.743	90.44
622.95	95.44
623.157	97.44
623.364	87.44
623.571	112.44
623.778	87.44
623.985	98.44
624.192	89.44
624.399	104.44
624.606	95.44
624.812	91.44
625.019	103.44
625.226	85.44
625.433	95.44
625.639	90.44
625.846	101.44
626.053	99.44
626.259	93.44
626.466	85.44
626.673	88.44
626.879	82.44
627.086	84.44
627.293	78.44
627.499	95.44
627.706	91.44
627.912	85.44
628.119	82.44
628.325	79.44
628.532	98.44
628.738	88.44
628.945	88.44
629.151	94.44
629.357	92.44
629.564	73.44
629.77	91.44
629.976	80.44
630.183	73.44
630.389	56.44
630.595	71.44
630.802	73.44
631.008	89.44
631.214	80.44
631.42	74.44
631.627	86.44
631.833	94.44
632.039	88.44
632.245	78.44
632.451	70.44
632.657	78.44
632.863	80.44
633.069	92.44
633.275	79.44
633.481	88.44
633.688	71.44
633.893	79.44
634.099	74.44
634.305	92.44
634.511	90.44
634.717	82.44
634.923	93.44
635.129	79.44
635.335	79.44
635.541	82.44
635.747	80.44
635.952	72.44
636.158	102.44
636.364	83.44
636.57	84.44
636.775	89.44
636.981	80.44
637.187	85.44
637.392	93.44
637.598	80.44
637.804	75.44
638.009	89.44
638.215	82.44
638.421	90.44
638.626	89.44
638.832	87.44
639.037	74.44
639.243	102.44
639.448	82.44
639.654	81.44
639.859	74.44
640.065	74.44
640.27	93.44
640.475	88.44
640.681	75.44
640.886	65.44
641.091	84.44
641.297	90.44
641.502	81.44
641.707	95.44
641.913	86.44
642.118	76.44
642.323	77.44
642.528	80.44
642.733	79.44
642.939	88.44
643.144	73.44
643.349	96.44
643.554	95.44
643.759	65.44
643.964	83.44
644.169	91.44
644.374	78.44
644.579	89.44
644.784	78.44
644.989	80.44
645.194	88.44
645.399	85.44
645.604	93.44
645.809	80.44
646.014	80.44
646.219	66.44
646.423	82.44
646.628	80.44
646.833	80.44
647.038	86.44
647.243	80.44
647.447	81.44
647.652	105.44
647.857	76.44
648.062	86.44
648.266	75.44
648.471	101.44
648.676	85.44
648.88	85.44
649.085	64.44
649.289	88.44
649.494	85.44
649.698	95.44
649.903	90.44
650.107	68.44
650.312	77.44
650.516	74.44
650.721	82.44
650.925	84.44
651.13	74.44
651.334	96.44
651.539	73.44
651.743	82.44
651.947	83.44
652.152	81.44
652.356	83.44
652.56	85.44
652.764	72.44
652.969	88.44
653.173	92.44
653.377	79.44
653.581	91.44
653.785	94.44
653.99	92.44
654.194	81.44
654.398	70.44
654.602	73.44
654.806	79.44
655.01	97.44
655.214	73.44
655.418	77.44
655.622	78.44
655.826	73.44
656.03	84.44
656.234	89.44
656.438	80.44
656.642	79.44
656.846	95.44
657.049	88.44
657.253	88.44
657.457	66.44
657.661	89.44
657.865	80.44
658.068	86.44
658.272	74.44
658.476	84.44
658.68	96.44
658.883	83.44
659.087	86.44
659.291	79.44
659.494	93.44
659.698	69.44
659.901	89.44
660.105	74.44
660.309	93.44
660.512	70.44
660.716	71.44
660.919	78.44
661.123	96.44
661.326	85.44
661.53	73.44
661.733	72.44
661.936	88.44
662.14	79.44
662.343	75.44
662.546	78.44
662.75	71.44
662.953	93.44
663.156	95.44
663.36	79.44
663.563	90.44
663.766	89.44
663.969	75.44
664.173	88.44
664.376	68.44
664.579	62.44
664.782	86.44
664.985	75.44
665.188	87.44
665.391	84.44
665.594	73.44
665.797	74.44
666	69.44
666.203	78.44
666.406	81.44
666.609	95.44
666.812	81.44
667.015	81.44
667.218	95.44
667.421	83.44
667.624	84.44
667.827	93.44
668.03	67.44
668.232	83.44
668.435	84.44
668.638	77.44
668.841	88.44
669.043	70.44
669.246	84.44
669.449	74.44
669.651	88.44
669.854	82.44
670.057	87.44
670.259	71.44
670.462	58.44
670.665	70.44
670.867	82.44
671.07	79.44
671.272	80.44
671.475	97.44
671.677	70.44
671.88	78.44
672.082	69.44
672.284	79.44
672.487	82.44
672.689	72.44
672.892	69.44
