Data from Circ_2018_H10_HRD10591_00080.txt Node
Date: Wed Jan 03 09:56:18 EST 2024
User: Yrep
Spectrometer: HR+D1059
Trigger mode: 1
Integration Time (sec): 1.000000E-1
Scans to average: 1
Electric dark correction enabled: true
Nonlinearity correction enabled: false
Boxcar width: 0
XAxis mode: Wavelengths
Number of Pixels in Spectrum: 2048
>>>>>Begin Spectral Data<<<<<
223.165	-13.69
223.4	-13.69
223.635	-13.69
223.869	-25.69
224.104	-17.69
224.338	-14.69
224.573	-10.69
224.808	-6.69
225.042	-4.69
225.277	-6.69
225.511	-6.69
225.746	1.31
225.98	10.31
226.215	2.31
226.449	17.31
226.683	10.31
226.918	26.31
227.152	39.31
227.387	26.31
227.621	30.31
227.856	38.31
228.09	45.31
228.324	48.31
228.559	69.31
228.793	60.31
229.027	67.31
229.262	54.31
229.496	62.31
229.73	94.31
229.964	82.31
230.199	65.31
230.433	71.31
230.667	74.31
230.901	60.31
231.136	77.31
231.37	73.31
231.604	82.31
231.838	82.31
232.072	89.31
232.306	95.31
232.541	81.31
232.775	79.31
233.009	91.31
233.243	73.31
233.477	75.31
233.711	72.31
233.945	76.31
234.179	95.31
234.413	91.31
234.647	71.31
234.881	93.31
235.115	77.31
235.349	75.31
235.583	69.31
235.817	76.31
236.051	75.31
236.285	75.31
236.519	70.31
236.753	73.31
236.987	68.31
237.221	74.31
237.455	74.31
237.689	67.31
237.922	75.31
238.156	72.31
238.39	77.31
238.624	80.31
238.858	91.31
239.091	78.31
239.325	93.31
239.559	94.31
239.793	78.31
240.027	76.31
240.26	89.31
240.494	82.31
240.728	80.31
240.961	65.31
241.195	89.31
241.429	67.31
241.662	78.31
241.896	79.31
242.13	92.31
242.363	72.31
242.597	78.31
242.83	92.31
243.064	62.31
243.298	73.31
243.531	76.31
243.765	73.31
243.998	67.31
244.232	68.31
244.465	82.31
244.699	75.31
244.932	72.31
245.166	67.31
245.399	84.31
245.633	78.31
245.866	90.31
246.099	79.31
246.333	80.31
246.566	73.31
246.8	85.31
247.033	73.31
247.266	79.31
247.5	80.31
247.733	77.31
247.966	79.31
248.2	75.31
248.433	94.31
248.666	90.31
248.899	86.31
249.133	96.31
249.366	95.31
249.599	89.31
249.832	99.31
250.066	91.31
250.299	80.31
250.532	91.31
250.765	90.31
250.998	62.31
251.231	77.31
251.465	80.31
251.698	69.31
251.931	99.31
252.164	79.31
252.397	76.31
252.63	62.31
252.863	69.31
253.096	84.31
253.329	80.31
253.562	81.31
253.795	71.31
254.028	71.31
254.261	89.31
254.494	70.31
254.727	80.31
254.96	84.31
255.193	77.31
255.426	82.31
255.659	75.31
255.892	63.31
256.124	76.31
256.357	70.31
256.59	83.31
256.823	71.31
257.056	68.31
257.289	75.31
257.521	76.31
257.754	72.31
257.987	85.31
258.22	82.31
258.452	94.31
258.685	77.31
258.918	69.31
259.151	87.31
259.383	78.31
259.616	79.31
259.849	71.31
260.081	78.31
260.314	92.31
260.547	84.31
260.779	68.31
261.012	79.31
261.244	85.31
261.477	90.31
261.71	95.31
261.942	129.31
262.175	116.31
262.407	89.31
262.64	84.31
262.872	75.31
263.105	75.31
263.337	79.31
263.57	90.31
263.802	82.31
264.035	87.31
264.267	85.31
264.499	79.31
264.732	76.31
264.964	90.31
265.197	81.31
265.429	77.31
265.661	76.31
265.894	91.31
266.126	87.31
266.358	91.31
266.591	76.31
266.823	83.31
267.055	89.31
267.287	74.31
267.52	84.31
267.752	88.31
267.984	99.31
268.216	79.31
268.448	97.31
268.681	85.31
268.913	78.31
269.145	84.31
269.377	96.31
269.609	84.31
269.841	84.31
270.073	76.31
270.306	76.31
270.538	80.31
270.77	94.31
271.002	74.31
271.234	78.31
271.466	89.31
271.698	82.31
271.93	84.31
272.162	93.31
272.394	95.31
272.626	85.31
272.858	84.31
273.09	91.31
273.322	87.31
273.553	92.31
273.785	87.31
274.017	83.31
274.249	87.31
274.481	73.31
274.713	87.31
274.945	79.31
275.176	94.31
275.408	75.31
275.64	90.31
275.872	91.31
276.104	107.31
276.335	76.31
276.567	98.31
276.799	112.31
277.031	103.31
277.262	84.31
277.494	83.31
277.726	96.31
277.957	87.31
278.189	85.31
278.421	76.31
278.652	86.31
278.884	96.31
279.115	91.31
279.347	79.31
279.579	89.31
279.81	84.31
280.042	88.31
280.273	97.31
280.505	87.31
280.736	82.31
280.968	86.31
281.199	87.31
281.431	102.31
281.662	94.31
281.894	74.31
282.125	99.31
282.356	118.31
282.588	148.31
282.819	123.31
283.051	96.31
283.282	86.31
283.513	86.31
283.745	96.31
283.976	76.31
284.207	79.31
284.439	86.31
284.67	79.31
284.901	96.31
285.132	85.31
285.364	79.31
285.595	79.31
285.826	85.31
286.057	100.31
286.288	107.31
286.52	81.31
286.751	87.31
286.982	95.31
287.213	90.31
287.444	83.31
287.675	89.31
287.906	83.31
288.138	97.31
288.369	89.31
288.6	91.31
288.831	82.31
289.062	75.31
289.293	82.31
289.524	87.31
289.755	84.31
289.986	78.31
290.217	83.31
290.448	92.31
290.679	76.31
290.91	70.31
291.141	87.31
291.371	93.31
291.602	72.31
291.833	74.31
292.064	91.31
292.295	91.31
292.526	90.31
292.757	98.31
292.987	84.31
293.218	91.31
293.449	94.31
293.68	97.31
293.91	76.31
294.141	79.31
294.372	84.31
294.603	86.31
294.833	72.31
295.064	85.31
295.295	93.31
295.525	88.31
295.756	107.31
295.987	121.31
296.217	134.31
296.448	136.31
296.679	83.31
296.909	88.31
297.14	87.31
297.37	94.31
297.601	92.31
297.831	90.31
298.062	88.31
298.292	100.31
298.523	86.31
298.753	84.31
298.984	89.31
299.214	80.31
299.445	86.31
299.675	94.31
299.905	91.31
300.136	91.31
300.366	81.31
300.597	92.31
300.827	94.31
301.057	97.31
301.288	104.31
301.518	100.31
301.748	88.31
301.979	96.31
302.209	89.31
302.439	100.31
302.669	94.31
302.9	82.31
303.13	85.31
303.36	92.31
303.59	107.31
303.82	111.31
304.051	104.31
304.281	85.31
304.511	97.31
304.741	89.31
304.971	92.31
305.201	74.31
305.431	95.31
305.661	104.31
305.891	89.31
306.121	95.31
306.352	100.31
306.582	101.31
306.812	103.31
307.042	83.31
307.272	87.31
307.502	88.31
307.731	91.31
307.961	104.31
308.191	97.31
308.421	86.31
308.651	82.31
308.881	90.31
309.111	95.31
309.341	104.31
309.571	98.31
309.8	93.31
310.03	106.31
310.26	105.31
310.49	104.31
310.72	114.31
310.949	116.31
311.179	109.31
311.409	89.31
311.639	90.31
311.868	92.31
312.098	96.31
312.328	101.31
312.557	110.31
312.787	97.31
313.017	88.31
313.246	106.31
313.476	103.31
313.706	99.31
313.935	94.31
314.165	99.31
314.394	88.31
314.624	99.31
314.853	92.31
315.083	84.31
315.312	87.31
315.542	100.31
315.771	103.31
316.001	88.31
316.23	91.31
316.46	88.31
316.689	95.31
316.919	102.31
317.148	86.31
317.377	95.31
317.607	104.31
317.836	100.31
318.065	96.31
318.295	89.31
318.524	74.31
318.753	101.31
318.983	100.31
319.212	116.31
319.441	131.31
319.67	119.31
319.9	90.31
320.129	78.31
320.358	99.31
320.587	95.31
320.816	90.31
321.046	103.31
321.275	95.31
321.504	91.31
321.733	103.31
321.962	88.31
322.191	86.31
322.42	105.31
322.649	115.31
322.878	103.31
323.108	122.31
323.337	133.31
323.566	134.31
323.795	147.31
324.024	212.31
324.253	391.31
324.482	835.31
324.71	1743.31
324.939	2215.31
325.168	844.31
325.397	255.31
325.626	143.31
325.855	133.31
326.084	138.31
326.313	123.31
326.542	153.31
326.77	237.31
326.999	451.31
327.228	912.31
327.457	1680.31
327.686	1334.31
327.914	388.31
328.143	194.31
328.372	181.31
328.6	134.31
328.829	112.31
329.058	140.31
329.287	137.31
329.515	113.31
329.744	112.31
329.972	119.31
330.201	130.31
330.43	170.31
330.658	140.31
330.887	154.31
331.115	129.31
331.344	104.31
331.572	100.31
331.801	121.31
332.03	102.31
332.258	99.31
332.486	95.31
332.715	100.31
332.943	91.31
333.172	96.31
333.4	82.31
333.629	121.31
333.857	111.31
334.085	128.31
334.314	132.31
334.542	187.31
334.771	182.31
334.999	103.31
335.227	106.31
335.455	107.31
335.684	89.31
335.912	81.31
336.14	80.31
336.369	88.31
336.597	87.31
336.825	95.31
337.053	95.31
337.281	90.31
337.51	90.31
337.738	85.31
337.966	100.31
338.194	94.31
338.422	87.31
338.65	96.31
338.878	94.31
339.106	98.31
339.334	108.31
339.562	96.31
339.79	86.31
340.018	87.31
340.246	92.31
340.474	98.31
340.702	101.31
340.93	98.31
341.158	94.31
341.386	95.31
341.614	99.31
341.842	83.31
342.07	88.31
342.298	99.31
342.526	85.31
342.754	89.31
342.981	106.31
343.209	103.31
343.437	102.31
343.665	90.31
343.893	88.31
344.12	94.31
344.348	82.31
344.576	85.31
344.804	94.31
345.031	100.31
345.259	91.31
345.487	82.31
345.714	90.31
345.942	94.31
346.17	89.31
346.397	94.31
346.625	87.31
346.853	88.31
347.08	98.31
347.308	102.31
347.535	100.31
347.763	100.31
347.99	94.31
348.218	115.31
348.445	103.31
348.673	89.31
348.9	96.31
349.128	97.31
349.355	97.31
349.583	101.31
349.81	94.31
350.037	80.31
350.265	107.31
350.492	76.31
350.72	101.31
350.947	110.31
351.174	115.31
351.402	116.31
351.629	108.31
351.856	102.31
352.083	111.31
352.311	104.31
352.538	100.31
352.765	119.31
352.992	121.31
353.22	129.31
353.447	118.31
353.674	107.31
353.901	101.31
354.128	105.31
354.355	100.31
354.583	99.31
354.81	108.31
355.037	84.31
355.264	88.31
355.491	92.31
355.718	78.31
355.945	89.31
356.172	98.31
356.399	100.31
356.626	102.31
356.853	101.31
357.08	89.31
357.307	84.31
357.534	80.31
357.761	98.31
357.988	103.31
358.215	101.31
358.441	81.31
358.668	91.31
358.895	81.31
359.122	104.31
359.349	91.31
359.576	91.31
359.802	107.31
360.029	102.31
360.256	96.31
360.483	95.31
360.709	84.31
360.936	87.31
361.163	86.31
361.39	96.31
361.616	83.31
361.843	95.31
362.07	100.31
362.296	76.31
362.523	86.31
362.749	98.31
362.976	89.31
363.203	99.31
363.429	76.31
363.656	94.31
363.882	92.31
364.109	92.31
364.335	93.31
364.562	88.31
364.788	94.31
365.015	97.31
365.241	112.31
365.468	107.31
365.694	109.31
365.92	110.31
366.147	94.31
366.373	86.31
366.599	86.31
366.826	88.31
367.052	89.31
367.278	98.31
367.505	88.31
367.731	103.31
367.957	102.31
368.184	92.31
368.41	108.31
368.636	111.31
368.862	119.31
369.089	99.31
369.315	87.31
369.541	101.31
369.767	92.31
369.993	91.31
370.219	89.31
370.445	95.31
370.672	83.31
370.898	86.31
371.124	86.31
371.35	90.31
371.576	104.31
371.802	81.31
372.028	83.31
372.254	87.31
372.48	92.31
372.706	83.31
372.932	100.31
373.158	83.31
373.384	98.31
373.61	93.31
373.835	87.31
374.061	97.31
374.287	94.31
374.513	88.31
374.739	79.31
374.965	79.31
375.191	83.31
375.416	93.31
375.642	96.31
375.868	91.31
376.094	85.31
376.319	103.31
376.545	96.31
376.771	87.31
376.997	79.31
377.222	79.31
377.448	95.31
377.674	99.31
377.899	79.31
378.125	89.31
378.35	95.31
378.576	90.31
378.802	88.31
379.027	101.31
379.253	84.31
379.478	95.31
379.704	85.31
379.929	82.31
380.155	94.31
380.38	91.31
380.606	111.31
380.831	99.31
381.057	94.31
381.282	98.31
381.507	101.31
381.733	95.31
381.958	85.31
382.184	91.31
382.409	94.31
382.634	102.31
382.86	103.31
383.085	95.31
383.31	89.31
383.535	79.31
383.761	92.31
383.986	97.31
384.211	100.31
384.436	91.31
384.662	93.31
384.887	98.31
385.112	118.31
385.337	123.31
385.562	97.31
385.787	94.31
386.013	101.31
386.238	110.31
386.463	111.31
386.688	105.31
386.913	110.31
387.138	107.31
387.363	89.31
387.588	97.31
387.813	95.31
388.038	86.31
388.263	106.31
388.488	96.31
388.713	79.31
388.938	98.31
389.163	104.31
389.387	93.31
389.612	101.31
389.837	107.31
390.062	76.31
390.287	98.31
390.512	96.31
390.736	97.31
390.961	89.31
391.186	94.31
391.411	93.31
391.636	103.31
391.86	83.31
392.085	69.31
392.31	82.31
392.534	103.31
392.759	95.31
392.984	106.31
393.208	92.31
393.433	88.31
393.658	79.31
393.882	78.31
394.107	74.31
394.331	85.31
394.556	81.31
394.78	102.31
395.005	91.31
395.229	98.31
395.454	73.31
395.678	87.31
395.903	94.31
396.127	83.31
396.352	102.31
396.576	82.31
396.801	78.31
397.025	86.31
397.249	91.31
397.474	83.31
397.698	87.31
397.922	85.31
398.147	85.31
398.371	92.31
398.595	95.31
398.82	85.31
399.044	88.31
399.268	86.31
399.492	85.31
399.717	91.31
399.941	89.31
400.165	99.31
400.389	98.31
400.613	89.31
400.837	89.31
401.062	96.31
401.286	90.31
401.51	95.31
401.734	89.31
401.958	117.31
402.182	135.31
402.406	170.31
402.63	128.31
402.854	113.31
403.078	87.31
403.302	97.31
403.526	89.31
403.75	71.31
403.974	89.31
404.198	93.31
404.422	90.31
404.645	89.31
404.869	97.31
405.093	99.31
405.317	95.31
405.541	103.31
405.765	104.31
405.988	114.31
406.212	191.31
406.436	267.31
406.66	163.31
406.883	102.31
407.107	102.31
407.331	94.31
407.555	91.31
407.778	96.31
408.002	83.31
408.226	87.31
408.449	79.31
408.673	81.31
408.896	103.31
409.12	89.31
409.344	85.31
409.567	92.31
409.791	93.31
410.014	84.31
410.238	87.31
410.461	92.31
410.685	90.31
410.908	101.31
411.132	91.31
411.355	111.31
411.578	105.31
411.802	89.31
412.025	96.31
412.249	80.31
412.472	113.31
412.695	104.31
412.919	86.31
413.142	82.31
413.365	77.31
413.589	87.31
413.812	94.31
414.035	89.31
414.258	84.31
414.482	98.31
414.705	79.31
414.928	84.31
415.151	94.31
415.374	93.31
415.597	86.31
415.821	76.31
416.044	87.31
416.267	82.31
416.49	87.31
416.713	101.31
416.936	97.31
417.159	89.31
417.382	92.31
417.605	87.31
417.828	85.31
418.051	94.31
418.274	91.31
418.497	83.31
418.72	95.31
418.943	84.31
419.166	80.31
419.389	80.31
419.611	104.31
419.834	94.31
420.057	87.31
420.28	91.31
420.503	88.31
420.726	79.31
420.948	86.31
421.171	106.31
421.394	91.31
421.617	78.31
421.839	74.31
422.062	88.31
422.285	94.31
422.507	106.31
422.73	107.31
422.953	84.31
423.175	93.31
423.398	87.31
423.621	80.31
423.843	89.31
424.066	90.31
424.288	98.31
424.511	103.31
424.733	97.31
424.956	104.31
425.178	111.31
425.401	98.31
425.623	105.31
425.846	76.31
426.068	83.31
426.291	88.31
426.513	74.31
426.735	90.31
426.958	88.31
427.18	111.31
427.402	155.31
427.625	185.31
427.847	144.31
428.069	115.31
428.292	84.31
428.514	74.31
428.736	66.31
428.958	83.31
429.181	92.31
429.403	88.31
429.625	89.31
429.847	86.31
430.069	99.31
430.292	99.31
430.514	82.31
430.736	81.31
430.958	94.31
431.18	73.31
431.402	94.31
431.624	88.31
431.846	97.31
432.068	79.31
432.29	82.31
432.512	95.31
432.734	86.31
432.956	81.31
433.178	93.31
433.4	117.31
433.622	89.31
433.844	100.31
434.066	86.31
434.287	71.31
434.509	79.31
434.731	89.31
434.953	84.31
435.175	87.31
435.397	86.31
435.618	97.31
435.84	112.31
436.062	113.31
436.284	107.31
436.505	98.31
436.727	105.31
436.949	100.31
437.17	87.31
437.392	72.31
437.614	82.31
437.835	102.31
438.057	117.31
438.278	115.31
438.5	105.31
438.721	110.31
438.943	101.31
439.165	95.31
439.386	86.31
439.608	100.31
439.829	115.31
440.05	115.31
440.272	123.31
440.493	97.31
440.715	100.31
440.936	90.31
441.158	90.31
441.379	97.31
441.6	109.31
441.822	84.31
442.043	100.31
442.264	104.31
442.486	94.31
442.707	88.31
442.928	105.31
443.149	130.31
443.371	135.31
443.592	114.31
443.813	124.31
444.034	98.31
444.255	93.31
444.476	87.31
444.698	94.31
444.919	90.31
445.14	134.31
445.361	117.31
445.582	101.31
445.803	138.31
446.024	138.31
446.245	122.31
446.466	117.31
446.687	95.31
446.908	92.31
447.129	81.31
447.35	91.31
447.571	90.31
447.792	80.31
448.013	100.31
448.234	101.31
448.455	93.31
448.675	108.31
448.896	131.31
449.117	94.31
449.338	91.31
449.559	124.31
449.779	123.31
450	87.31
450.221	79.31
450.442	87.31
450.662	103.31
450.883	110.31
451.104	110.31
451.324	98.31
451.545	98.31
451.766	80.31
451.986	78.31
452.207	97.31
452.428	83.31
452.648	107.31
452.869	122.31
453.089	120.31
453.31	130.31
453.53	99.31
453.751	91.31
453.971	105.31
454.192	111.31
454.412	88.31
454.633	88.31
454.853	87.31
455.073	83.31
455.294	100.31
455.514	87.31
455.734	76.31
455.955	79.31
456.175	88.31
456.395	81.31
456.616	91.31
456.836	80.31
457.056	86.31
457.276	82.31
457.497	87.31
457.717	95.31
457.937	86.31
458.157	92.31
458.377	89.31
458.598	108.31
458.818	150.31
459.038	173.31
459.258	120.31
459.478	91.31
459.698	83.31
459.918	94.31
460.138	80.31
460.358	80.31
460.578	81.31
460.798	98.31
461.018	79.31
461.238	67.31
461.458	84.31
461.678	95.31
461.898	94.31
462.118	70.31
462.338	96.31
462.558	81.31
462.777	83.31
462.997	74.31
463.217	80.31
463.437	97.31
463.657	89.31
463.876	96.31
464.096	92.31
464.316	99.31
464.536	78.31
464.755	96.31
464.975	106.31
465.195	167.31
465.414	170.31
465.634	100.31
465.854	84.31
466.073	88.31
466.293	86.31
466.512	82.31
466.732	85.31
466.951	98.31
467.171	78.31
467.391	106.31
467.61	100.31
467.829	96.31
468.049	117.31
468.268	120.31
468.488	91.31
468.707	84.31
468.927	96.31
469.146	89.31
469.365	93.31
469.585	93.31
469.804	96.31
470.023	87.31
470.243	81.31
470.462	89.31
470.681	111.31
470.901	92.31
471.12	85.31
471.339	91.31
471.558	90.31
471.777	98.31
471.997	98.31
472.216	138.31
472.435	207.31
472.654	98.31
472.873	99.31
473.092	94.31
473.311	90.31
473.53	78.31
473.749	91.31
473.968	91.31
474.187	107.31
474.406	98.31
474.625	82.31
474.844	84.31
475.063	92.31
475.282	77.31
475.501	95.31
475.72	92.31
475.939	99.31
476.158	90.31
476.377	85.31
476.596	86.31
476.814	97.31
477.033	89.31
477.252	102.31
477.471	95.31
477.69	84.31
477.908	80.31
478.127	97.31
478.346	80.31
478.564	97.31
478.783	92.31
479.002	96.31
479.22	84.31
479.439	104.31
479.658	101.31
479.876	109.31
480.095	92.31
480.313	95.31
480.532	99.31
480.751	83.31
480.969	125.31
481.188	330.31
481.406	227.31
481.624	108.31
481.843	103.31
482.061	94.31
482.28	85.31
482.498	83.31
482.717	94.31
482.935	94.31
483.153	81.31
483.372	106.31
483.59	105.31
483.808	91.31
484.027	81.31
484.245	89.31
484.463	97.31
484.681	99.31
484.9	96.31
485.118	109.31
485.336	86.31
485.554	93.31
485.772	84.31
485.99	99.31
486.209	107.31
486.427	101.31
486.645	99.31
486.863	116.31
487.081	103.31
487.299	102.31
487.517	101.31
487.735	107.31
487.953	99.31
488.171	100.31
488.389	80.31
488.607	92.31
488.825	104.31
489.043	77.31
489.261	94.31
489.479	89.31
489.696	93.31
489.914	93.31
490.132	86.31
490.35	76.31
490.568	86.31
490.786	87.31
491.003	94.31
491.221	91.31
491.439	99.31
491.657	91.31
491.874	89.31
492.092	86.31
492.31	91.31
492.527	85.31
492.745	92.31
492.963	82.31
493.18	81.31
493.398	86.31
493.615	99.31
493.833	102.31
494.05	101.31
494.268	83.31
494.485	98.31
494.703	100.31
494.92	88.31
495.138	79.31
495.355	99.31
495.573	87.31
495.79	84.31
496.008	97.31
496.225	95.31
496.442	96.31
496.66	87.31
496.877	89.31
497.094	85.31
497.312	89.31
497.529	87.31
497.746	87.31
497.963	96.31
498.181	104.31
498.398	97.31
498.615	114.31
498.832	95.31
499.049	90.31
499.267	90.31
499.484	89.31
499.701	97.31
499.918	96.31
500.135	91.31
500.352	87.31
500.569	87.31
500.786	84.31
501.003	98.31
501.22	77.31
501.437	94.31
501.654	101.31
501.871	110.31
502.088	89.31
502.305	87.31
502.522	104.31
502.739	91.31
502.956	101.31
503.172	82.31
503.389	104.31
503.606	108.31
503.823	107.31
504.04	86.31
504.256	105.31
504.473	91.31
504.69	80.31
504.907	106.31
505.123	82.31
505.34	91.31
505.557	94.31
505.773	106.31
505.99	79.31
506.207	84.31
506.423	90.31
506.64	85.31
506.856	86.31
507.073	99.31
507.289	86.31
507.506	86.31
507.722	115.31
507.939	114.31
508.155	98.31
508.372	98.31
508.588	87.31
508.805	95.31
509.021	84.31
509.238	103.31
509.454	98.31
509.67	86.31
509.887	96.31
510.103	118.31
510.319	238.31
510.536	858.31
510.752	2875.31
510.968	812.31
511.184	182.31
511.401	99.31
511.617	98.31
511.833	124.31
512.049	91.31
512.265	94.31
512.481	98.31
512.698	106.31
512.914	96.31
513.13	82.31
513.346	89.31
513.562	96.31
513.778	102.31
513.994	103.31
514.21	113.31
514.426	107.31
514.642	146.31
514.858	134.31
515.074	182.31
515.29	543.31
515.506	1830.31
515.721	690.31
515.937	182.31
516.153	110.31
516.369	107.31
516.585	94.31
516.801	85.31
517.016	107.31
517.232	98.31
517.448	89.31
517.664	83.31
517.879	107.31
518.095	91.31
518.311	97.31
518.527	80.31
518.742	85.31
518.958	93.31
519.173	90.31
519.389	88.31
519.605	94.31
519.82	87.31
520.036	95.31
520.251	126.31
520.467	108.31
520.682	103.31
520.898	98.31
521.113	139.31
521.329	152.31
521.544	228.31
521.76	667.31
521.975	3030.31
522.19	1904.31
522.406	386.31
522.621	142.31
522.836	96.31
523.052	103.31
523.267	112.31
523.482	94.31
523.698	98.31
523.913	130.31
524.128	99.31
524.343	113.31
524.559	95.31
524.774	100.31
524.989	89.31
525.204	104.31
525.419	103.31
525.634	96.31
525.849	88.31
526.064	85.31
526.28	93.31
526.495	85.31
526.71	102.31
526.925	83.31
527.14	89.31
527.355	94.31
527.57	96.31
527.785	87.31
527.999	96.31
528.214	87.31
528.429	102.31
528.644	86.31
528.859	93.31
529.074	103.31
529.289	143.31
529.503	196.31
529.718	112.31
529.933	89.31
530.148	92.31
530.363	92.31
530.577	87.31
530.792	91.31
531.007	89.31
531.221	96.31
531.436	100.31
531.651	106.31
531.865	105.31
532.08	88.31
532.295	100.31
532.509	97.31
532.724	100.31
532.938	95.31
533.153	101.31
533.367	80.31
533.582	87.31
533.796	78.31
534.011	94.31
534.225	91.31
534.44	80.31
534.654	95.31
534.868	82.31
535.083	93.31
535.297	97.31
535.511	104.31
535.726	89.31
535.94	95.31
536.154	100.31
536.369	88.31
536.583	86.31
536.797	87.31
537.011	91.31
537.225	113.31
537.44	89.31
537.654	90.31
537.868	83.31
538.082	97.31
538.296	87.31
538.51	96.31
538.724	93.31
538.938	103.31
539.153	110.31
539.367	109.31
539.581	104.31
539.795	91.31
540.009	71.31
540.222	90.31
540.436	85.31
540.65	85.31
540.864	94.31
541.078	89.31
541.292	87.31
541.506	104.31
541.72	89.31
541.934	90.31
542.147	82.31
542.361	105.31
542.575	82.31
542.789	77.31
543.002	93.31
543.216	104.31
543.43	97.31
543.644	101.31
543.857	91.31
544.071	79.31
544.285	93.31
544.498	93.31
544.712	99.31
544.925	105.31
545.139	88.31
545.352	84.31
545.566	84.31
545.779	88.31
545.993	77.31
546.206	94.31
546.42	93.31
546.633	88.31
546.847	95.31
547.06	94.31
547.274	80.31
547.487	95.31
547.7	92.31
547.914	82.31
548.127	83.31
548.34	79.31
548.554	92.31
548.767	89.31
548.98	95.31
549.193	87.31
549.407	90.31
549.62	83.31
549.833	77.31
550.046	90.31
550.259	83.31
550.473	83.31
550.686	86.31
550.899	89.31
551.112	88.31
551.325	84.31
551.538	101.31
551.751	111.31
551.964	87.31
552.177	91.31
552.39	86.31
552.603	85.31
552.816	83.31
553.029	97.31
553.242	88.31
553.455	98.31
553.667	104.31
553.88	107.31
554.093	106.31
554.306	89.31
554.519	82.31
554.732	108.31
554.944	98.31
555.157	94.31
555.37	93.31
555.583	86.31
555.795	88.31
556.008	94.31
556.221	83.31
556.433	81.31
556.646	85.31
556.859	76.31
557.071	81.31
557.284	84.31
557.496	78.31
557.709	94.31
557.921	72.31
558.134	94.31
558.346	90.31
558.559	81.31
558.771	88.31
558.984	100.31
559.196	103.31
559.409	103.31
559.621	95.31
559.833	77.31
560.046	87.31
560.258	97.31
560.47	87.31
560.683	96.31
560.895	94.31
561.107	92.31
561.32	78.31
561.532	76.31
561.744	88.31
561.956	90.31
562.168	91.31
562.381	78.31
562.593	91.31
562.805	87.31
563.017	94.31
563.229	94.31
563.441	88.31
563.653	82.31
563.865	86.31
564.077	99.31
564.289	91.31
564.501	95.31
564.713	95.31
564.925	103.31
565.137	100.31
565.349	105.31
565.561	101.31
565.773	103.31
565.985	90.31
566.197	88.31
566.408	80.31
566.62	83.31
566.832	89.31
567.044	83.31
567.255	91.31
567.467	86.31
567.679	97.31
567.891	96.31
568.102	86.31
568.314	83.31
568.526	88.31
568.737	84.31
568.949	78.31
569.161	71.31
569.372	78.31
569.584	85.31
569.795	86.31
570.007	107.31
570.218	274.31
570.43	158.31
570.641	98.31
570.853	100.31
571.064	76.31
571.276	85.31
571.487	95.31
571.698	86.31
571.91	86.31
572.121	94.31
572.333	88.31
572.544	95.31
572.755	64.31
572.966	85.31
573.178	85.31
573.389	74.31
573.6	100.31
573.811	79.31
574.023	73.31
574.234	83.31
574.445	87.31
574.656	87.31
574.867	100.31
575.078	89.31
575.289	95.31
575.501	85.31
575.712	79.31
575.923	96.31
576.134	90.31
576.345	92.31
576.556	89.31
576.767	83.31
576.978	86.31
577.188	89.31
577.399	95.31
577.61	99.31
577.821	96.31
578.032	128.31
578.243	298.31
578.454	932.31
578.665	249.31
578.875	108.31
579.086	98.31
579.297	84.31
579.508	81.31
579.718	75.31
579.929	88.31
580.14	88.31
580.35	88.31
580.561	98.31
580.772	80.31
580.982	82.31
581.193	85.31
581.403	80.31
581.614	99.31
581.825	89.31
582.035	76.31
582.246	91.31
582.456	84.31
582.667	81.31
582.877	81.31
583.087	83.31
583.298	87.31
583.508	90.31
583.719	88.31
583.929	79.31
584.139	81.31
584.35	83.31
584.56	91.31
584.77	80.31
584.981	88.31
585.191	87.31
585.401	105.31
585.611	83.31
585.821	83.31
586.032	94.31
586.242	80.31
586.452	88.31
586.662	76.31
586.872	94.31
587.082	80.31
587.292	95.31
587.502	110.31
587.713	90.31
587.923	83.31
588.133	81.31
588.343	88.31
588.553	84.31
588.762	92.31
588.972	88.31
589.182	97.31
589.392	94.31
589.602	64.31
589.812	92.31
590.022	84.31
590.232	84.31
590.441	84.31
590.651	96.31
590.861	81.31
591.071	73.31
591.281	92.31
591.49	89.31
591.7	91.31
591.91	97.31
592.119	91.31
592.329	91.31
592.539	108.31
592.748	105.31
592.958	85.31
593.167	85.31
593.377	106.31
593.587	100.31
593.796	75.31
594.006	87.31
594.215	80.31
594.424	76.31
594.634	80.31
594.843	80.31
595.053	75.31
595.262	84.31
595.472	89.31
595.681	98.31
595.89	87.31
596.1	70.31
596.309	84.31
596.518	102.31
596.727	86.31
596.937	80.31
597.146	83.31
597.355	91.31
597.564	82.31
597.774	82.31
597.983	92.31
598.192	77.31
598.401	84.31
598.61	70.31
598.819	69.31
599.028	81.31
599.237	86.31
599.446	80.31
599.655	95.31
599.864	100.31
600.073	94.31
600.282	92.31
600.491	96.31
600.7	93.31
600.909	98.31
601.118	93.31
601.327	94.31
601.536	91.31
601.745	93.31
601.953	77.31
602.162	84.31
602.371	76.31
602.58	83.31
602.789	84.31
602.997	92.31
603.206	101.31
603.415	83.31
603.623	85.31
603.832	91.31
604.041	78.31
604.249	84.31
604.458	98.31
604.666	85.31
604.875	84.31
605.084	80.31
605.292	83.31
605.501	91.31
605.709	79.31
605.918	85.31
606.126	99.31
606.334	86.31
606.543	82.31
606.751	84.31
606.96	90.31
607.168	91.31
607.376	83.31
607.585	76.31
607.793	81.31
608.001	82.31
608.21	85.31
608.418	83.31
608.626	78.31
608.834	81.31
609.043	86.31
609.251	87.31
609.459	87.31
609.667	85.31
609.875	83.31
610.083	92.31
610.291	84.31
610.499	82.31
610.707	83.31
610.916	75.31
611.124	86.31
611.332	88.31
611.54	79.31
611.748	83.31
611.955	83.31
612.163	97.31
612.371	88.31
612.579	87.31
612.787	80.31
612.995	85.31
613.203	103.31
613.411	93.31
613.618	99.31
613.826	68.31
614.034	82.31
614.242	78.31
614.449	99.31
614.657	93.31
614.865	94.31
615.072	79.31
615.28	99.31
615.488	74.31
615.695	93.31
615.903	108.31
616.111	85.31
616.318	97.31
616.526	106.31
616.733	72.31
616.941	104.31
617.148	87.31
617.356	90.31
617.563	87.31
617.771	87.31
617.978	76.31
618.185	91.31
618.393	76.31
618.6	78.31
618.807	90.31
619.015	90.31
619.222	76.31
619.429	84.31
619.637	94.31
619.844	83.31
620.051	83.31
620.258	80.31
620.466	94.31
620.673	84.31
620.88	77.31
621.087	94.31
621.294	82.31
621.501	85.31
621.708	83.31
621.915	107.31
622.122	86.31
622.329	90.31
622.536	86.31
622.743	81.31
622.95	90.31
623.157	75.31
623.364	92.31
623.571	69.31
623.778	79.31
623.985	91.31
624.192	89.31
624.399	72.31
624.606	79.31
624.812	70.31
625.019	91.31
625.226	82.31
625.433	82.31
625.639	98.31
625.846	97.31
626.053	84.31
626.259	90.31
626.466	92.31
626.673	85.31
626.879	83.31
627.086	90.31
627.293	78.31
627.499	92.31
627.706	98.31
627.912	85.31
628.119	93.31
628.325	83.31
628.532	90.31
628.738	88.31
628.945	77.31
629.151	85.31
629.357	85.31
629.564	76.31
629.77	70.31
629.976	82.31
630.183	78.31
630.389	78.31
630.595	69.31
630.802	91.31
631.008	94.31
631.214	90.31
631.42	86.31
631.627	92.31
631.833	83.31
632.039	76.31
632.245	82.31
632.451	78.31
632.657	79.31
632.863	97.31
633.069	85.31
633.275	81.31
633.481	89.31
633.688	89.31
633.893	86.31
634.099	75.31
634.305	75.31
634.511	86.31
634.717	86.31
634.923	74.31
635.129	92.31
635.335	91.31
635.541	79.31
635.747	68.31
635.952	90.31
636.158	95.31
636.364	96.31
636.57	93.31
636.775	96.31
636.981	90.31
637.187	103.31
637.392	74.31
637.598	92.31
637.804	86.31
638.009	94.31
638.215	76.31
638.421	73.31
638.626	91.31
638.832	78.31
639.037	84.31
639.243	82.31
639.448	79.31
639.654	86.31
639.859	81.31
640.065	76.31
640.27	86.31
640.475	104.31
640.681	73.31
640.886	85.31
641.091	80.31
641.297	74.31
641.502	85.31
641.707	84.31
641.913	85.31
642.118	84.31
642.323	91.31
642.528	97.31
642.733	78.31
642.939	85.31
643.144	74.31
643.349	88.31
643.554	89.31
643.759	86.31
643.964	94.31
644.169	86.31
644.374	91.31
644.579	72.31
644.784	85.31
644.989	90.31
645.194	81.31
645.399	88.31
645.604	85.31
645.809	89.31
646.014	82.31
646.219	86.31
646.423	80.31
646.628	81.31
646.833	86.31
647.038	82.31
647.243	73.31
647.447	74.31
647.652	83.31
647.857	84.31
648.062	96.31
648.266	84.31
648.471	95.31
648.676	113.31
648.88	100.31
649.085	90.31
649.289	110.31
649.494	103.31
649.698	161.31
649.903	100.31
650.107	79.31
650.312	82.31
650.516	80.31
650.721	79.31
650.925	81.31
651.13	77.31
651.334	73.31
651.539	75.31
651.743	80.31
651.947	74.31
652.152	78.31
652.356	86.31
652.56	71.31
652.764	79.31
652.969	86.31
653.173	85.31
653.377	70.31
653.581	81.31
653.785	74.31
653.99	73.31
654.194	89.31
654.398	80.31
654.602	78.31
654.806	82.31
655.01	102.31
655.214	84.31
655.418	76.31
655.622	75.31
655.826	66.31
656.03	84.31
656.234	101.31
656.438	99.31
656.642	85.31
656.846	88.31
657.049	86.31
657.253	89.31
657.457	81.31
657.661	76.31
657.865	73.31
658.068	79.31
658.272	71.31
658.476	73.31
658.68	92.31
658.883	85.31
659.087	75.31
659.291	80.31
659.494	80.31
659.698	91.31
659.901	82.31
660.105	86.31
660.309	88.31
660.512	76.31
660.716	85.31
660.919	86.31
661.123	88.31
661.326	94.31
661.53	83.31
661.733	85.31
661.936	73.31
662.14	81.31
662.343	79.31
662.546	80.31
662.75	76.31
662.953	74.31
663.156	77.31
663.36	81.31
663.563	84.31
663.766	69.31
663.969	81.31
664.173	84.31
664.376	87.31
664.579	80.31
664.782	78.31
664.985	91.31
665.188	78.31
665.391	73.31
665.594	76.31
665.797	88.31
666	82.31
666.203	68.31
666.406	84.31
666.609	73.31
666.812	89.31
667.015	85.31
667.218	83.31
667.421	77.31
667.624	77.31
667.827	80.31
668.03	76.31
668.232	82.31
668.435	84.31
668.638	79.31
668.841	96.31
669.043	91.31
669.246	75.31
669.449	81.31
669.651	80.31
669.854	75.31
670.057	80.31
670.259	78.31
670.462	80.31
670.665	87.31
670.867	86.31
671.07	93.31
671.272	83.31
671.475	85.31
671.677	90.31
671.88	94.31
672.082	75.31
672.284	75.31
672.487	94.31
672.689	75.31
672.892	84.31
