Data from Uncirc_2008_H10_HRD10591_00055.txt Node
Date: Wed Jan 03 10:15:41 EST 2024
User: Yrep
Spectrometer: HR+D1059
Trigger mode: 1
Integration Time (sec): 1.000000E-1
Scans to average: 1
Electric dark correction enabled: true
Nonlinearity correction enabled: false
Boxcar width: 0
XAxis mode: Wavelengths
Number of Pixels in Spectrum: 2048
>>>>>Begin Spectral Data<<<<<
223.165	-27.56
223.4	-27.56
223.635	-27.56
223.869	-21.56
224.104	-14.56
224.338	-7.56
224.573	-12.56
224.808	-17.56
225.042	-12.56
225.277	1.44
225.511	-3.56
225.746	5.44
225.98	0.44
226.215	18.44
226.449	17.44
226.683	14.44
226.918	26.44
227.152	33.44
227.387	35.44
227.621	46.44
227.856	50.44
228.09	48.44
228.324	52.44
228.559	54.44
228.793	65.44
229.027	59.44
229.262	79.44
229.496	72.44
229.73	80.44
229.964	69.44
230.199	77.44
230.433	87.44
230.667	76.44
230.901	78.44
231.136	87.44
231.37	81.44
231.604	93.44
231.838	90.44
232.072	94.44
232.306	82.44
232.541	83.44
232.775	85.44
233.009	76.44
233.243	88.44
233.477	83.44
233.711	82.44
233.945	90.44
234.179	89.44
234.413	89.44
234.647	84.44
234.881	81.44
235.115	80.44
235.349	85.44
235.583	81.44
235.817	85.44
236.051	78.44
236.285	86.44
236.519	80.44
236.753	76.44
236.987	83.44
237.221	82.44
237.455	80.44
237.689	78.44
237.922	83.44
238.156	85.44
238.39	65.44
238.624	92.44
238.858	89.44
239.091	73.44
239.325	88.44
239.559	94.44
239.793	78.44
240.027	80.44
240.26	83.44
240.494	81.44
240.728	81.44
240.961	67.44
241.195	91.44
241.429	78.44
241.662	80.44
241.896	85.44
242.13	76.44
242.363	87.44
242.597	74.44
242.83	84.44
243.064	81.44
243.298	90.44
243.531	86.44
243.765	79.44
243.998	61.44
244.232	81.44
244.465	78.44
244.699	81.44
244.932	89.44
245.166	81.44
245.399	64.44
245.633	84.44
245.866	83.44
246.099	78.44
246.333	77.44
246.566	76.44
246.8	79.44
247.033	82.44
247.266	64.44
247.5	89.44
247.733	77.44
247.966	70.44
248.2	71.44
248.433	96.44
248.666	74.44
248.899	92.44
249.133	98.44
249.366	92.44
249.599	89.44
249.832	84.44
250.066	74.44
250.299	65.44
250.532	84.44
250.765	78.44
250.998	93.44
251.231	93.44
251.465	96.44
251.698	72.44
251.931	90.44
252.164	95.44
252.397	79.44
252.63	61.44
252.863	83.44
253.096	85.44
253.329	80.44
253.562	74.44
253.795	81.44
254.028	82.44
254.261	81.44
254.494	84.44
254.727	85.44
254.96	90.44
255.193	88.44
255.426	90.44
255.659	75.44
255.892	76.44
256.124	77.44
256.357	86.44
256.59	69.44
256.823	92.44
257.056	88.44
257.289	74.44
257.521	86.44
257.754	83.44
257.987	76.44
258.22	87.44
258.452	67.44
258.685	88.44
258.918	98.44
259.151	79.44
259.383	66.44
259.616	92.44
259.849	85.44
260.081	101.44
260.314	90.44
260.547	86.44
260.779	86.44
261.012	84.44
261.244	75.44
261.477	85.44
261.71	93.44
261.942	113.44
262.175	109.44
262.407	92.44
262.64	85.44
262.872	88.44
263.105	79.44
263.337	82.44
263.57	71.44
263.802	80.44
264.035	90.44
264.267	94.44
264.499	98.44
264.732	90.44
264.964	78.44
265.197	87.44
265.429	92.44
265.661	77.44
265.894	90.44
266.126	95.44
266.358	79.44
266.591	81.44
266.823	79.44
267.055	77.44
267.287	82.44
267.52	88.44
267.752	97.44
267.984	75.44
268.216	84.44
268.448	103.44
268.681	93.44
268.913	84.44
269.145	101.44
269.377	77.44
269.609	83.44
269.841	99.44
270.073	84.44
270.306	82.44
270.538	94.44
270.77	97.44
271.002	85.44
271.234	80.44
271.466	90.44
271.698	78.44
271.93	98.44
272.162	98.44
272.394	99.44
272.626	103.44
272.858	91.44
273.09	91.44
273.322	90.44
273.553	73.44
273.785	89.44
274.017	101.44
274.249	84.44
274.481	94.44
274.713	89.44
274.945	80.44
275.176	99.44
275.408	88.44
275.64	101.44
275.872	94.44
276.104	84.44
276.335	90.44
276.567	99.44
276.799	119.44
277.031	111.44
277.262	105.44
277.494	99.44
277.726	90.44
277.957	66.44
278.189	90.44
278.421	85.44
278.652	84.44
278.884	94.44
279.115	107.44
279.347	76.44
279.579	81.44
279.81	89.44
280.042	93.44
280.273	96.44
280.505	98.44
280.736	85.44
280.968	80.44
281.199	87.44
281.431	86.44
281.662	79.44
281.894	80.44
282.125	100.44
282.356	104.44
282.588	126.44
282.819	106.44
283.051	84.44
283.282	99.44
283.513	78.44
283.745	69.44
283.976	90.44
284.207	88.44
284.439	83.44
284.67	81.44
284.901	87.44
285.132	90.44
285.364	91.44
285.595	84.44
285.826	99.44
286.057	86.44
286.288	92.44
286.52	101.44
286.751	91.44
286.982	93.44
287.213	87.44
287.444	97.44
287.675	85.44
287.906	80.44
288.138	92.44
288.369	83.44
288.6	95.44
288.831	104.44
289.062	89.44
289.293	78.44
289.524	81.44
289.755	83.44
289.986	97.44
290.217	78.44
290.448	90.44
290.679	97.44
290.91	99.44
291.141	100.44
291.371	80.44
291.602	89.44
291.833	92.44
292.064	103.44
292.295	98.44
292.526	86.44
292.757	83.44
292.987	81.44
293.218	96.44
293.449	83.44
293.68	83.44
293.91	97.44
294.141	93.44
294.372	96.44
294.603	95.44
294.833	84.44
295.064	100.44
295.295	88.44
295.525	93.44
295.756	101.44
295.987	119.44
296.217	131.44
296.448	122.44
296.679	97.44
296.909	108.44
297.14	96.44
297.37	95.44
297.601	99.44
297.831	110.44
298.062	101.44
298.292	93.44
298.523	80.44
298.753	94.44
298.984	91.44
299.214	87.44
299.445	95.44
299.675	85.44
299.905	90.44
300.136	94.44
300.366	107.44
300.597	85.44
300.827	102.44
301.057	83.44
301.288	92.44
301.518	105.44
301.748	102.44
301.979	101.44
302.209	80.44
302.439	88.44
302.669	84.44
302.9	103.44
303.13	84.44
303.36	105.44
303.59	82.44
303.82	107.44
304.051	98.44
304.281	88.44
304.511	82.44
304.741	98.44
304.971	89.44
305.201	98.44
305.431	86.44
305.661	77.44
305.891	98.44
306.121	89.44
306.352	108.44
306.582	98.44
306.812	80.44
307.042	87.44
307.272	101.44
307.502	101.44
307.731	96.44
307.961	87.44
308.191	100.44
308.421	88.44
308.651	81.44
308.881	100.44
309.111	100.44
309.341	97.44
309.571	94.44
309.8	101.44
310.03	79.44
310.26	94.44
310.49	78.44
310.72	82.44
310.949	99.44
311.179	100.44
311.409	87.44
311.639	97.44
311.868	83.44
312.098	92.44
312.328	95.44
312.557	83.44
312.787	100.44
313.017	98.44
313.246	89.44
313.476	93.44
313.706	85.44
313.935	82.44
314.165	110.44
314.394	102.44
314.624	93.44
314.853	85.44
315.083	100.44
315.312	98.44
315.542	98.44
315.771	97.44
316.001	94.44
316.23	95.44
316.46	102.44
316.689	92.44
316.919	93.44
317.148	111.44
317.377	106.44
317.607	81.44
317.836	100.44
318.065	90.44
318.295	98.44
318.524	99.44
318.753	98.44
318.983	91.44
319.212	97.44
319.441	108.44
319.67	100.44
319.9	103.44
320.129	97.44
320.358	101.44
320.587	98.44
320.816	95.44
321.046	93.44
321.275	101.44
321.504	91.44
321.733	77.44
321.962	99.44
322.191	93.44
322.42	106.44
322.649	109.44
322.878	109.44
323.108	111.44
323.337	129.44
323.566	121.44
323.795	141.44
324.024	199.44
324.253	369.44
324.482	743.44
324.71	1458.44
324.939	1954.44
325.168	736.44
325.397	232.44
325.626	149.44
325.855	120.44
326.084	130.44
326.313	138.44
326.542	164.44
326.77	210.44
326.999	438.44
327.228	860.44
327.457	1537.44
327.686	1200.44
327.914	336.44
328.143	179.44
328.372	132.44
328.6	113.44
328.829	124.44
329.058	114.44
329.287	134.44
329.515	113.44
329.744	103.44
329.972	99.44
330.201	93.44
330.43	104.44
330.658	120.44
330.887	121.44
331.115	97.44
331.344	96.44
331.572	93.44
331.801	102.44
332.03	98.44
332.258	100.44
332.486	85.44
332.715	95.44
332.943	105.44
333.172	100.44
333.4	100.44
333.629	109.44
333.857	95.44
334.085	110.44
334.314	86.44
334.542	109.44
334.771	105.44
334.999	102.44
335.227	99.44
335.455	98.44
335.684	97.44
335.912	103.44
336.14	87.44
336.369	81.44
336.597	107.44
336.825	95.44
337.053	104.44
337.281	79.44
337.51	90.44
337.738	100.44
337.966	97.44
338.194	94.44
338.422	99.44
338.65	93.44
338.878	109.44
339.106	99.44
339.334	109.44
339.562	91.44
339.79	99.44
340.018	87.44
340.246	104.44
340.474	108.44
340.702	106.44
340.93	92.44
341.158	109.44
341.386	82.44
341.614	104.44
341.842	107.44
342.07	99.44
342.298	103.44
342.526	102.44
342.754	97.44
342.981	94.44
343.209	83.44
343.437	99.44
343.665	103.44
343.893	87.44
344.12	83.44
344.348	88.44
344.576	109.44
344.804	96.44
345.031	92.44
345.259	101.44
345.487	101.44
345.714	101.44
345.942	101.44
346.17	91.44
346.397	100.44
346.625	98.44
346.853	103.44
347.08	82.44
347.308	100.44
347.535	92.44
347.763	88.44
347.99	113.44
348.218	102.44
348.445	108.44
348.673	86.44
348.9	102.44
349.128	103.44
349.355	110.44
349.583	93.44
349.81	99.44
350.037	109.44
350.265	99.44
350.492	93.44
350.72	107.44
350.947	105.44
351.174	102.44
351.402	92.44
351.629	98.44
351.856	99.44
352.083	101.44
352.311	110.44
352.538	93.44
352.765	99.44
352.992	108.44
353.22	107.44
353.447	106.44
353.674	115.44
353.901	91.44
354.128	98.44
354.355	104.44
354.583	93.44
354.81	98.44
355.037	101.44
355.264	102.44
355.491	97.44
355.718	95.44
355.945	105.44
356.172	101.44
356.399	102.44
356.626	99.44
356.853	89.44
357.08	92.44
357.307	84.44
357.534	92.44
357.761	104.44
357.988	95.44
358.215	92.44
358.441	101.44
358.668	90.44
358.895	86.44
359.122	82.44
359.349	84.44
359.576	83.44
359.802	108.44
360.029	107.44
360.256	112.44
360.483	106.44
360.709	92.44
360.936	103.44
361.163	116.44
361.39	85.44
361.616	85.44
361.843	99.44
362.07	88.44
362.296	98.44
362.523	97.44
362.749	113.44
362.976	93.44
363.203	91.44
363.429	90.44
363.656	107.44
363.882	96.44
364.109	96.44
364.335	81.44
364.562	97.44
364.788	101.44
365.015	81.44
365.241	105.44
365.468	106.44
365.694	111.44
365.92	90.44
366.147	99.44
366.373	88.44
366.599	95.44
366.826	91.44
367.052	93.44
367.278	81.44
367.505	101.44
367.731	101.44
367.957	102.44
368.184	103.44
368.41	81.44
368.636	110.44
368.862	113.44
369.089	98.44
369.315	93.44
369.541	83.44
369.767	79.44
369.993	100.44
370.219	81.44
370.445	98.44
370.672	84.44
370.898	87.44
371.124	91.44
371.35	103.44
371.576	100.44
371.802	99.44
372.028	95.44
372.254	74.44
372.48	87.44
372.706	83.44
372.932	106.44
373.158	98.44
373.384	92.44
373.61	99.44
373.835	96.44
374.061	105.44
374.287	107.44
374.513	88.44
374.739	93.44
374.965	84.44
375.191	81.44
375.416	97.44
375.642	96.44
375.868	90.44
376.094	94.44
376.319	95.44
376.545	106.44
376.771	92.44
376.997	102.44
377.222	95.44
377.448	93.44
377.674	90.44
377.899	106.44
378.125	107.44
378.35	98.44
378.576	96.44
378.802	92.44
379.027	96.44
379.253	109.44
379.478	106.44
379.704	82.44
379.929	97.44
380.155	105.44
380.38	93.44
380.606	89.44
380.831	99.44
381.057	84.44
381.282	104.44
381.507	95.44
381.733	105.44
381.958	103.44
382.184	102.44
382.409	96.44
382.634	100.44
382.86	102.44
383.085	91.44
383.31	95.44
383.535	94.44
383.761	106.44
383.986	86.44
384.211	106.44
384.436	93.44
384.662	105.44
384.887	96.44
385.112	105.44
385.337	118.44
385.562	104.44
385.787	96.44
386.013	102.44
386.238	114.44
386.463	94.44
386.688	108.44
386.913	113.44
387.138	114.44
387.363	107.44
387.588	106.44
387.813	99.44
388.038	105.44
388.263	119.44
388.488	107.44
388.713	95.44
388.938	97.44
389.163	103.44
389.387	92.44
389.612	88.44
389.837	99.44
390.062	84.44
390.287	86.44
390.512	102.44
390.736	104.44
390.961	89.44
391.186	76.44
391.411	96.44
391.636	90.44
391.86	85.44
392.085	83.44
392.31	83.44
392.534	78.44
392.759	93.44
392.984	91.44
393.208	94.44
393.433	88.44
393.658	86.44
393.882	81.44
394.107	81.44
394.331	84.44
394.556	82.44
394.78	83.44
395.005	88.44
395.229	85.44
395.454	88.44
395.678	81.44
395.903	79.44
396.127	76.44
396.352	87.44
396.576	78.44
396.801	92.44
397.025	81.44
397.249	101.44
397.474	76.44
397.698	94.44
397.922	87.44
398.147	86.44
398.371	87.44
398.595	79.44
398.82	98.44
399.044	77.44
399.268	92.44
399.492	105.44
399.717	98.44
399.941	100.44
400.165	93.44
400.389	98.44
400.613	98.44
400.837	90.44
401.062	90.44
401.286	83.44
401.51	79.44
401.734	89.44
401.958	109.44
402.182	120.44
402.406	151.44
402.63	113.44
402.854	77.44
403.078	92.44
403.302	91.44
403.526	87.44
403.75	87.44
403.974	101.44
404.198	100.44
404.422	90.44
404.645	84.44
404.869	101.44
405.093	95.44
405.317	93.44
405.541	86.44
405.765	84.44
405.988	113.44
406.212	158.44
406.436	197.44
406.66	138.44
406.883	83.44
407.107	90.44
407.331	92.44
407.555	104.44
407.778	88.44
408.002	102.44
408.226	104.44
408.449	90.44
408.673	88.44
408.896	83.44
409.12	89.44
409.344	82.44
409.567	95.44
409.791	86.44
410.014	102.44
410.238	93.44
410.461	100.44
410.685	92.44
410.908	97.44
411.132	109.44
411.355	83.44
411.578	99.44
411.802	86.44
412.025	87.44
412.249	90.44
412.472	100.44
412.695	98.44
412.919	81.44
413.142	78.44
413.365	77.44
413.589	95.44
413.812	103.44
414.035	93.44
414.258	92.44
414.482	98.44
414.705	95.44
414.928	90.44
415.151	93.44
415.374	97.44
415.597	108.44
415.821	86.44
416.044	93.44
416.267	100.44
416.49	94.44
416.713	99.44
416.936	97.44
417.159	69.44
417.382	103.44
417.605	97.44
417.828	88.44
418.051	98.44
418.274	94.44
418.497	104.44
418.72	87.44
418.943	86.44
419.166	95.44
419.389	88.44
419.611	96.44
419.834	94.44
420.057	90.44
420.28	89.44
420.503	83.44
420.726	87.44
420.948	83.44
421.171	102.44
421.394	89.44
421.617	100.44
421.839	90.44
422.062	94.44
422.285	98.44
422.507	99.44
422.73	98.44
422.953	102.44
423.175	98.44
423.398	71.44
423.621	93.44
423.843	86.44
424.066	98.44
424.288	86.44
424.511	95.44
424.733	84.44
424.956	101.44
425.178	117.44
425.401	95.44
425.623	97.44
425.846	80.44
426.068	91.44
426.291	96.44
426.513	90.44
426.735	102.44
426.958	92.44
427.18	109.44
427.402	148.44
427.625	136.44
427.847	113.44
428.069	102.44
428.292	92.44
428.514	93.44
428.736	86.44
428.958	91.44
429.181	95.44
429.403	95.44
429.625	80.44
429.847	96.44
430.069	97.44
430.292	82.44
430.514	82.44
430.736	88.44
430.958	79.44
431.18	82.44
431.402	79.44
431.624	96.44
431.846	102.44
432.068	94.44
432.29	103.44
432.512	82.44
432.734	77.44
432.956	88.44
433.178	90.44
433.4	104.44
433.622	92.44
433.844	93.44
434.066	87.44
434.287	99.44
434.509	89.44
434.731	88.44
434.953	83.44
435.175	86.44
435.397	99.44
435.618	99.44
435.84	100.44
436.062	117.44
436.284	102.44
436.505	104.44
436.727	115.44
436.949	104.44
437.17	103.44
437.392	89.44
437.614	108.44
437.835	108.44
438.057	123.44
438.278	104.44
438.5	120.44
438.721	117.44
438.943	93.44
439.165	89.44
439.386	85.44
439.608	88.44
439.829	99.44
440.05	115.44
440.272	122.44
440.493	86.44
440.715	103.44
440.936	98.44
441.158	86.44
441.379	83.44
441.6	98.44
441.822	97.44
442.043	92.44
442.264	111.44
442.486	97.44
442.707	98.44
442.928	111.44
443.149	126.44
443.371	123.44
443.592	93.44
443.813	105.44
444.034	110.44
444.255	107.44
444.476	98.44
444.698	96.44
444.919	90.44
445.14	133.44
445.361	138.44
445.582	108.44
445.803	132.44
446.024	135.44
446.245	117.44
446.466	99.44
446.687	73.44
446.908	93.44
447.129	94.44
447.35	79.44
447.571	92.44
447.792	89.44
448.013	108.44
448.234	117.44
448.455	96.44
448.675	109.44
448.896	113.44
449.117	110.44
449.338	106.44
449.559	122.44
449.779	140.44
450	84.44
450.221	76.44
450.442	86.44
450.662	83.44
450.883	94.44
451.104	106.44
451.324	113.44
451.545	81.44
451.766	99.44
451.986	80.44
452.207	106.44
452.428	85.44
452.648	104.44
452.869	113.44
453.089	124.44
453.31	109.44
453.53	97.44
453.751	97.44
453.971	113.44
454.192	121.44
454.412	90.44
454.633	80.44
454.853	94.44
455.073	84.44
455.294	96.44
455.514	88.44
455.734	98.44
455.955	91.44
456.175	92.44
456.395	88.44
456.616	92.44
456.836	80.44
457.056	100.44
457.276	96.44
457.497	90.44
457.717	76.44
457.937	83.44
458.157	92.44
458.377	106.44
458.598	96.44
458.818	140.44
459.038	141.44
459.258	115.44
459.478	82.44
459.698	89.44
459.918	92.44
460.138	86.44
460.358	84.44
460.578	91.44
460.798	102.44
461.018	85.44
461.238	77.44
461.458	89.44
461.678	88.44
461.898	82.44
462.118	94.44
462.338	96.44
462.558	95.44
462.777	76.44
462.997	82.44
463.217	76.44
463.437	92.44
463.657	83.44
463.876	103.44
464.096	100.44
464.316	90.44
464.536	91.44
464.755	92.44
464.975	110.44
465.195	144.44
465.414	144.44
465.634	93.44
465.854	85.44
466.073	91.44
466.293	89.44
466.512	73.44
466.732	92.44
466.951	89.44
467.171	101.44
467.391	91.44
467.61	108.44
467.829	106.44
468.049	93.44
468.268	86.44
468.488	86.44
468.707	101.44
468.927	90.44
469.146	82.44
469.365	77.44
469.585	97.44
469.804	99.44
470.023	104.44
470.243	101.44
470.462	93.44
470.681	101.44
470.901	92.44
471.12	97.44
471.339	88.44
471.558	67.44
471.777	86.44
471.997	107.44
472.216	88.44
472.435	80.44
472.654	93.44
472.873	107.44
473.092	86.44
473.311	69.44
473.53	93.44
473.749	91.44
473.968	104.44
474.187	112.44
474.406	90.44
474.625	87.44
474.844	90.44
475.063	86.44
475.282	82.44
475.501	88.44
475.72	98.44
475.939	88.44
476.158	107.44
476.377	76.44
476.596	88.44
476.814	75.44
477.033	90.44
477.252	86.44
477.471	98.44
477.69	92.44
477.908	72.44
478.127	83.44
478.346	82.44
478.564	100.44
478.783	96.44
479.002	85.44
479.22	83.44
479.439	102.44
479.658	108.44
479.876	92.44
480.095	101.44
480.313	86.44
480.532	81.44
480.751	85.44
480.969	79.44
481.188	91.44
481.406	93.44
481.624	101.44
481.843	88.44
482.061	95.44
482.28	86.44
482.498	91.44
482.717	80.44
482.935	81.44
483.153	94.44
483.372	83.44
483.59	100.44
483.808	85.44
484.027	94.44
484.245	104.44
484.463	101.44
484.681	115.44
484.9	93.44
485.118	96.44
485.336	82.44
485.554	94.44
485.772	89.44
485.99	103.44
486.209	101.44
486.427	106.44
486.645	102.44
486.863	110.44
487.081	99.44
487.299	100.44
487.517	90.44
487.735	89.44
487.953	92.44
488.171	106.44
488.389	109.44
488.607	94.44
488.825	89.44
489.043	104.44
489.261	102.44
489.479	92.44
489.696	89.44
489.914	83.44
490.132	94.44
490.35	82.44
490.568	94.44
490.786	94.44
491.003	83.44
491.221	99.44
491.439	90.44
491.657	97.44
491.874	100.44
492.092	89.44
492.31	105.44
492.527	85.44
492.745	92.44
492.963	76.44
493.18	89.44
493.398	92.44
493.615	104.44
493.833	89.44
494.05	102.44
494.268	100.44
494.485	83.44
494.703	84.44
494.92	71.44
495.138	96.44
495.355	94.44
495.573	84.44
495.79	90.44
496.008	101.44
496.225	95.44
496.442	89.44
496.66	93.44
496.877	90.44
497.094	96.44
497.312	105.44
497.529	88.44
497.746	100.44
497.963	92.44
498.181	92.44
498.398	97.44
498.615	112.44
498.832	101.44
499.049	87.44
499.267	99.44
499.484	80.44
499.701	101.44
499.918	93.44
500.135	109.44
500.352	99.44
500.569	97.44
500.786	81.44
501.003	82.44
501.22	102.44
501.437	90.44
501.654	105.44
501.871	114.44
502.088	107.44
502.305	89.44
502.522	94.44
502.739	102.44
502.956	86.44
503.172	93.44
503.389	101.44
503.606	103.44
503.823	90.44
504.04	86.44
504.256	85.44
504.473	86.44
504.69	102.44
504.907	94.44
505.123	94.44
505.34	97.44
505.557	84.44
505.773	91.44
505.99	95.44
506.207	98.44
506.423	99.44
506.64	80.44
506.856	85.44
507.073	107.44
507.289	101.44
507.506	90.44
507.722	116.44
507.939	98.44
508.155	90.44
508.372	86.44
508.588	96.44
508.805	114.44
509.021	107.44
509.238	98.44
509.454	117.44
509.67	96.44
509.887	114.44
510.103	126.44
510.319	200.44
510.536	685.44
510.752	2196.44
510.968	611.44
511.184	163.44
511.401	126.44
511.617	105.44
511.833	105.44
512.049	94.44
512.265	99.44
512.481	91.44
512.698	82.44
512.914	97.44
513.13	89.44
513.346	94.44
513.562	101.44
513.778	98.44
513.994	107.44
514.21	107.44
514.426	113.44
514.642	116.44
514.858	132.44
515.074	162.44
515.29	419.44
515.506	1286.44
515.721	487.44
515.937	156.44
516.153	119.44
516.369	115.44
516.585	101.44
516.801	98.44
517.016	89.44
517.232	86.44
517.448	89.44
517.664	104.44
517.879	89.44
518.095	88.44
518.311	96.44
518.527	84.44
518.742	88.44
518.958	98.44
519.173	96.44
519.389	93.44
519.605	93.44
519.82	83.44
520.036	104.44
520.251	130.44
520.467	99.44
520.682	105.44
520.898	107.44
521.113	108.44
521.329	144.44
521.544	191.44
521.76	504.44
521.975	2111.44
522.19	1304.44
522.406	290.44
522.621	116.44
522.836	105.44
523.052	106.44
523.267	102.44
523.482	85.44
523.698	115.44
523.913	111.44
524.128	98.44
524.343	107.44
524.559	103.44
524.774	100.44
524.989	86.44
525.204	102.44
525.419	97.44
525.634	98.44
525.849	88.44
526.064	98.44
526.28	85.44
526.495	98.44
526.71	85.44
526.925	98.44
527.14	95.44
527.355	102.44
527.57	94.44
527.785	86.44
527.999	89.44
528.214	93.44
528.429	89.44
528.644	89.44
528.859	95.44
529.074	87.44
529.289	113.44
529.503	165.44
529.718	93.44
529.933	92.44
530.148	74.44
530.363	77.44
530.577	103.44
530.792	93.44
531.007	94.44
531.221	93.44
531.436	98.44
531.651	82.44
531.865	104.44
532.08	94.44
532.295	90.44
532.509	94.44
532.724	108.44
532.938	93.44
533.153	109.44
533.367	104.44
533.582	97.44
533.796	93.44
534.011	94.44
534.225	90.44
534.44	93.44
534.654	91.44
534.868	101.44
535.083	85.44
535.297	93.44
535.511	116.44
535.726	112.44
535.94	104.44
536.154	88.44
536.369	107.44
536.583	95.44
536.797	82.44
537.011	96.44
537.225	97.44
537.44	85.44
537.654	105.44
537.868	91.44
538.082	85.44
538.296	88.44
538.51	82.44
538.724	97.44
538.938	88.44
539.153	102.44
539.367	103.44
539.581	79.44
539.795	81.44
540.009	97.44
540.222	99.44
540.436	91.44
540.65	85.44
540.864	95.44
541.078	98.44
541.292	92.44
541.506	86.44
541.72	92.44
541.934	75.44
542.147	99.44
542.361	79.44
542.575	86.44
542.789	89.44
543.002	99.44
543.216	94.44
543.43	97.44
543.644	96.44
543.857	90.44
544.071	84.44
544.285	89.44
544.498	86.44
544.712	88.44
544.925	84.44
545.139	80.44
545.352	79.44
545.566	95.44
545.779	88.44
545.993	88.44
546.206	77.44
546.42	84.44
546.633	89.44
546.847	83.44
547.06	97.44
547.274	95.44
547.487	82.44
547.7	108.44
547.914	99.44
548.127	97.44
548.34	94.44
548.554	85.44
548.767	75.44
548.98	75.44
549.193	90.44
549.407	89.44
549.62	86.44
549.833	113.44
550.046	104.44
550.259	85.44
550.473	92.44
550.686	92.44
550.899	90.44
551.112	78.44
551.325	86.44
551.538	82.44
551.751	78.44
551.964	85.44
552.177	97.44
552.39	103.44
552.603	93.44
552.816	88.44
553.029	99.44
553.242	97.44
553.455	104.44
553.667	113.44
553.88	107.44
554.093	82.44
554.306	98.44
554.519	97.44
554.732	90.44
554.944	88.44
555.157	70.44
555.37	91.44
555.583	92.44
555.795	101.44
556.008	86.44
556.221	95.44
556.433	102.44
556.646	92.44
556.859	92.44
557.071	96.44
557.284	90.44
557.496	103.44
557.709	90.44
557.921	82.44
558.134	90.44
558.346	104.44
558.559	102.44
558.771	94.44
558.984	86.44
559.196	81.44
559.409	87.44
559.621	109.44
559.833	94.44
560.046	96.44
560.258	78.44
560.47	83.44
560.683	77.44
560.895	86.44
561.107	96.44
561.32	95.44
561.532	88.44
561.744	93.44
561.956	92.44
562.168	86.44
562.381	93.44
562.593	98.44
562.805	85.44
563.017	100.44
563.229	93.44
563.441	100.44
563.653	88.44
563.865	79.44
564.077	98.44
564.289	100.44
564.501	86.44
564.713	93.44
564.925	99.44
565.137	96.44
565.349	83.44
565.561	81.44
565.773	88.44
565.985	95.44
566.197	88.44
566.408	90.44
566.62	98.44
566.832	86.44
567.044	89.44
567.255	98.44
567.467	101.44
567.679	81.44
567.891	78.44
568.102	95.44
568.314	96.44
568.526	84.44
568.737	96.44
568.949	85.44
569.161	98.44
569.372	92.44
569.584	99.44
569.795	99.44
570.007	109.44
570.218	242.44
570.43	142.44
570.641	85.44
570.853	91.44
571.064	94.44
571.276	80.44
571.487	74.44
571.698	96.44
571.91	93.44
572.121	90.44
572.333	91.44
572.544	88.44
572.755	88.44
572.966	82.44
573.178	92.44
573.389	101.44
573.6	92.44
573.811	87.44
574.023	91.44
574.234	94.44
574.445	88.44
574.656	96.44
574.867	90.44
575.078	101.44
575.289	99.44
575.501	83.44
575.712	91.44
575.923	95.44
576.134	86.44
576.345	83.44
576.556	101.44
576.767	93.44
576.978	94.44
577.188	91.44
577.399	91.44
577.61	94.44
577.821	101.44
578.032	117.44
578.243	283.44
578.454	720.44
578.665	214.44
578.875	115.44
579.086	94.44
579.297	90.44
579.508	84.44
579.718	96.44
579.929	86.44
580.14	86.44
580.35	99.44
580.561	93.44
580.772	87.44
580.982	97.44
581.193	83.44
581.403	86.44
581.614	96.44
581.825	95.44
582.035	86.44
582.246	95.44
582.456	91.44
582.667	90.44
582.877	94.44
583.087	102.44
583.298	104.44
583.508	84.44
583.719	94.44
583.929	91.44
584.139	74.44
584.35	82.44
584.56	107.44
584.77	91.44
584.981	93.44
585.191	82.44
585.401	96.44
585.611	93.44
585.821	89.44
586.032	96.44
586.242	98.44
586.452	96.44
586.662	89.44
586.872	84.44
587.082	97.44
587.292	93.44
587.502	83.44
587.713	79.44
587.923	86.44
588.133	92.44
588.343	98.44
588.553	81.44
588.762	89.44
588.972	96.44
589.182	88.44
589.392	83.44
589.602	82.44
589.812	88.44
590.022	97.44
590.232	89.44
590.441	101.44
590.651	83.44
590.861	101.44
591.071	77.44
591.281	86.44
591.49	93.44
591.7	87.44
591.91	98.44
592.119	86.44
592.329	98.44
592.539	96.44
592.748	100.44
592.958	84.44
593.167	97.44
593.377	80.44
593.587	95.44
593.796	91.44
594.006	93.44
594.215	105.44
594.424	75.44
594.634	84.44
594.843	92.44
595.053	93.44
595.262	92.44
595.472	96.44
595.681	95.44
595.89	84.44
596.1	78.44
596.309	90.44
596.518	96.44
596.727	83.44
596.937	96.44
597.146	90.44
597.355	96.44
597.564	76.44
597.774	84.44
597.983	78.44
598.192	85.44
598.401	85.44
598.61	96.44
598.819	98.44
599.028	93.44
599.237	80.44
599.446	107.44
599.655	81.44
599.864	85.44
600.073	99.44
600.282	80.44
600.491	92.44
600.7	99.44
600.909	91.44
601.118	107.44
601.327	99.44
601.536	74.44
601.745	86.44
601.953	91.44
602.162	97.44
602.371	87.44
602.58	83.44
602.789	92.44
602.997	93.44
603.206	100.44
603.415	82.44
603.623	89.44
603.832	99.44
604.041	91.44
604.249	86.44
604.458	86.44
604.666	89.44
604.875	93.44
605.084	78.44
605.292	102.44
605.501	90.44
605.709	85.44
605.918	81.44
606.126	85.44
606.334	97.44
606.543	88.44
606.751	98.44
606.96	82.44
607.168	87.44
607.376	88.44
607.585	98.44
607.793	90.44
608.001	86.44
608.21	92.44
608.418	95.44
608.626	85.44
608.834	80.44
609.043	93.44
609.251	92.44
609.459	81.44
609.667	91.44
609.875	98.44
610.083	97.44
610.291	101.44
610.499	85.44
610.707	95.44
610.916	86.44
611.124	88.44
611.332	80.44
611.54	75.44
611.748	97.44
611.955	97.44
612.163	74.44
612.371	85.44
612.579	93.44
612.787	103.44
612.995	92.44
613.203	91.44
613.411	95.44
613.618	77.44
613.826	81.44
614.034	84.44
614.242	98.44
614.449	107.44
614.657	88.44
614.865	84.44
615.072	82.44
615.28	91.44
615.488	80.44
615.695	95.44
615.903	79.44
616.111	99.44
616.318	103.44
616.526	102.44
616.733	90.44
616.941	85.44
617.148	96.44
617.356	90.44
617.563	89.44
617.771	84.44
617.978	85.44
618.185	76.44
618.393	96.44
618.6	92.44
618.807	83.44
619.015	82.44
619.222	71.44
619.429	82.44
619.637	92.44
619.844	80.44
620.051	77.44
620.258	96.44
620.466	89.44
620.673	96.44
620.88	74.44
621.087	82.44
621.294	82.44
621.501	97.44
621.708	73.44
621.915	86.44
622.122	87.44
622.329	91.44
622.536	94.44
622.743	92.44
622.95	83.44
623.157	109.44
623.364	86.44
623.571	85.44
623.778	89.44
623.985	94.44
624.192	90.44
624.399	78.44
624.606	90.44
624.812	83.44
625.019	74.44
625.226	94.44
625.433	90.44
625.639	93.44
625.846	102.44
626.053	83.44
626.259	87.44
626.466	87.44
626.673	97.44
626.879	74.44
627.086	91.44
627.293	95.44
627.499	85.44
627.706	98.44
627.912	81.44
628.119	80.44
628.325	110.44
628.532	79.44
628.738	99.44
628.945	88.44
629.151	85.44
629.357	84.44
629.564	81.44
629.77	90.44
629.976	82.44
630.183	86.44
630.389	88.44
630.595	90.44
630.802	86.44
631.008	88.44
631.214	93.44
631.42	85.44
631.627	89.44
631.833	68.44
632.039	96.44
632.245	84.44
632.451	92.44
632.657	89.44
632.863	84.44
633.069	83.44
633.275	82.44
633.481	78.44
633.688	85.44
633.893	93.44
634.099	80.44
634.305	98.44
634.511	87.44
634.717	96.44
634.923	82.44
635.129	89.44
635.335	85.44
635.541	92.44
635.747	88.44
635.952	86.44
636.158	82.44
636.364	94.44
636.57	90.44
636.775	92.44
636.981	78.44
637.187	89.44
637.392	99.44
637.598	93.44
637.804	86.44
638.009	90.44
638.215	89.44
638.421	89.44
638.626	71.44
638.832	93.44
639.037	78.44
639.243	84.44
639.448	78.44
639.654	93.44
639.859	70.44
640.065	98.44
640.27	103.44
640.475	83.44
640.681	85.44
640.886	88.44
641.091	83.44
641.297	85.44
641.502	93.44
641.707	72.44
641.913	95.44
642.118	95.44
642.323	90.44
642.528	82.44
642.733	90.44
642.939	97.44
643.144	77.44
643.349	92.44
643.554	89.44
643.759	82.44
643.964	90.44
644.169	85.44
644.374	87.44
644.579	98.44
644.784	79.44
644.989	86.44
645.194	84.44
645.399	112.44
645.604	89.44
645.809	86.44
646.014	83.44
646.219	89.44
646.423	77.44
646.628	94.44
646.833	84.44
647.038	77.44
647.243	85.44
647.447	83.44
647.652	81.44
647.857	89.44
648.062	76.44
648.266	93.44
648.471	94.44
648.676	109.44
648.88	80.44
649.085	110.44
649.289	91.44
649.494	98.44
649.698	146.44
649.903	106.44
650.107	101.44
650.312	94.44
650.516	91.44
650.721	91.44
650.925	98.44
651.13	84.44
651.334	80.44
651.539	86.44
651.743	85.44
651.947	92.44
652.152	96.44
652.356	95.44
652.56	86.44
652.764	86.44
652.969	83.44
653.173	90.44
653.377	84.44
653.581	87.44
653.785	75.44
653.99	99.44
654.194	90.44
654.398	96.44
654.602	80.44
654.806	79.44
655.01	107.44
655.214	104.44
655.418	97.44
655.622	100.44
655.826	90.44
656.03	88.44
656.234	89.44
656.438	89.44
656.642	98.44
656.846	81.44
657.049	97.44
657.253	87.44
657.457	81.44
657.661	91.44
657.865	81.44
658.068	92.44
658.272	86.44
658.476	77.44
658.68	90.44
658.883	65.44
659.087	93.44
659.291	90.44
659.494	98.44
659.698	80.44
659.901	85.44
660.105	96.44
660.309	98.44
660.512	95.44
660.716	90.44
660.919	79.44
661.123	88.44
661.326	83.44
661.53	88.44
661.733	88.44
661.936	89.44
662.14	87.44
662.343	73.44
662.546	84.44
662.75	96.44
662.953	76.44
663.156	88.44
663.36	80.44
663.563	89.44
663.766	75.44
663.969	86.44
664.173	74.44
664.376	100.44
664.579	74.44
664.782	90.44
664.985	83.44
665.188	78.44
665.391	78.44
665.594	90.44
665.797	85.44
666	80.44
666.203	80.44
666.406	86.44
666.609	93.44
666.812	95.44
667.015	85.44
667.218	82.44
667.421	97.44
667.624	77.44
667.827	86.44
668.03	91.44
668.232	78.44
668.435	81.44
668.638	85.44
668.841	91.44
669.043	76.44
669.246	77.44
669.449	78.44
669.651	73.44
669.854	83.44
670.057	79.44
670.259	90.44
670.462	93.44
670.665	84.44
670.867	90.44
671.07	82.44
671.272	95.44
671.475	91.44
671.677	77.44
671.88	86.44
672.082	78.44
672.284	81.44
672.487	90.44
672.689	91.44
672.892	80.44
