Data from SampD_HRD10591_00061.txt Node
Date: Mon Jan 19 11:47:59 EST 2026
User: Yrep
Spectrometer: HR+D1059
Trigger mode: 0
Integration Time (sec): 3.443000E-1
Scans to average: 1
Electric dark correction enabled: true
Nonlinearity correction enabled: false
Boxcar width: 0
XAxis mode: Wavelengths
Number of Pixels in Spectrum: 2048
>>>>>Begin Spectral Data<<<<<
223.165	-23.75
223.4	-23.75
223.635	-23.75
223.869	-39.75
224.104	-31.75
224.338	-15.75
224.573	-25.75
224.808	-10.75
225.042	3.25
225.277	-9.75
225.511	-9.75
225.746	28.25
225.98	14.25
226.215	1.25
226.449	29.25
226.683	22.25
226.918	32.25
227.152	36.25
227.387	39.25
227.621	32.25
227.856	48.25
228.09	40.25
228.324	58.25
228.559	60.25
228.793	77.25
229.027	75.25
229.262	62.25
229.496	72.25
229.73	69.25
229.964	74.25
230.199	69.25
230.433	62.25
230.667	82.25
230.901	84.25
231.136	80.25
231.37	66.25
231.604	95.25
231.838	93.25
232.072	73.25
232.306	91.25
232.541	75.25
232.775	85.25
233.009	84.25
233.243	90.25
233.477	85.25
233.711	80.25
233.945	84.25
234.179	87.25
234.413	82.25
234.647	82.25
234.881	68.25
235.115	78.25
235.349	88.25
235.583	92.25
235.817	81.25
236.051	68.25
236.285	74.25
236.519	72.25
236.753	94.25
236.987	83.25
237.221	99.25
237.455	80.25
237.689	73.25
237.922	90.25
238.156	87.25
238.39	91.25
238.624	92.25
238.858	75.25
239.091	80.25
239.325	78.25
239.559	79.25
239.793	75.25
240.027	90.25
240.26	67.25
240.494	92.25
240.728	72.25
240.961	76.25
241.195	76.25
241.429	96.25
241.662	66.25
241.896	87.25
242.13	98.25
242.363	91.25
242.597	72.25
242.83	79.25
243.064	87.25
243.298	94.25
243.531	83.25
243.765	78.25
243.998	97.25
244.232	107.25
244.465	75.25
244.699	79.25
244.932	96.25
245.166	71.25
245.399	92.25
245.633	96.25
245.866	83.25
246.099	84.25
246.333	80.25
246.566	95.25
246.8	80.25
247.033	79.25
247.266	82.25
247.5	80.25
247.733	102.25
247.966	72.25
248.2	83.25
248.433	102.25
248.666	85.25
248.899	88.25
249.133	89.25
249.366	110.25
249.599	98.25
249.832	82.25
250.066	112.25
250.299	94.25
250.532	94.25
250.765	97.25
250.998	79.25
251.231	87.25
251.465	83.25
251.698	80.25
251.931	87.25
252.164	111.25
252.397	84.25
252.63	97.25
252.863	84.25
253.096	93.25
253.329	93.25
253.562	98.25
253.795	85.25
254.028	91.25
254.261	86.25
254.494	90.25
254.727	92.25
254.96	98.25
255.193	83.25
255.426	94.25
255.659	86.25
255.892	104.25
256.124	99.25
256.357	74.25
256.59	97.25
256.823	86.25
257.056	74.25
257.289	102.25
257.521	98.25
257.754	102.25
257.987	94.25
258.22	104.25
258.452	104.25
258.685	102.25
258.918	105.25
259.151	102.25
259.383	102.25
259.616	96.25
259.849	88.25
260.081	92.25
260.314	96.25
260.547	92.25
260.779	92.25
261.012	99.25
261.244	105.25
261.477	111.25
261.71	93.25
261.942	91.25
262.175	99.25
262.407	107.25
262.64	89.25
262.872	120.25
263.105	85.25
263.337	108.25
263.57	86.25
263.802	97.25
264.035	116.25
264.267	103.25
264.499	102.25
264.732	104.25
264.964	102.25
265.197	120.25
265.429	102.25
265.661	99.25
265.894	103.25
266.126	99.25
266.358	98.25
266.591	107.25
266.823	103.25
267.055	111.25
267.287	95.25
267.52	88.25
267.752	117.25
267.984	94.25
268.216	86.25
268.448	95.25
268.681	110.25
268.913	112.25
269.145	110.25
269.377	104.25
269.609	94.25
269.841	99.25
270.073	94.25
270.306	105.25
270.538	101.25
270.77	100.25
271.002	101.25
271.234	95.25
271.466	108.25
271.698	106.25
271.93	106.25
272.162	83.25
272.394	105.25
272.626	93.25
272.858	104.25
273.09	102.25
273.322	111.25
273.553	106.25
273.785	110.25
274.017	90.25
274.249	84.25
274.481	100.25
274.713	100.25
274.945	98.25
275.176	103.25
275.408	118.25
275.64	91.25
275.872	111.25
276.104	107.25
276.335	98.25
276.567	108.25
276.799	111.25
277.031	94.25
277.262	107.25
277.494	118.25
277.726	114.25
277.957	117.25
278.189	118.25
278.421	98.25
278.652	98.25
278.884	108.25
279.115	108.25
279.347	95.25
279.579	120.25
279.81	107.25
280.042	107.25
280.273	112.25
280.505	109.25
280.736	105.25
280.968	119.25
281.199	113.25
281.431	109.25
281.662	114.25
281.894	112.25
282.125	113.25
282.356	111.25
282.588	108.25
282.819	125.25
283.051	112.25
283.282	108.25
283.513	125.25
283.745	109.25
283.976	105.25
284.207	117.25
284.439	124.25
284.67	121.25
284.901	118.25
285.132	110.25
285.364	102.25
285.595	127.25
285.826	114.25
286.057	124.25
286.288	120.25
286.52	120.25
286.751	105.25
286.982	114.25
287.213	103.25
287.444	120.25
287.675	117.25
287.906	107.25
288.138	115.25
288.369	117.25
288.6	129.25
288.831	113.25
289.062	110.25
289.293	118.25
289.524	118.25
289.755	120.25
289.986	114.25
290.217	130.25
290.448	120.25
290.679	119.25
290.91	121.25
291.141	113.25
291.371	122.25
291.602	125.25
291.833	122.25
292.064	98.25
292.295	111.25
292.526	119.25
292.757	116.25
292.987	115.25
293.218	114.25
293.449	119.25
293.68	104.25
293.91	114.25
294.141	115.25
294.372	102.25
294.603	125.25
294.833	119.25
295.064	114.25
295.295	126.25
295.525	124.25
295.756	131.25
295.987	130.25
296.217	121.25
296.448	111.25
296.679	110.25
296.909	121.25
297.14	130.25
297.37	118.25
297.601	116.25
297.831	103.25
298.062	112.25
298.292	108.25
298.523	130.25
298.753	122.25
298.984	126.25
299.214	122.25
299.445	118.25
299.675	128.25
299.905	134.25
300.136	113.25
300.366	113.25
300.597	127.25
300.827	117.25
301.057	132.25
301.288	114.25
301.518	125.25
301.748	120.25
301.979	160.25
302.209	132.25
302.439	118.25
302.669	132.25
302.9	127.25
303.13	125.25
303.36	143.25
303.59	129.25
303.82	116.25
304.051	118.25
304.281	130.25
304.511	132.25
304.741	110.25
304.971	125.25
305.201	152.25
305.431	121.25
305.661	128.25
305.891	133.25
306.121	117.25
306.352	128.25
306.582	126.25
306.812	130.25
307.042	121.25
307.272	122.25
307.502	129.25
307.731	112.25
307.961	120.25
308.191	107.25
308.421	116.25
308.651	130.25
308.881	116.25
309.111	111.25
309.341	114.25
309.571	123.25
309.8	125.25
310.03	108.25
310.26	130.25
310.49	118.25
310.72	123.25
310.949	116.25
311.179	113.25
311.409	127.25
311.639	111.25
311.868	113.25
312.098	128.25
312.328	120.25
312.557	125.25
312.787	118.25
313.017	130.25
313.246	128.25
313.476	132.25
313.706	126.25
313.935	131.25
314.165	129.25
314.394	131.25
314.624	115.25
314.853	133.25
315.083	118.25
315.312	127.25
315.542	129.25
315.771	125.25
316.001	127.25
316.23	130.25
316.46	138.25
316.689	125.25
316.919	134.25
317.148	128.25
317.377	143.25
317.607	131.25
317.836	136.25
318.065	123.25
318.295	114.25
318.524	131.25
318.753	135.25
318.983	118.25
319.212	145.25
319.441	124.25
319.67	131.25
319.9	126.25
320.129	121.25
320.358	128.25
320.587	121.25
320.816	129.25
321.046	146.25
321.275	148.25
321.504	115.25
321.733	133.25
321.962	118.25
322.191	114.25
322.42	123.25
322.649	128.25
322.878	133.25
323.108	128.25
323.337	139.25
323.566	111.25
323.795	130.25
324.024	143.25
324.253	131.25
324.482	132.25
324.71	125.25
324.939	128.25
325.168	134.25
325.397	130.25
325.626	141.25
325.855	147.25
326.084	123.25
326.313	136.25
326.542	133.25
326.77	140.25
326.999	116.25
327.228	131.25
327.457	123.25
327.686	138.25
327.914	149.25
328.143	140.25
328.372	122.25
328.6	126.25
328.829	148.25
329.058	121.25
329.287	121.25
329.515	116.25
329.744	132.25
329.972	138.25
330.201	134.25
330.43	147.25
330.658	128.25
330.887	139.25
331.115	153.25
331.344	139.25
331.572	138.25
331.801	136.25
332.03	153.25
332.258	145.25
332.486	134.25
332.715	154.25
332.943	149.25
333.172	158.25
333.4	163.25
333.629	149.25
333.857	144.25
334.085	164.25
334.314	172.25
334.542	164.25
334.771	148.25
334.999	157.25
335.227	143.25
335.455	155.25
335.684	148.25
335.912	150.25
336.14	154.25
336.369	158.25
336.597	127.25
336.825	162.25
337.053	145.25
337.281	152.25
337.51	132.25
337.738	148.25
337.966	122.25
338.194	124.25
338.422	143.25
338.65	142.25
338.878	137.25
339.106	149.25
339.334	164.25
339.562	132.25
339.79	134.25
340.018	134.25
340.246	113.25
340.474	126.25
340.702	152.25
340.93	136.25
341.158	139.25
341.386	116.25
341.614	129.25
341.842	146.25
342.07	137.25
342.298	139.25
342.526	142.25
342.754	144.25
342.981	140.25
343.209	130.25
343.437	183.25
343.665	141.25
343.893	137.25
344.12	152.25
344.348	139.25
344.576	138.25
344.804	122.25
345.031	136.25
345.259	150.25
345.487	134.25
345.714	136.25
345.942	138.25
346.17	131.25
346.397	137.25
346.625	142.25
346.853	134.25
347.08	118.25
347.308	136.25
347.535	125.25
347.763	130.25
347.99	143.25
348.218	147.25
348.445	130.25
348.673	136.25
348.9	132.25
349.128	127.25
349.355	145.25
349.583	134.25
349.81	134.25
350.037	131.25
350.265	137.25
350.492	123.25
350.72	129.25
350.947	133.25
351.174	146.25
351.402	142.25
351.629	132.25
351.856	127.25
352.083	129.25
352.311	131.25
352.538	115.25
352.765	129.25
352.992	141.25
353.22	136.25
353.447	134.25
353.674	138.25
353.901	127.25
354.128	119.25
354.355	122.25
354.583	120.25
354.81	131.25
355.037	128.25
355.264	138.25
355.491	130.25
355.718	126.25
355.945	118.25
356.172	138.25
356.399	132.25
356.626	115.25
356.853	136.25
357.08	148.25
357.307	117.25
357.534	149.25
357.761	145.25
357.988	126.25
358.215	135.25
358.441	120.25
358.668	125.25
358.895	112.25
359.122	117.25
359.349	123.25
359.576	118.25
359.802	131.25
360.029	128.25
360.256	124.25
360.483	146.25
360.709	135.25
360.936	148.25
361.163	138.25
361.39	145.25
361.616	124.25
361.843	136.25
362.07	134.25
362.296	137.25
362.523	124.25
362.749	122.25
362.976	118.25
363.203	139.25
363.429	132.25
363.656	124.25
363.882	133.25
364.109	130.25
364.335	123.25
364.562	137.25
364.788	142.25
365.015	142.25
365.241	131.25
365.468	149.25
365.694	126.25
365.92	127.25
366.147	126.25
366.373	133.25
366.599	161.25
366.826	134.25
367.052	127.25
367.278	139.25
367.505	136.25
367.731	162.25
367.957	154.25
368.184	129.25
368.41	153.25
368.636	131.25
368.862	154.25
369.089	142.25
369.315	130.25
369.541	142.25
369.767	152.25
369.993	133.25
370.219	146.25
370.445	156.25
370.672	147.25
370.898	159.25
371.124	136.25
371.35	142.25
371.576	149.25
371.802	154.25
372.028	159.25
372.254	154.25
372.48	170.25
372.706	144.25
372.932	145.25
373.158	149.25
373.384	151.25
373.61	155.25
373.835	153.25
374.061	161.25
374.287	165.25
374.513	161.25
374.739	146.25
374.965	159.25
375.191	158.25
375.416	156.25
375.642	151.25
375.868	150.25
376.094	155.25
376.319	155.25
376.545	146.25
376.771	161.25
376.997	143.25
377.222	147.25
377.448	148.25
377.674	154.25
377.899	173.25
378.125	169.25
378.35	160.25
378.576	142.25
378.802	163.25
379.027	164.25
379.253	158.25
379.478	167.25
379.704	157.25
379.929	161.25
380.155	156.25
380.38	158.25
380.606	160.25
380.831	160.25
381.057	192.25
381.282	172.25
381.507	171.25
381.733	176.25
381.958	176.25
382.184	172.25
382.409	182.25
382.634	191.25
382.86	167.25
383.085	184.25
383.31	165.25
383.535	172.25
383.761	165.25
383.986	181.25
384.211	189.25
384.436	181.25
384.662	181.25
384.887	163.25
385.112	180.25
385.337	182.25
385.562	184.25
385.787	196.25
386.013	186.25
386.238	191.25
386.463	202.25
386.688	210.25
386.913	184.25
387.138	183.25
387.363	183.25
387.588	200.25
387.813	198.25
388.038	174.25
388.263	194.25
388.488	190.25
388.713	198.25
388.938	179.25
389.163	204.25
389.387	186.25
389.612	184.25
389.837	185.25
390.062	187.25
390.287	178.25
390.512	208.25
390.736	183.25
390.961	206.25
391.186	213.25
391.411	209.25
391.636	216.25
391.86	199.25
392.085	213.25
392.31	192.25
392.534	213.25
392.759	208.25
392.984	207.25
393.208	213.25
393.433	198.25
393.658	206.25
393.882	203.25
394.107	215.25
394.331	208.25
394.556	210.25
394.78	214.25
395.005	219.25
395.229	220.25
395.454	227.25
395.678	221.25
395.903	223.25
396.127	231.25
396.352	218.25
396.576	194.25
396.801	209.25
397.025	223.25
397.249	203.25
397.474	230.25
397.698	236.25
397.922	223.25
398.147	219.25
398.371	224.25
398.595	217.25
398.82	247.25
399.044	241.25
399.268	266.25
399.492	290.25
399.717	314.25
399.941	275.25
400.165	266.25
400.389	253.25
400.613	253.25
400.837	260.25
401.062	246.25
401.286	227.25
401.51	238.25
401.734	246.25
401.958	243.25
402.182	242.25
402.406	237.25
402.63	252.25
402.854	247.25
403.078	254.25
403.302	247.25
403.526	261.25
403.75	249.25
403.974	261.25
404.198	262.25
404.422	258.25
404.645	272.25
404.869	280.25
405.093	261.25
405.317	254.25
405.541	263.25
405.765	252.25
405.988	262.25
406.212	265.25
406.436	245.25
406.66	257.25
406.883	269.25
407.107	278.25
407.331	271.25
407.555	291.25
407.778	298.25
408.002	295.25
408.226	275.25
408.449	264.25
408.673	267.25
408.896	270.25
409.12	262.25
409.344	288.25
409.567	267.25
409.791	266.25
410.014	284.25
410.238	270.25
410.461	274.25
410.685	273.25
410.908	259.25
411.132	278.25
411.355	259.25
411.578	266.25
411.802	274.25
412.025	267.25
412.249	264.25
412.472	260.25
412.695	264.25
412.919	251.25
413.142	272.25
413.365	242.25
413.589	273.25
413.812	276.25
414.035	283.25
414.258	262.25
414.482	258.25
414.705	271.25
414.928	269.25
415.151	282.25
415.374	260.25
415.597	242.25
415.821	254.25
416.044	281.25
416.267	266.25
416.49	276.25
416.713	251.25
416.936	264.25
417.159	272.25
417.382	259.25
417.605	257.25
417.828	270.25
418.051	290.25
418.274	280.25
418.497	283.25
418.72	294.25
418.943	272.25
419.166	295.25
419.389	295.25
419.611	309.25
419.834	282.25
420.057	287.25
420.28	309.25
420.503	278.25
420.726	276.25
420.948	268.25
421.171	292.25
421.394	280.25
421.617	295.25
421.839	287.25
422.062	280.25
422.285	270.25
422.507	251.25
422.73	279.25
422.953	263.25
423.175	265.25
423.398	296.25
423.621	291.25
423.843	287.25
424.066	295.25
424.288	287.25
424.511	288.25
424.733	302.25
424.956	292.25
425.178	275.25
425.401	290.25
425.623	279.25
425.846	262.25
426.068	270.25
426.291	267.25
426.513	265.25
426.735	274.25
426.958	264.25
427.18	266.25
427.402	268.25
427.625	264.25
427.847	251.25
428.069	267.25
428.292	262.25
428.514	264.25
428.736	254.25
428.958	258.25
429.181	267.25
429.403	262.25
429.625	262.25
429.847	263.25
430.069	249.25
430.292	271.25
430.514	252.25
430.736	254.25
430.958	265.25
431.18	256.25
431.402	234.25
431.624	242.25
431.846	204.25
432.068	191.25
432.29	198.25
432.512	215.25
432.734	255.25
432.956	261.25
433.178	282.25
433.4	276.25
433.622	287.25
433.844	265.25
434.066	257.25
434.287	219.25
434.509	193.25
434.731	215.25
434.953	247.25
435.175	249.25
435.397	270.25
435.618	240.25
435.84	224.25
436.062	240.25
436.284	250.25
436.505	244.25
436.727	272.25
436.949	256.25
437.17	253.25
437.392	257.25
437.614	222.25
437.835	200.25
438.057	211.25
438.278	222.25
438.5	251.25
438.721	265.25
438.943	277.25
439.165	274.25
439.386	280.25
439.608	283.25
439.829	293.25
440.05	299.25
440.272	314.25
440.493	279.25
440.715	299.25
440.936	297.25
441.158	304.25
441.379	312.25
441.6	319.25
441.822	308.25
442.043	323.25
442.264	303.25
442.486	278.25
442.707	283.25
442.928	303.25
443.149	273.25
443.371	288.25
443.592	299.25
443.813	308.25
444.034	295.25
444.255	320.25
444.476	300.25
444.698	314.25
444.919	326.25
445.14	564.25
445.361	434.25
445.582	287.25
445.803	300.25
446.024	308.25
446.245	323.25
446.466	313.25
446.687	307.25
446.908	330.25
447.129	294.25
447.35	302.25
447.571	309.25
447.792	288.25
448.013	299.25
448.234	306.25
448.455	296.25
448.675	280.25
448.896	275.25
449.117	287.25
449.338	272.25
449.559	266.25
449.779	274.25
450	267.25
450.221	268.25
450.442	265.25
450.662	275.25
450.883	249.25
451.104	259.25
451.324	243.25
451.545	255.25
451.766	264.25
451.986	250.25
452.207	257.25
452.428	249.25
452.648	251.25
452.869	222.25
453.089	226.25
453.31	203.25
453.53	202.25
453.751	186.25
453.971	199.25
454.192	178.25
454.412	213.25
454.633	216.25
454.853	231.25
455.073	252.25
455.294	258.25
455.514	227.25
455.734	238.25
455.955	236.25
456.175	215.25
456.395	218.25
456.616	209.25
456.836	211.25
457.056	217.25
457.276	194.25
457.497	191.25
457.717	180.25
457.937	199.25
458.157	212.25
458.377	200.25
458.598	174.25
458.818	186.25
459.038	160.25
459.258	195.25
459.478	179.25
459.698	176.25
459.918	193.25
460.138	213.25
460.358	242.25
460.578	243.25
460.798	243.25
461.018	250.25
461.238	239.25
461.458	254.25
461.678	240.25
461.898	240.25
462.118	236.25
462.338	246.25
462.558	260.25
462.777	262.25
462.997	265.25
463.217	272.25
463.437	254.25
463.657	255.25
463.876	241.25
464.096	256.25
464.316	248.25
464.536	260.25
464.755	264.25
464.975	253.25
465.195	240.25
465.414	246.25
465.634	238.25
465.854	235.25
466.073	237.25
466.293	238.25
466.512	252.25
466.732	256.25
466.951	267.25
467.171	260.25
467.391	266.25
467.61	263.25
467.829	250.25
468.049	255.25
468.268	255.25
468.488	254.25
468.707	268.25
468.927	276.25
469.146	243.25
469.365	265.25
469.585	258.25
469.804	283.25
470.023	290.25
470.243	294.25
470.462	306.25
470.681	304.25
470.901	277.25
471.12	280.25
471.339	294.25
471.558	281.25
471.777	250.25
471.997	246.25
472.216	234.25
472.435	214.25
472.654	217.25
472.873	219.25
473.092	214.25
473.311	235.25
473.53	233.25
473.749	228.25
473.968	254.25
474.187	228.25
474.406	217.25
474.625	250.25
474.844	252.25
475.063	239.25
475.282	229.25
475.501	214.25
475.72	245.25
475.939	221.25
476.158	224.25
476.377	239.25
476.596	227.25
476.814	218.25
477.033	209.25
477.252	219.25
477.471	255.25
477.69	246.25
477.908	266.25
478.127	262.25
478.346	261.25
478.564	279.25
478.783	276.25
479.002	271.25
479.22	281.25
479.439	272.25
479.658	266.25
479.876	229.25
480.095	226.25
480.313	248.25
480.532	234.25
480.751	233.25
480.969	190.25
481.188	185.25
481.406	190.25
481.624	179.25
481.843	165.25
482.061	195.25
482.28	207.25
482.498	219.25
482.717	209.25
482.935	244.25
483.153	283.25
483.372	279.25
483.59	281.25
483.808	267.25
484.027	253.25
484.245	259.25
484.463	276.25
484.681	311.25
484.9	264.25
485.118	283.25
485.336	233.25
485.554	218.25
485.772	192.25
485.99	202.25
486.209	219.25
486.427	226.25
486.645	258.25
486.863	284.25
487.081	266.25
487.299	263.25
487.517	276.25
487.735	342.25
487.953	350.25
488.171	354.25
488.389	326.25
488.607	280.25
488.825	255.25
489.043	239.25
489.261	267.25
489.479	270.25
489.696	276.25
489.914	267.25
490.132	300.25
490.35	338.25
490.568	343.25
490.786	359.25
491.003	361.25
491.221	337.25
491.439	385.25
491.657	381.25
491.874	433.25
492.092	458.25
492.31	509.25
492.527	471.25
492.745	420.25
492.963	414.25
493.18	381.25
493.398	404.25
493.615	372.25
493.833	368.25
494.05	359.25
494.268	331.25
494.485	359.25
494.703	383.25
494.92	362.25
495.138	359.25
495.355	355.25
495.573	371.25
495.79	352.25
496.008	358.25
496.225	362.25
496.442	344.25
496.66	354.25
496.877	348.25
497.094	353.25
497.312	340.25
497.529	337.25
497.746	333.25
497.963	301.25
498.181	284.25
498.398	284.25
498.615	281.25
498.832	293.25
499.049	288.25
499.267	318.25
499.484	358.25
499.701	386.25
499.918	429.25
500.135	471.25
500.352	501.25
500.569	538.25
500.786	510.25
501.003	467.25
501.22	427.25
501.437	410.25
501.654	389.25
501.871	328.25
502.088	340.25
502.305	319.25
502.522	299.25
502.739	316.25
502.956	275.25
503.172	276.25
503.389	262.25
503.606	260.25
503.823	264.25
504.04	278.25
504.256	253.25
504.473	266.25
504.69	264.25
504.907	283.25
505.123	254.25
505.34	246.25
505.557	244.25
505.773	241.25
505.99	256.25
506.207	242.25
506.423	246.25
506.64	235.25
506.856	226.25
507.073	226.25
507.289	235.25
507.506	236.25
507.722	228.25
507.939	233.25
508.155	224.25
508.372	212.25
508.588	214.25
508.805	222.25
509.021	193.25
509.238	204.25
509.454	200.25
509.67	171.25
509.887	185.25
510.103	161.25
510.319	165.25
510.536	174.25
510.752	153.25
510.968	147.25
511.184	152.25
511.401	143.25
511.617	159.25
511.833	169.25
512.049	163.25
512.265	172.25
512.481	176.25
512.698	183.25
512.914	196.25
513.13	185.25
513.346	171.25
513.562	183.25
513.778	188.25
513.994	152.25
514.21	166.25
514.426	186.25
514.642	180.25
514.858	175.25
515.074	154.25
515.29	170.25
515.506	172.25
515.721	171.25
515.937	190.25
516.153	176.25
516.369	177.25
516.585	172.25
516.801	184.25
517.016	178.25
517.232	209.25
517.448	211.25
517.664	208.25
517.879	214.25
518.095	194.25
518.311	209.25
518.527	194.25
518.742	182.25
518.958	201.25
519.173	216.25
519.389	199.25
519.605	204.25
519.82	202.25
520.036	209.25
520.251	201.25
520.467	181.25
520.682	183.25
520.898	173.25
521.113	163.25
521.329	168.25
521.544	164.25
521.76	166.25
521.975	184.25
522.19	182.25
522.406	198.25
522.621	183.25
522.836	178.25
523.052	195.25
523.267	196.25
523.482	186.25
523.698	194.25
523.913	220.25
524.128	210.25
524.343	221.25
524.559	232.25
524.774	207.25
524.989	233.25
525.204	227.25
525.419	214.25
525.634	195.25
525.849	200.25
526.064	192.25
526.28	179.25
526.495	174.25
526.71	165.25
526.925	147.25
527.14	157.25
527.355	168.25
527.57	164.25
527.785	146.25
527.999	158.25
528.214	188.25
528.429	211.25
528.644	220.25
528.859	258.25
529.074	280.25
529.289	294.25
529.503	252.25
529.718	232.25
529.933	213.25
530.148	179.25
530.363	166.25
530.577	178.25
530.792	148.25
531.007	154.25
531.221	156.25
531.436	144.25
531.651	147.25
531.865	167.25
532.08	142.25
532.295	172.25
532.509	167.25
532.724	166.25
532.938	176.25
533.153	180.25
533.367	207.25
533.582	218.25
533.796	215.25
534.011	188.25
534.225	162.25
534.44	166.25
534.654	170.25
534.868	160.25
535.083	174.25
535.297	198.25
535.511	170.25
535.726	195.25
535.94	188.25
536.154	177.25
536.369	155.25
536.583	159.25
536.797	159.25
537.011	150.25
537.225	158.25
537.44	154.25
537.654	170.25
537.868	177.25
538.082	160.25
538.296	151.25
538.51	194.25
538.724	192.25
538.938	212.25
539.153	231.25
539.367	233.25
539.581	207.25
539.795	190.25
540.009	163.25
540.222	186.25
540.436	179.25
540.65	216.25
540.864	226.25
541.078	257.25
541.292	273.25
541.506	305.25
541.72	344.25
541.934	357.25
542.147	368.25
542.361	348.25
542.575	301.25
542.789	255.25
543.002	229.25
543.216	217.25
543.43	222.25
543.644	242.25
543.857	291.25
544.071	297.25
544.285	303.25
544.498	310.25
544.712	314.25
544.925	305.25
545.139	322.25
545.352	298.25
545.566	323.25
545.779	332.25
545.993	314.25
546.206	313.25
546.42	323.25
546.633	328.25
546.847	340.25
547.06	322.25
547.274	332.25
547.487	341.25
547.7	342.25
547.914	348.25
548.127	319.25
548.34	312.25
548.554	311.25
548.767	323.25
548.98	313.25
549.193	286.25
549.407	302.25
549.62	292.25
549.833	300.25
550.046	293.25
550.259	307.25
550.473	290.25
550.686	297.25
550.899	287.25
551.112	291.25
551.325	260.25
551.538	246.25
551.751	222.25
551.964	220.25
552.177	263.25
552.39	282.25
552.603	295.25
552.816	291.25
553.029	290.25
553.242	326.25
553.455	323.25
553.667	321.25
553.88	314.25
554.093	286.25
554.306	290.25
554.519	303.25
554.732	281.25
554.944	273.25
555.157	283.25
555.37	282.25
555.583	266.25
555.795	276.25
556.008	243.25
556.221	257.25
556.433	258.25
556.646	263.25
556.859	250.25
557.071	250.25
557.284	267.25
557.496	259.25
557.709	250.25
557.921	263.25
558.134	258.25
558.346	251.25
558.559	246.25
558.771	241.25
558.984	238.25
559.196	252.25
559.409	231.25
559.621	238.25
559.833	222.25
560.046	231.25
560.258	227.25
560.47	240.25
560.683	240.25
560.895	219.25
561.107	240.25
561.32	236.25
561.532	245.25
561.744	234.25
561.956	234.25
562.168	226.25
562.381	221.25
562.593	231.25
562.805	240.25
563.017	231.25
563.229	229.25
563.441	240.25
563.653	214.25
563.865	213.25
564.077	218.25
564.289	233.25
564.501	210.25
564.713	218.25
564.925	202.25
565.137	222.25
565.349	215.25
565.561	201.25
565.773	222.25
565.985	225.25
566.197	233.25
566.408	231.25
566.62	243.25
566.832	233.25
567.044	226.25
567.255	260.25
567.467	255.25
567.679	219.25
567.891	240.25
568.102	236.25
568.314	216.25
568.526	196.25
568.737	172.25
568.949	167.25
569.161	160.25
569.372	170.25
569.584	158.25
569.795	150.25
570.007	140.25
570.218	153.25
570.43	170.25
570.641	144.25
570.853	159.25
571.064	183.25
571.276	170.25
571.487	162.25
571.698	182.25
571.91	182.25
572.121	172.25
572.333	164.25
572.544	160.25
572.755	146.25
572.966	139.25
573.178	134.25
573.389	137.25
573.6	142.25
573.811	146.25
574.023	122.25
574.234	127.25
574.445	142.25
574.656	138.25
574.867	142.25
575.078	156.25
575.289	144.25
575.501	144.25
575.712	143.25
575.923	147.25
576.134	153.25
576.345	148.25
576.556	156.25
576.767	146.25
576.978	152.25
577.188	152.25
577.399	150.25
577.61	142.25
577.821	143.25
578.032	157.25
578.243	150.25
578.454	132.25
578.665	136.25
578.875	120.25
579.086	125.25
579.297	123.25
579.508	133.25
579.718	142.25
579.929	133.25
580.14	129.25
580.35	131.25
580.561	134.25
580.772	153.25
580.982	138.25
581.193	132.25
581.403	146.25
581.614	135.25
581.825	137.25
582.035	128.25
582.246	128.25
582.456	138.25
582.667	138.25
582.877	129.25
583.087	132.25
583.298	133.25
583.508	129.25
583.719	118.25
583.929	126.25
584.139	126.25
584.35	114.25
584.56	117.25
584.77	120.25
584.981	122.25
585.191	122.25
585.401	117.25
585.611	126.25
585.821	118.25
586.032	112.25
586.242	115.25
586.452	120.25
586.662	108.25
586.872	122.25
587.082	116.25
587.292	136.25
587.502	121.25
587.713	116.25
587.923	115.25
588.133	120.25
588.343	132.25
588.553	117.25
588.762	131.25
588.972	138.25
589.182	121.25
589.392	107.25
589.602	143.25
589.812	112.25
590.022	129.25
590.232	130.25
590.441	122.25
590.651	123.25
590.861	123.25
591.071	127.25
591.281	110.25
591.49	126.25
591.7	121.25
591.91	134.25
592.119	128.25
592.329	118.25
592.539	121.25
592.748	127.25
592.958	144.25
593.167	131.25
593.377	125.25
593.587	161.25
593.796	139.25
594.006	126.25
594.215	142.25
594.424	140.25
594.634	144.25
594.843	133.25
595.053	139.25
595.262	131.25
595.472	151.25
595.681	119.25
595.89	133.25
596.1	113.25
596.309	133.25
596.518	120.25
596.727	137.25
596.937	146.25
597.146	146.25
597.355	139.25
597.564	138.25
597.774	128.25
597.983	123.25
598.192	118.25
598.401	111.25
598.61	135.25
598.819	128.25
599.028	119.25
599.237	125.25
599.446	128.25
599.655	142.25
599.864	132.25
600.073	129.25
600.282	127.25
600.491	133.25
600.7	138.25
600.909	124.25
601.118	145.25
601.327	159.25
601.536	151.25
601.745	160.25
601.953	161.25
602.162	160.25
602.371	151.25
602.58	152.25
602.789	162.25
602.997	166.25
603.206	181.25
603.415	169.25
603.623	149.25
603.832	163.25
604.041	139.25
604.249	124.25
604.458	146.25
604.666	126.25
604.875	126.25
605.084	137.25
605.292	148.25
605.501	166.25
605.709	163.25
605.918	178.25
606.126	164.25
606.334	176.25
606.543	172.25
606.751	166.25
606.96	171.25
607.168	169.25
607.376	160.25
607.585	168.25
607.793	174.25
608.001	164.25
608.21	164.25
608.418	160.25
608.626	161.25
608.834	179.25
609.043	171.25
609.251	167.25
609.459	167.25
609.667	191.25
609.875	148.25
610.083	186.25
610.291	154.25
610.499	182.25
610.707	157.25
610.916	159.25
611.124	166.25
611.332	175.25
611.54	158.25
611.748	165.25
611.955	172.25
612.163	156.25
612.371	167.25
612.579	153.25
612.787	155.25
612.995	158.25
613.203	181.25
613.411	168.25
613.618	156.25
613.826	165.25
614.034	180.25
614.242	175.25
614.449	149.25
614.657	163.25
614.865	161.25
615.072	160.25
615.28	176.25
615.488	166.25
615.695	174.25
615.903	170.25
616.111	170.25
616.318	190.25
616.526	167.25
616.733	171.25
616.941	182.25
617.148	173.25
617.356	166.25
617.563	158.25
617.771	158.25
617.978	143.25
618.185	163.25
618.393	151.25
618.6	169.25
618.807	162.25
619.015	164.25
619.222	177.25
619.429	150.25
619.637	135.25
619.844	148.25
620.051	142.25
620.258	162.25
620.466	161.25
620.673	154.25
620.88	148.25
621.087	161.25
621.294	150.25
621.501	148.25
621.708	161.25
621.915	151.25
622.122	152.25
622.329	167.25
622.536	164.25
622.743	158.25
622.95	147.25
623.157	131.25
623.364	155.25
623.571	164.25
623.778	141.25
623.985	159.25
624.192	170.25
624.399	165.25
624.606	170.25
624.812	151.25
625.019	139.25
625.226	134.25
625.433	163.25
625.639	134.25
625.846	149.25
626.053	123.25
626.259	121.25
626.466	126.25
626.673	110.25
626.879	115.25
627.086	135.25
627.293	134.25
627.499	149.25
627.706	154.25
627.912	159.25
628.119	139.25
628.325	166.25
628.532	140.25
628.738	143.25
628.945	134.25
629.151	145.25
629.357	134.25
629.564	135.25
629.77	143.25
629.976	144.25
630.183	135.25
630.389	133.25
630.595	130.25
630.802	141.25
631.008	138.25
631.214	116.25
631.42	132.25
631.627	146.25
631.833	126.25
632.039	142.25
632.245	115.25
632.451	136.25
632.657	137.25
632.863	133.25
633.069	136.25
633.275	142.25
633.481	126.25
633.688	134.25
633.893	143.25
634.099	146.25
634.305	146.25
634.511	124.25
634.717	124.25
634.923	123.25
635.129	123.25
635.335	128.25
635.541	120.25
635.747	108.25
635.952	128.25
636.158	130.25
636.364	131.25
636.57	143.25
636.775	134.25
636.981	138.25
637.187	138.25
637.392	128.25
637.598	139.25
637.804	127.25
638.009	135.25
638.215	137.25
638.421	127.25
638.626	126.25
638.832	132.25
639.037	119.25
639.243	127.25
639.448	132.25
639.654	138.25
639.859	111.25
640.065	130.25
640.27	138.25
640.475	119.25
640.681	121.25
640.886	112.25
641.091	133.25
641.297	143.25
641.502	127.25
641.707	129.25
641.913	150.25
642.118	126.25
642.323	127.25
642.528	134.25
642.733	127.25
642.939	129.25
643.144	132.25
643.349	129.25
643.554	139.25
643.759	143.25
643.964	130.25
644.169	118.25
644.374	131.25
644.579	127.25
644.784	129.25
644.989	139.25
645.194	137.25
645.399	131.25
645.604	123.25
645.809	152.25
646.014	131.25
646.219	124.25
646.423	116.25
646.628	118.25
646.833	112.25
647.038	117.25
647.243	124.25
647.447	123.25
647.652	142.25
647.857	123.25
648.062	123.25
648.266	127.25
648.471	132.25
648.676	142.25
648.88	115.25
649.085	134.25
649.289	118.25
649.494	128.25
649.698	142.25
649.903	134.25
650.107	122.25
650.312	128.25
650.516	120.25
650.721	119.25
650.925	126.25
651.13	128.25
651.334	123.25
651.539	121.25
651.743	119.25
651.947	133.25
652.152	129.25
652.356	115.25
652.56	119.25
652.764	100.25
652.969	125.25
653.173	100.25
653.377	118.25
653.581	110.25
653.785	113.25
653.99	108.25
654.194	109.25
654.398	121.25
654.602	105.25
654.806	110.25
655.01	104.25
655.214	113.25
655.418	116.25
655.622	102.25
655.826	115.25
656.03	112.25
656.234	114.25
656.438	107.25
656.642	108.25
656.846	99.25
657.049	96.25
657.253	99.25
657.457	100.25
657.661	89.25
657.865	93.25
658.068	107.25
658.272	105.25
658.476	113.25
658.68	90.25
658.883	95.25
659.087	80.25
659.291	100.25
659.494	92.25
659.698	82.25
659.901	93.25
660.105	84.25
660.309	88.25
660.512	88.25
660.716	81.25
660.919	92.25
661.123	106.25
661.326	88.25
661.53	94.25
661.733	87.25
661.936	92.25
662.14	91.25
662.343	89.25
662.546	82.25
662.75	94.25
662.953	97.25
663.156	105.25
663.36	73.25
663.563	87.25
663.766	80.25
663.969	91.25
664.173	78.25
664.376	92.25
664.579	82.25
664.782	80.25
664.985	73.25
665.188	83.25
665.391	87.25
665.594	68.25
665.797	76.25
666	83.25
666.203	78.25
666.406	66.25
666.609	73.25
666.812	76.25
667.015	74.25
667.218	79.25
667.421	95.25
667.624	78.25
667.827	94.25
668.03	80.25
668.232	75.25
668.435	68.25
668.638	78.25
668.841	84.25
669.043	75.25
669.246	83.25
669.449	86.25
669.651	78.25
669.854	89.25
670.057	99.25
670.259	87.25
670.462	67.25
670.665	73.25
670.867	84.25
671.07	78.25
671.272	74.25
671.475	95.25
671.677	83.25
671.88	81.25
672.082	87.25
672.284	87.25
672.487	75.25
672.689	72.25
672.892	74.25
