Data from CBS_3_HRD10591_00024.txt Node
Date: Mon Jan 19 14:05:50 EST 2026
User: Yrep
Spectrometer: HR+D1059
Trigger mode: 1
Integration Time (sec): 1.000000E-1
Scans to average: 1
Electric dark correction enabled: true
Nonlinearity correction enabled: false
Boxcar width: 0
XAxis mode: Wavelengths
Number of Pixels in Spectrum: 2048
>>>>>Begin Spectral Data<<<<<
223.165	-14.56
223.4	-14.56
223.635	-14.56
223.869	-20.56
224.104	-19.56
224.338	-10.56
224.573	-14.56
224.808	-14.56
225.042	-13.56
225.277	2.44
225.511	-2.56
225.746	11.44
225.98	19.44
226.215	2.44
226.449	15.44
226.683	9.44
226.918	25.44
227.152	24.44
227.387	19.44
227.621	28.44
227.856	37.44
228.09	38.44
228.324	55.44
228.559	58.44
228.793	62.44
229.027	61.44
229.262	83.44
229.496	89.44
229.73	76.44
229.964	86.44
230.199	75.44
230.433	78.44
230.667	73.44
230.901	76.44
231.136	77.44
231.37	63.44
231.604	95.44
231.838	97.44
232.072	82.44
232.306	83.44
232.541	86.44
232.775	101.44
233.009	90.44
233.243	74.44
233.477	74.44
233.711	83.44
233.945	76.44
234.179	83.44
234.413	83.44
234.647	80.44
234.881	86.44
235.115	82.44
235.349	77.44
235.583	81.44
235.817	83.44
236.051	73.44
236.285	72.44
236.519	80.44
236.753	92.44
236.987	86.44
237.221	67.44
237.455	73.44
237.689	68.44
237.922	63.44
238.156	81.44
238.39	76.44
238.624	85.44
238.858	78.44
239.091	82.44
239.325	69.44
239.559	77.44
239.793	67.44
240.027	69.44
240.26	83.44
240.494	77.44
240.728	78.44
240.961	73.44
241.195	64.44
241.429	59.44
241.662	74.44
241.896	74.44
242.13	80.44
242.363	77.44
242.597	87.44
242.83	79.44
243.064	83.44
243.298	76.44
243.531	65.44
243.765	73.44
243.998	72.44
244.232	69.44
244.465	92.44
244.699	88.44
244.932	89.44
245.166	84.44
245.399	75.44
245.633	81.44
245.866	76.44
246.099	59.44
246.333	92.44
246.566	76.44
246.8	77.44
247.033	92.44
247.266	79.44
247.5	77.44
247.733	72.44
247.966	69.44
248.2	69.44
248.433	69.44
248.666	83.44
248.899	73.44
249.133	78.44
249.366	96.44
249.599	78.44
249.832	69.44
250.066	86.44
250.299	77.44
250.532	85.44
250.765	83.44
250.998	75.44
251.231	72.44
251.465	94.44
251.698	83.44
251.931	100.44
252.164	79.44
252.397	79.44
252.63	88.44
252.863	73.44
253.096	88.44
253.329	84.44
253.562	84.44
253.795	67.44
254.028	65.44
254.261	77.44
254.494	82.44
254.727	91.44
254.96	80.44
255.193	90.44
255.426	90.44
255.659	86.44
255.892	80.44
256.124	76.44
256.357	83.44
256.59	80.44
256.823	81.44
257.056	75.44
257.289	80.44
257.521	73.44
257.754	73.44
257.987	83.44
258.22	77.44
258.452	87.44
258.685	77.44
258.918	68.44
259.151	100.44
259.383	95.44
259.616	77.44
259.849	85.44
260.081	89.44
260.314	81.44
260.547	79.44
260.779	100.44
261.012	88.44
261.244	87.44
261.477	93.44
261.71	82.44
261.942	77.44
262.175	89.44
262.407	79.44
262.64	74.44
262.872	71.44
263.105	103.44
263.337	98.44
263.57	77.44
263.802	85.44
264.035	89.44
264.267	75.44
264.499	83.44
264.732	73.44
264.964	70.44
265.197	81.44
265.429	80.44
265.661	85.44
265.894	84.44
266.126	78.44
266.358	90.44
266.591	80.44
266.823	89.44
267.055	81.44
267.287	84.44
267.52	63.44
267.752	74.44
267.984	85.44
268.216	76.44
268.448	82.44
268.681	87.44
268.913	84.44
269.145	86.44
269.377	85.44
269.609	71.44
269.841	75.44
270.073	70.44
270.306	85.44
270.538	76.44
270.77	81.44
271.002	92.44
271.234	79.44
271.466	95.44
271.698	98.44
271.93	81.44
272.162	90.44
272.394	86.44
272.626	84.44
272.858	79.44
273.09	92.44
273.322	69.44
273.553	88.44
273.785	87.44
274.017	79.44
274.249	72.44
274.481	83.44
274.713	84.44
274.945	92.44
275.176	77.44
275.408	77.44
275.64	72.44
275.872	69.44
276.104	86.44
276.335	103.44
276.567	83.44
276.799	83.44
277.031	88.44
277.262	78.44
277.494	79.44
277.726	89.44
277.957	78.44
278.189	70.44
278.421	83.44
278.652	86.44
278.884	91.44
279.115	81.44
279.347	75.44
279.579	77.44
279.81	81.44
280.042	90.44
280.273	98.44
280.505	102.44
280.736	82.44
280.968	90.44
281.199	90.44
281.431	100.44
281.662	93.44
281.894	84.44
282.125	74.44
282.356	77.44
282.588	83.44
282.819	92.44
283.051	74.44
283.282	99.44
283.513	77.44
283.745	70.44
283.976	86.44
284.207	86.44
284.439	99.44
284.67	90.44
284.901	78.44
285.132	95.44
285.364	86.44
285.595	84.44
285.826	82.44
286.057	81.44
286.288	83.44
286.52	88.44
286.751	85.44
286.982	93.44
287.213	92.44
287.444	87.44
287.675	88.44
287.906	77.44
288.138	72.44
288.369	87.44
288.6	76.44
288.831	72.44
289.062	90.44
289.293	81.44
289.524	91.44
289.755	82.44
289.986	92.44
290.217	70.44
290.448	78.44
290.679	78.44
290.91	85.44
291.141	66.44
291.371	89.44
291.602	94.44
291.833	97.44
292.064	73.44
292.295	89.44
292.526	84.44
292.757	81.44
292.987	87.44
293.218	85.44
293.449	95.44
293.68	91.44
293.91	91.44
294.141	80.44
294.372	75.44
294.603	81.44
294.833	93.44
295.064	81.44
295.295	93.44
295.525	91.44
295.756	100.44
295.987	68.44
296.217	74.44
296.448	82.44
296.679	80.44
296.909	88.44
297.14	88.44
297.37	98.44
297.601	93.44
297.831	86.44
298.062	85.44
298.292	83.44
298.523	93.44
298.753	86.44
298.984	81.44
299.214	82.44
299.445	84.44
299.675	79.44
299.905	91.44
300.136	102.44
300.366	86.44
300.597	87.44
300.827	78.44
301.057	83.44
301.288	92.44
301.518	101.44
301.748	76.44
301.979	99.44
302.209	74.44
302.439	78.44
302.669	90.44
302.9	76.44
303.13	73.44
303.36	88.44
303.59	96.44
303.82	87.44
304.051	75.44
304.281	79.44
304.511	96.44
304.741	91.44
304.971	72.44
305.201	83.44
305.431	84.44
305.661	91.44
305.891	86.44
306.121	97.44
306.352	91.44
306.582	71.44
306.812	72.44
307.042	85.44
307.272	97.44
307.502	82.44
307.731	91.44
307.961	85.44
308.191	107.44
308.421	96.44
308.651	96.44
308.881	82.44
309.111	83.44
309.341	91.44
309.571	102.44
309.8	92.44
310.03	96.44
310.26	93.44
310.49	90.44
310.72	91.44
310.949	73.44
311.179	87.44
311.409	95.44
311.639	88.44
311.868	79.44
312.098	97.44
312.328	88.44
312.557	83.44
312.787	76.44
313.017	78.44
313.246	80.44
313.476	77.44
313.706	78.44
313.935	77.44
314.165	71.44
314.394	76.44
314.624	92.44
314.853	90.44
315.083	86.44
315.312	97.44
315.542	83.44
315.771	86.44
316.001	98.44
316.23	89.44
316.46	89.44
316.689	88.44
316.919	99.44
317.148	92.44
317.377	79.44
317.607	97.44
317.836	106.44
318.065	105.44
318.295	111.44
318.524	93.44
318.753	89.44
318.983	88.44
319.212	99.44
319.441	75.44
319.67	84.44
319.9	89.44
320.129	89.44
320.358	103.44
320.587	98.44
320.816	86.44
321.046	88.44
321.275	90.44
321.504	109.44
321.733	89.44
321.962	90.44
322.191	83.44
322.42	93.44
322.649	97.44
322.878	89.44
323.108	95.44
323.337	93.44
323.566	80.44
323.795	86.44
324.024	97.44
324.253	91.44
324.482	97.44
324.71	87.44
324.939	79.44
325.168	96.44
325.397	99.44
325.626	79.44
325.855	83.44
326.084	72.44
326.313	87.44
326.542	96.44
326.77	88.44
326.999	77.44
327.228	84.44
327.457	81.44
327.686	85.44
327.914	86.44
328.143	88.44
328.372	100.44
328.6	71.44
328.829	81.44
329.058	88.44
329.287	87.44
329.515	89.44
329.744	80.44
329.972	90.44
330.201	76.44
330.43	86.44
330.658	91.44
330.887	88.44
331.115	79.44
331.344	89.44
331.572	87.44
331.801	88.44
332.03	91.44
332.258	82.44
332.486	81.44
332.715	91.44
332.943	84.44
333.172	85.44
333.4	84.44
333.629	87.44
333.857	96.44
334.085	107.44
334.314	91.44
334.542	91.44
334.771	86.44
334.999	97.44
335.227	91.44
335.455	83.44
335.684	92.44
335.912	91.44
336.14	95.44
336.369	83.44
336.597	83.44
336.825	100.44
337.053	92.44
337.281	81.44
337.51	82.44
337.738	83.44
337.966	88.44
338.194	95.44
338.422	89.44
338.65	98.44
338.878	83.44
339.106	85.44
339.334	87.44
339.562	76.44
339.79	89.44
340.018	105.44
340.246	103.44
340.474	85.44
340.702	79.44
340.93	85.44
341.158	91.44
341.386	99.44
341.614	96.44
341.842	85.44
342.07	85.44
342.298	91.44
342.526	81.44
342.754	79.44
342.981	81.44
343.209	85.44
343.437	89.44
343.665	91.44
343.893	92.44
344.12	97.44
344.348	93.44
344.576	98.44
344.804	95.44
345.031	80.44
345.259	95.44
345.487	79.44
345.714	83.44
345.942	64.44
346.17	91.44
346.397	83.44
346.625	83.44
346.853	96.44
347.08	96.44
347.308	84.44
347.535	105.44
347.763	95.44
347.99	83.44
348.218	85.44
348.445	84.44
348.673	88.44
348.9	80.44
349.128	81.44
349.355	78.44
349.583	85.44
349.81	90.44
350.037	92.44
350.265	92.44
350.492	99.44
350.72	87.44
350.947	93.44
351.174	86.44
351.402	80.44
351.629	75.44
351.856	82.44
352.083	98.44
352.311	82.44
352.538	90.44
352.765	93.44
352.992	99.44
353.22	95.44
353.447	73.44
353.674	92.44
353.901	101.44
354.128	83.44
354.355	90.44
354.583	95.44
354.81	84.44
355.037	93.44
355.264	90.44
355.491	84.44
355.718	88.44
355.945	83.44
356.172	87.44
356.399	87.44
356.626	80.44
356.853	83.44
357.08	70.44
357.307	78.44
357.534	99.44
357.761	77.44
357.988	91.44
358.215	106.44
358.441	112.44
358.668	83.44
358.895	80.44
359.122	98.44
359.349	82.44
359.576	85.44
359.802	84.44
360.029	74.44
360.256	89.44
360.483	92.44
360.709	73.44
360.936	92.44
361.163	83.44
361.39	101.44
361.616	91.44
361.843	92.44
362.07	88.44
362.296	102.44
362.523	103.44
362.749	102.44
362.976	110.44
363.203	130.44
363.429	116.44
363.656	91.44
363.882	97.44
364.109	131.44
364.335	123.44
364.562	155.44
364.788	111.44
365.015	92.44
365.241	102.44
365.468	95.44
365.694	88.44
365.92	84.44
366.147	88.44
366.373	92.44
366.599	100.44
366.826	103.44
367.052	87.44
367.278	93.44
367.505	74.44
367.731	92.44
367.957	102.44
368.184	91.44
368.41	89.44
368.636	105.44
368.862	85.44
369.089	87.44
369.315	84.44
369.541	85.44
369.767	97.44
369.993	97.44
370.219	82.44
370.445	100.44
370.672	94.44
370.898	89.44
371.124	85.44
371.35	83.44
371.576	70.44
371.802	87.44
372.028	89.44
372.254	95.44
372.48	95.44
372.706	97.44
372.932	82.44
373.158	106.44
373.384	95.44
373.61	115.44
373.835	108.44
374.061	103.44
374.287	93.44
374.513	89.44
374.739	97.44
374.965	103.44
375.191	94.44
375.416	80.44
375.642	92.44
375.868	96.44
376.094	101.44
376.319	87.44
376.545	81.44
376.771	99.44
376.997	81.44
377.222	102.44
377.448	84.44
377.674	95.44
377.899	87.44
378.125	87.44
378.35	97.44
378.576	86.44
378.802	90.44
379.027	80.44
379.253	91.44
379.478	95.44
379.704	71.44
379.929	85.44
380.155	90.44
380.38	75.44
380.606	76.44
380.831	87.44
381.057	88.44
381.282	77.44
381.507	101.44
381.733	94.44
381.958	101.44
382.184	99.44
382.409	96.44
382.634	95.44
382.86	103.44
383.085	104.44
383.31	102.44
383.535	92.44
383.761	99.44
383.986	92.44
384.211	91.44
384.436	77.44
384.662	79.44
384.887	94.44
385.112	91.44
385.337	87.44
385.562	102.44
385.787	86.44
386.013	109.44
386.238	101.44
386.463	91.44
386.688	108.44
386.913	97.44
387.138	103.44
387.363	100.44
387.588	103.44
387.813	96.44
388.038	100.44
388.263	103.44
388.488	89.44
388.713	103.44
388.938	88.44
389.163	91.44
389.387	92.44
389.612	86.44
389.837	96.44
390.062	95.44
390.287	89.44
390.512	91.44
390.736	93.44
390.961	99.44
391.186	95.44
391.411	101.44
391.636	95.44
391.86	81.44
392.085	95.44
392.31	100.44
392.534	105.44
392.759	119.44
392.984	178.44
393.208	320.44
393.433	442.44
393.658	330.44
393.882	155.44
394.107	100.44
394.331	123.44
394.556	127.44
394.78	103.44
395.005	104.44
395.229	99.44
395.454	107.44
395.678	121.44
395.903	121.44
396.127	133.44
396.352	148.44
396.576	176.44
396.801	306.44
397.025	331.44
397.249	162.44
397.474	140.44
397.698	107.44
397.922	107.44
398.147	96.44
398.371	78.44
398.595	89.44
398.82	96.44
399.044	89.44
399.268	82.44
399.492	98.44
399.717	85.44
399.941	87.44
400.165	90.44
400.389	73.44
400.613	93.44
400.837	96.44
401.062	88.44
401.286	88.44
401.51	75.44
401.734	91.44
401.958	106.44
402.182	93.44
402.406	88.44
402.63	97.44
402.854	81.44
403.078	98.44
403.302	98.44
403.526	97.44
403.75	75.44
403.974	91.44
404.198	100.44
404.422	101.44
404.645	111.44
404.869	86.44
405.093	91.44
405.317	81.44
405.541	103.44
405.765	93.44
405.988	77.44
406.212	83.44
406.436	87.44
406.66	96.44
406.883	85.44
407.107	92.44
407.331	90.44
407.555	104.44
407.778	96.44
408.002	129.44
408.226	115.44
408.449	84.44
408.673	111.44
408.896	85.44
409.12	88.44
409.344	92.44
409.567	115.44
409.791	112.44
410.014	104.44
410.238	95.44
410.461	77.44
410.685	83.44
410.908	81.44
411.132	83.44
411.355	86.44
411.578	98.44
411.802	108.44
412.025	84.44
412.249	81.44
412.472	101.44
412.695	97.44
412.919	97.44
413.142	90.44
413.365	111.44
413.589	99.44
413.812	83.44
414.035	90.44
414.258	87.44
414.482	93.44
414.705	88.44
414.928	93.44
415.151	89.44
415.374	84.44
415.597	88.44
415.821	93.44
416.044	86.44
416.267	77.44
416.49	87.44
416.713	95.44
416.936	84.44
417.159	86.44
417.382	90.44
417.605	76.44
417.828	94.44
418.051	91.44
418.274	89.44
418.497	95.44
418.72	83.44
418.943	81.44
419.166	82.44
419.389	103.44
419.611	93.44
419.834	113.44
420.057	92.44
420.28	95.44
420.503	82.44
420.726	91.44
420.948	98.44
421.171	109.44
421.394	122.44
421.617	135.44
421.839	144.44
422.062	156.44
422.285	200.44
422.507	326.44
422.73	492.44
422.953	423.44
423.175	232.44
423.398	159.44
423.621	108.44
423.843	107.44
424.066	115.44
424.288	115.44
424.511	96.44
424.733	82.44
424.956	86.44
425.178	102.44
425.401	101.44
425.623	102.44
425.846	98.44
426.068	89.44
426.291	96.44
426.513	97.44
426.735	106.44
426.958	86.44
427.18	88.44
427.402	89.44
427.625	97.44
427.847	108.44
428.069	113.44
428.292	143.44
428.514	166.44
428.736	131.44
428.958	141.44
429.181	136.44
429.403	108.44
429.625	117.44
429.847	136.44
430.069	189.44
430.292	197.44
430.514	197.44
430.736	172.44
430.958	166.44
431.18	114.44
431.402	103.44
431.624	100.44
431.846	133.44
432.068	143.44
432.29	102.44
432.512	107.44
432.734	103.44
432.956	84.44
433.178	71.44
433.4	81.44
433.622	85.44
433.844	103.44
434.066	95.44
434.287	89.44
434.509	89.44
434.731	90.44
434.953	84.44
435.175	86.44
435.397	108.44
435.618	104.44
435.84	96.44
436.062	92.44
436.284	96.44
436.505	90.44
436.727	74.44
436.949	90.44
437.17	89.44
437.392	97.44
437.614	75.44
437.835	102.44
438.057	103.44
438.278	82.44
438.5	92.44
438.721	84.44
438.943	97.44
439.165	91.44
439.386	92.44
439.608	95.44
439.829	88.44
440.05	101.44
440.272	87.44
440.493	79.44
440.715	92.44
440.936	77.44
441.158	72.44
441.379	90.44
441.6	84.44
441.822	102.44
442.043	101.44
442.264	109.44
442.486	147.44
442.707	194.44
442.928	118.44
443.149	109.44
443.371	189.44
443.592	299.44
443.813	258.44
444.034	130.44
444.255	92.44
444.476	99.44
444.698	91.44
444.919	92.44
445.14	199.44
445.361	239.44
445.582	325.44
445.803	321.44
446.024	141.44
446.245	105.44
446.466	93.44
446.687	95.44
446.908	77.44
447.129	87.44
447.35	89.44
447.571	88.44
447.792	94.44
448.013	87.44
448.234	92.44
448.455	115.44
448.675	101.44
448.896	82.44
449.117	96.44
449.338	90.44
449.559	86.44
449.779	75.44
450	93.44
450.221	92.44
450.442	89.44
450.662	76.44
450.883	96.44
451.104	84.44
451.324	93.44
451.545	90.44
451.766	88.44
451.986	101.44
452.207	89.44
452.428	82.44
452.648	112.44
452.869	107.44
453.089	104.44
453.31	85.44
453.53	90.44
453.751	96.44
453.971	89.44
454.192	82.44
454.412	93.44
454.633	88.44
454.853	104.44
455.073	97.44
455.294	106.44
455.514	90.44
455.734	81.44
455.955	92.44
456.175	89.44
456.395	96.44
456.616	97.44
456.836	77.44
457.056	103.44
457.276	93.44
457.497	102.44
457.717	103.44
457.937	135.44
458.157	152.44
458.377	164.44
458.598	143.44
458.818	157.44
459.038	104.44
459.258	96.44
459.478	85.44
459.698	84.44
459.918	92.44
460.138	93.44
460.358	92.44
460.578	99.44
460.798	130.44
461.018	117.44
461.238	98.44
461.458	95.44
461.678	81.44
461.898	95.44
462.118	82.44
462.338	96.44
462.558	93.44
462.777	78.44
462.997	90.44
463.217	89.44
463.437	99.44
463.657	77.44
463.876	93.44
464.096	83.44
464.316	84.44
464.536	86.44
464.755	80.44
464.975	82.44
465.195	103.44
465.414	94.44
465.634	90.44
465.854	84.44
466.073	81.44
466.293	87.44
466.512	89.44
466.732	73.44
466.951	83.44
467.171	81.44
467.391	105.44
467.61	89.44
467.829	91.44
468.049	86.44
468.268	89.44
468.488	73.44
468.707	92.44
468.927	88.44
469.146	85.44
469.365	91.44
469.585	98.44
469.804	87.44
470.023	83.44
470.243	94.44
470.462	91.44
470.681	95.44
470.901	88.44
471.12	74.44
471.339	98.44
471.558	85.44
471.777	90.44
471.997	85.44
472.216	77.44
472.435	92.44
472.654	87.44
472.873	98.44
473.092	76.44
473.311	84.44
473.53	89.44
473.749	93.44
473.968	102.44
474.187	97.44
474.406	73.44
474.625	90.44
474.844	77.44
475.063	83.44
475.282	79.44
475.501	100.44
475.72	105.44
475.939	88.44
476.158	84.44
476.377	81.44
476.596	85.44
476.814	88.44
477.033	90.44
477.252	86.44
477.471	88.44
477.69	83.44
477.908	91.44
478.127	79.44
478.346	92.44
478.564	90.44
478.783	69.44
479.002	93.44
479.22	97.44
479.439	99.44
479.658	83.44
479.876	86.44
480.095	87.44
480.313	84.44
480.532	95.44
480.751	85.44
480.969	94.44
481.188	95.44
481.406	103.44
481.624	92.44
481.843	87.44
482.061	90.44
482.28	94.44
482.498	91.44
482.717	86.44
482.935	91.44
483.153	98.44
483.372	85.44
483.59	93.44
483.808	93.44
484.027	85.44
484.245	95.44
484.463	97.44
484.681	104.44
484.9	102.44
485.118	100.44
485.336	95.44
485.554	86.44
485.772	98.44
485.99	103.44
486.209	92.44
486.427	90.44
486.645	93.44
486.863	83.44
487.081	93.44
487.299	87.44
487.517	122.44
487.735	126.44
487.953	215.44
488.171	179.44
488.389	104.44
488.607	93.44
488.825	94.44
489.043	73.44
489.261	100.44
489.479	89.44
489.696	91.44
489.914	99.44
490.132	87.44
490.35	92.44
490.568	87.44
490.786	89.44
491.003	92.44
491.221	81.44
491.439	106.44
491.657	99.44
491.874	76.44
492.092	91.44
492.31	93.44
492.527	103.44
492.745	98.44
492.963	83.44
493.18	85.44
493.398	86.44
493.615	95.44
493.833	88.44
494.05	87.44
494.268	105.44
494.485	83.44
494.703	76.44
494.92	86.44
495.138	90.44
495.355	112.44
495.573	87.44
495.79	85.44
496.008	89.44
496.225	100.44
496.442	86.44
496.66	103.44
496.877	99.44
497.094	97.44
497.312	89.44
497.529	83.44
497.746	83.44
497.963	93.44
498.181	92.44
498.398	90.44
498.615	91.44
498.832	86.44
499.049	91.44
499.267	96.44
499.484	91.44
499.701	95.44
499.918	101.44
500.135	88.44
500.352	94.44
500.569	100.44
500.786	109.44
501.003	87.44
501.22	93.44
501.437	88.44
501.654	94.44
501.871	85.44
502.088	87.44
502.305	89.44
502.522	99.44
502.739	94.44
502.956	88.44
503.172	79.44
503.389	89.44
503.606	91.44
503.823	92.44
504.04	108.44
504.256	173.44
504.473	169.44
504.69	106.44
504.907	91.44
505.123	101.44
505.34	83.44
505.557	84.44
505.773	84.44
505.99	81.44
506.207	84.44
506.423	93.44
506.64	106.44
506.856	94.44
507.073	75.44
507.289	86.44
507.506	101.44
507.722	95.44
507.939	93.44
508.155	96.44
508.372	93.44
508.588	90.44
508.805	89.44
509.021	93.44
509.238	72.44
509.454	77.44
509.67	87.44
509.887	77.44
510.103	100.44
510.319	90.44
510.536	87.44
510.752	92.44
510.968	95.44
511.184	101.44
511.401	89.44
511.617	101.44
511.833	89.44
512.049	81.44
512.265	93.44
512.481	85.44
512.698	87.44
512.914	103.44
513.13	82.44
513.346	103.44
513.562	89.44
513.778	95.44
513.994	81.44
514.21	80.44
514.426	107.44
514.642	83.44
514.858	73.44
515.074	103.44
515.29	104.44
515.506	99.44
515.721	79.44
515.937	87.44
516.153	104.44
516.369	88.44
516.585	82.44
516.801	94.44
517.016	99.44
517.232	84.44
517.448	85.44
517.664	87.44
517.879	82.44
518.095	92.44
518.311	107.44
518.527	115.44
518.742	115.44
518.958	183.44
519.173	188.44
519.389	123.44
519.605	107.44
519.82	87.44
520.036	101.44
520.251	89.44
520.467	84.44
520.682	93.44
520.898	97.44
521.113	97.44
521.329	93.44
521.544	89.44
521.76	96.44
521.975	91.44
522.19	79.44
522.406	83.44
522.621	96.44
522.836	91.44
523.052	92.44
523.267	95.44
523.482	105.44
523.698	80.44
523.913	94.44
524.128	89.44
524.343	97.44
524.559	101.44
524.774	90.44
524.989	94.44
525.204	103.44
525.419	98.44
525.634	95.44
525.849	115.44
526.064	139.44
526.28	290.44
526.495	393.44
526.71	408.44
526.925	256.44
527.14	340.44
527.355	316.44
527.57	119.44
527.785	99.44
527.999	91.44
528.214	91.44
528.429	111.44
528.644	90.44
528.859	81.44
529.074	89.44
529.289	93.44
529.503	90.44
529.718	98.44
529.933	79.44
530.148	94.44
530.363	85.44
530.577	93.44
530.792	97.44
531.007	92.44
531.221	94.44
531.436	98.44
531.651	102.44
531.865	85.44
532.08	95.44
532.295	107.44
532.509	100.44
532.724	95.44
532.938	99.44
533.153	93.44
533.367	100.44
533.582	101.44
533.796	95.44
534.011	105.44
534.225	99.44
534.44	90.44
534.654	106.44
534.868	101.44
535.083	213.44
535.297	176.44
535.511	101.44
535.726	96.44
535.94	98.44
536.154	105.44
536.369	88.44
536.583	109.44
536.797	113.44
537.011	99.44
537.225	102.44
537.44	111.44
537.654	111.44
537.868	106.44
538.082	97.44
538.296	90.44
538.51	90.44
538.724	103.44
538.938	107.44
539.153	99.44
539.367	97.44
539.581	100.44
539.795	97.44
540.009	104.44
540.222	98.44
540.436	96.44
540.65	99.44
540.864	101.44
541.078	96.44
541.292	105.44
541.506	92.44
541.72	119.44
541.934	87.44
542.147	85.44
542.361	98.44
542.575	90.44
542.789	116.44
543.002	91.44
543.216	106.44
543.43	95.44
543.644	109.44
543.857	115.44
544.071	111.44
544.285	117.44
544.498	105.44
544.712	114.44
544.925	102.44
545.139	111.44
545.352	111.44
545.566	112.44
545.779	114.44
545.993	107.44
546.206	109.44
546.42	108.44
546.633	115.44
546.847	130.44
547.06	137.44
547.274	151.44
547.487	162.44
547.7	190.44
547.914	205.44
548.127	201.44
548.34	217.44
548.554	212.44
548.767	209.44
548.98	202.44
549.193	198.44
549.407	202.44
549.62	211.44
549.833	225.44
550.046	264.44
550.259	268.44
550.473	246.44
550.686	258.44
550.899	276.44
551.112	288.44
551.325	313.44
551.538	337.44
551.751	301.44
551.964	282.44
552.177	260.44
552.39	247.44
552.603	260.44
552.816	262.44
553.029	242.44
553.242	252.44
553.455	242.44
553.667	255.44
553.88	254.44
554.093	259.44
554.306	250.44
554.519	257.44
554.732	272.44
554.944	250.44
555.157	237.44
555.37	239.44
555.583	217.44
555.795	209.44
556.008	188.44
556.221	189.44
556.433	195.44
556.646	157.44
556.859	189.44
557.071	169.44
557.284	166.44
557.496	156.44
557.709	161.44
557.921	166.44
558.134	171.44
558.346	232.44
558.559	200.44
558.771	180.44
558.984	360.44
559.196	465.44
559.409	259.44
559.621	361.44
559.833	257.44
560.046	337.44
560.258	277.44
560.47	273.44
560.683	164.44
560.895	107.44
561.107	113.44
561.32	101.44
561.532	99.44
561.744	104.44
561.956	114.44
562.168	105.44
562.381	97.44
562.593	103.44
562.805	111.44
563.017	105.44
563.229	90.44
563.441	92.44
563.653	105.44
563.865	90.44
564.077	88.44
564.289	105.44
564.501	96.44
564.713	95.44
564.925	100.44
565.137	86.44
565.349	107.44
565.561	104.44
565.773	98.44
565.985	105.44
566.197	89.44
566.408	107.44
566.62	104.44
566.832	104.44
567.044	99.44
567.255	108.44
567.467	85.44
567.679	91.44
567.891	86.44
568.102	99.44
568.314	107.44
568.526	110.44
568.737	99.44
568.949	95.44
569.161	99.44
569.372	104.44
569.584	91.44
569.795	89.44
570.007	107.44
570.218	98.44
570.43	96.44
570.641	96.44
570.853	90.44
571.064	97.44
571.276	85.44
571.487	115.44
571.698	98.44
571.91	92.44
572.121	98.44
572.333	95.44
572.544	87.44
572.755	111.44
572.966	109.44
573.178	102.44
573.389	105.44
573.6	90.44
573.811	91.44
574.023	104.44
574.234	99.44
574.445	91.44
574.656	87.44
574.867	89.44
575.078	92.44
575.289	96.44
575.501	100.44
575.712	86.44
575.923	97.44
576.134	87.44
576.345	92.44
576.556	90.44
576.767	97.44
576.978	98.44
577.188	109.44
577.399	97.44
577.61	91.44
577.821	90.44
578.032	91.44
578.243	101.44
578.454	104.44
578.665	98.44
578.875	86.44
579.086	103.44
579.297	85.44
579.508	90.44
579.718	100.44
579.929	91.44
580.14	85.44
580.35	108.44
580.561	104.44
580.772	110.44
580.982	115.44
581.193	95.44
581.403	104.44
581.614	98.44
581.825	99.44
582.035	88.44
582.246	97.44
582.456	102.44
582.667	94.44
582.877	97.44
583.087	103.44
583.298	100.44
583.508	101.44
583.719	108.44
583.929	76.44
584.139	93.44
584.35	109.44
584.56	82.44
584.77	99.44
584.981	87.44
585.191	102.44
585.401	101.44
585.611	105.44
585.821	187.44
586.032	298.44
586.242	134.44
586.452	108.44
586.662	103.44
586.872	102.44
587.082	105.44
587.292	107.44
587.502	105.44
587.713	114.44
587.923	102.44
588.133	111.44
588.343	106.44
588.553	127.44
588.762	127.44
588.972	237.44
589.182	515.44
589.392	360.44
589.602	253.44
589.812	438.44
590.022	229.44
590.232	149.44
590.441	110.44
590.651	104.44
590.861	95.44
591.071	116.44
591.281	115.44
591.49	115.44
591.7	117.44
591.91	117.44
592.119	126.44
592.329	119.44
592.539	122.44
592.748	129.44
592.958	113.44
593.167	130.44
593.377	119.44
593.587	128.44
593.796	137.44
594.006	125.44
594.215	118.44
594.424	125.44
594.634	127.44
594.843	161.44
595.053	140.44
595.262	137.44
595.472	148.44
595.681	144.44
595.89	157.44
596.1	163.44
596.309	152.44
596.518	184.44
596.727	178.44
596.937	180.44
597.146	197.44
597.355	198.44
597.564	189.44
597.774	190.44
597.983	189.44
598.192	173.44
598.401	177.44
598.61	213.44
598.819	212.44
599.028	206.44
599.237	203.44
599.446	219.44
599.655	195.44
599.864	182.44
600.073	175.44
600.282	192.44
600.491	186.44
600.7	205.44
600.909	209.44
601.118	177.44
601.327	165.44
601.536	157.44
601.745	156.44
601.953	160.44
602.162	179.44
602.371	159.44
602.58	175.44
602.789	175.44
602.997	174.44
603.206	176.44
603.415	169.44
603.623	177.44
603.832	184.44
604.041	187.44
604.249	199.44
604.458	195.44
604.666	231.44
604.875	222.44
605.084	228.44
605.292	219.44
605.501	243.44
605.709	232.44
605.918	234.44
606.126	253.44
606.334	258.44
606.543	250.44
606.751	233.44
606.96	243.44
607.168	232.44
607.376	220.44
607.585	219.44
607.793	210.44
608.001	203.44
608.21	220.44
608.418	225.44
608.626	232.44
608.834	241.44
609.043	246.44
609.251	233.44
609.459	227.44
609.667	213.44
609.875	261.44
610.083	259.44
610.291	260.44
610.499	375.44
610.707	290.44
610.916	239.44
611.124	225.44
611.332	246.44
611.54	249.44
611.748	239.44
611.955	253.44
612.163	290.44
612.371	463.44
612.579	401.44
612.787	296.44
612.995	293.44
613.203	263.44
613.411	255.44
613.618	249.44
613.826	236.44
614.034	248.44
614.242	265.44
614.449	251.44
614.657	265.44
614.865	257.44
615.072	234.44
615.28	232.44
615.488	247.44
615.695	253.44
615.903	268.44
616.111	286.44
616.318	448.44
616.526	515.44
616.733	340.44
616.941	312.44
617.148	387.44
617.356	292.44
617.563	249.44
617.771	233.44
617.978	229.44
618.185	232.44
618.393	223.44
618.6	207.44
618.807	216.44
619.015	203.44
619.222	199.44
619.429	196.44
619.637	185.44
619.844	195.44
620.051	185.44
620.258	189.44
620.466	189.44
620.673	195.44
620.88	202.44
621.087	211.44
621.294	211.44
621.501	190.44
621.708	197.44
621.915	199.44
622.122	224.44
622.329	189.44
622.536	200.44
622.743	204.44
622.95	201.44
623.157	213.44
623.364	214.44
623.571	214.44
623.778	230.44
623.985	230.44
624.192	200.44
624.399	198.44
624.606	223.44
624.812	219.44
625.019	209.44
625.226	193.44
625.433	202.44
625.639	189.44
625.846	212.44
626.053	175.44
626.259	161.44
626.466	181.44
626.673	169.44
626.879	159.44
627.086	179.44
627.293	170.44
627.499	165.44
627.706	141.44
627.912	160.44
628.119	136.44
628.325	137.44
628.532	122.44
628.738	119.44
628.945	113.44
629.151	127.44
629.357	97.44
629.564	100.44
629.77	106.44
629.976	115.44
630.183	102.44
630.389	111.44
630.595	111.44
630.802	109.44
631.008	100.44
631.214	107.44
631.42	98.44
631.627	112.44
631.833	105.44
632.039	102.44
632.245	99.44
632.451	111.44
632.657	116.44
632.863	98.44
633.069	101.44
633.275	115.44
633.481	104.44
633.688	117.44
633.893	95.44
634.099	101.44
634.305	103.44
634.511	116.44
634.717	100.44
634.923	91.44
635.129	95.44
635.335	109.44
635.541	102.44
635.747	106.44
635.952	109.44
636.158	104.44
636.364	105.44
636.57	100.44
636.775	91.44
636.981	103.44
637.187	108.44
637.392	99.44
637.598	113.44
637.804	103.44
638.009	104.44
638.215	88.44
638.421	101.44
638.626	98.44
638.832	102.44
639.037	92.44
639.243	88.44
639.448	98.44
639.654	78.44
639.859	96.44
640.065	98.44
640.27	90.44
640.475	123.44
640.681	97.44
640.886	109.44
641.091	95.44
641.297	104.44
641.502	119.44
641.707	115.44
641.913	98.44
642.118	85.44
642.323	100.44
642.528	83.44
642.733	99.44
642.939	106.44
643.144	114.44
643.349	100.44
643.554	112.44
643.759	113.44
643.964	154.44
644.169	197.44
644.374	119.44
644.579	103.44
644.784	96.44
644.989	114.44
645.194	141.44
645.399	105.44
645.604	99.44
645.809	116.44
646.014	101.44
646.219	113.44
646.423	194.44
646.628	156.44
646.833	117.44
647.038	97.44
647.243	114.44
647.447	123.44
647.652	92.44
647.857	95.44
648.062	117.44
648.266	93.44
648.471	87.44
648.676	103.44
648.88	102.44
649.085	105.44
649.289	103.44
649.494	140.44
649.698	144.44
649.903	104.44
650.107	120.44
650.312	100.44
650.516	95.44
650.721	94.44
650.925	96.44
651.13	83.44
651.334	95.44
651.539	95.44
651.743	93.44
651.947	83.44
652.152	101.44
652.356	97.44
652.56	80.44
652.764	97.44
652.969	101.44
653.173	79.44
653.377	87.44
653.581	90.44
653.785	92.44
653.99	90.44
654.194	74.44
654.398	83.44
654.602	84.44
654.806	85.44
655.01	102.44
655.214	83.44
655.418	86.44
655.622	88.44
655.826	85.44
656.03	83.44
656.234	81.44
656.438	80.44
656.642	92.44
656.846	74.44
657.049	93.44
657.253	88.44
657.457	80.44
657.661	89.44
657.865	86.44
658.068	88.44
658.272	103.44
658.476	77.44
658.68	88.44
658.883	86.44
659.087	79.44
659.291	84.44
659.494	81.44
659.698	74.44
659.901	87.44
660.105	77.44
660.309	78.44
660.512	77.44
660.716	91.44
660.919	86.44
661.123	95.44
661.326	89.44
661.53	87.44
661.733	87.44
661.936	88.44
662.14	81.44
662.343	91.44
662.546	81.44
662.75	97.44
662.953	82.44
663.156	86.44
663.36	98.44
663.563	95.44
663.766	83.44
663.969	82.44
664.173	84.44
664.376	84.44
664.579	84.44
664.782	88.44
664.985	89.44
665.188	78.44
665.391	85.44
665.594	87.44
665.797	77.44
666	80.44
666.203	76.44
666.406	103.44
666.609	90.44
666.812	92.44
667.015	68.44
667.218	93.44
667.421	87.44
667.624	67.44
667.827	76.44
668.03	100.44
668.232	83.44
668.435	83.44
668.638	78.44
668.841	70.44
669.043	78.44
669.246	99.44
669.449	84.44
669.651	76.44
669.854	80.44
670.057	82.44
670.259	88.44
670.462	76.44
670.665	77.44
670.867	99.44
671.07	82.44
671.272	94.44
671.475	78.44
671.677	85.44
671.88	79.44
672.082	85.44
672.284	86.44
672.487	75.44
672.689	86.44
672.892	84.44
