Data from Alignment_HRD10591_00010.txt Node
Date: Fri Dec 27 14:18:33 EST 2024
User: Yrep
Spectrometer: HR+D1059
Trigger mode: 1
Integration Time (sec): 1.000000E-1
Scans to average: 1
Electric dark correction enabled: true
Nonlinearity correction enabled: false
Boxcar width: 0
XAxis mode: Wavelengths
Number of Pixels in Spectrum: 2048
>>>>>Begin Spectral Data<<<<<
223.165	-33.69
223.4	-33.69
223.635	-33.69
223.869	-20.69
224.104	-33.69
224.338	-1.69
224.573	-19.69
224.808	-6.69
225.042	-10.69
225.277	-14.69
225.511	5.31
225.746	8.31
225.98	7.31
226.215	10.31
226.449	17.31
226.683	18.31
226.918	27.31
227.152	47.31
227.387	32.31
227.621	42.31
227.856	38.31
228.09	48.31
228.324	66.31
228.559	67.31
228.793	57.31
229.027	67.31
229.262	65.31
229.496	69.31
229.73	64.31
229.964	74.31
230.199	86.31
230.433	73.31
230.667	71.31
230.901	79.31
231.136	89.31
231.37	74.31
231.604	81.31
231.838	88.31
232.072	67.31
232.306	81.31
232.541	80.31
232.775	71.31
233.009	66.31
233.243	67.31
233.477	74.31
233.711	84.31
233.945	77.31
234.179	69.31
234.413	64.31
234.647	79.31
234.881	81.31
235.115	92.31
235.349	90.31
235.583	74.31
235.817	90.31
236.051	89.31
236.285	83.31
236.519	74.31
236.753	77.31
236.987	80.31
237.221	73.31
237.455	74.31
237.689	68.31
237.922	68.31
238.156	82.31
238.39	74.31
238.624	74.31
238.858	67.31
239.091	73.31
239.325	66.31
239.559	69.31
239.793	77.31
240.027	79.31
240.26	77.31
240.494	89.31
240.728	65.31
240.961	66.31
241.195	90.31
241.429	59.31
241.662	75.31
241.896	75.31
242.13	66.31
242.363	72.31
242.597	77.31
242.83	78.31
243.064	68.31
243.298	75.31
243.531	80.31
243.765	74.31
243.998	65.31
244.232	67.31
244.465	77.31
244.699	72.31
244.932	78.31
245.166	89.31
245.399	72.31
245.633	77.31
245.866	62.31
246.099	70.31
246.333	83.31
246.566	70.31
246.8	79.31
247.033	69.31
247.266	82.31
247.5	83.31
247.733	76.31
247.966	78.31
248.2	73.31
248.433	66.31
248.666	76.31
248.899	83.31
249.133	74.31
249.366	80.31
249.599	82.31
249.832	69.31
250.066	88.31
250.299	68.31
250.532	73.31
250.765	72.31
250.998	74.31
251.231	66.31
251.465	72.31
251.698	73.31
251.931	65.31
252.164	95.31
252.397	66.31
252.63	86.31
252.863	71.31
253.096	78.31
253.329	75.31
253.562	79.31
253.795	80.31
254.028	87.31
254.261	89.31
254.494	63.31
254.727	93.31
254.96	74.31
255.193	70.31
255.426	89.31
255.659	79.31
255.892	82.31
256.124	82.31
256.357	85.31
256.59	57.31
256.823	78.31
257.056	77.31
257.289	51.31
257.521	85.31
257.754	69.31
257.987	76.31
258.22	77.31
258.452	78.31
258.685	85.31
258.918	62.31
259.151	78.31
259.383	80.31
259.616	87.31
259.849	90.31
260.081	85.31
260.314	91.31
260.547	75.31
260.779	78.31
261.012	70.31
261.244	72.31
261.477	93.31
261.71	73.31
261.942	73.31
262.175	66.31
262.407	74.31
262.64	80.31
262.872	76.31
263.105	63.31
263.337	71.31
263.57	77.31
263.802	85.31
264.035	77.31
264.267	81.31
264.499	77.31
264.732	82.31
264.964	85.31
265.197	79.31
265.429	70.31
265.661	93.31
265.894	81.31
266.126	70.31
266.358	75.31
266.591	82.31
266.823	84.31
267.055	87.31
267.287	75.31
267.52	61.31
267.752	76.31
267.984	75.31
268.216	88.31
268.448	76.31
268.681	89.31
268.913	92.31
269.145	73.31
269.377	75.31
269.609	75.31
269.841	99.31
270.073	76.31
270.306	76.31
270.538	81.31
270.77	85.31
271.002	87.31
271.234	81.31
271.466	82.31
271.698	84.31
271.93	75.31
272.162	75.31
272.394	75.31
272.626	77.31
272.858	80.31
273.09	75.31
273.322	83.31
273.553	67.31
273.785	93.31
274.017	81.31
274.249	68.31
274.481	71.31
274.713	70.31
274.945	93.31
275.176	82.31
275.408	77.31
275.64	95.31
275.872	107.31
276.104	93.31
276.335	91.31
276.567	80.31
276.799	81.31
277.031	96.31
277.262	69.31
277.494	83.31
277.726	87.31
277.957	87.31
278.189	85.31
278.421	72.31
278.652	79.31
278.884	81.31
279.115	79.31
279.347	84.31
279.579	79.31
279.81	76.31
280.042	79.31
280.273	70.31
280.505	71.31
280.736	83.31
280.968	82.31
281.199	74.31
281.431	65.31
281.662	79.31
281.894	66.31
282.125	76.31
282.356	69.31
282.588	77.31
282.819	67.31
283.051	78.31
283.282	77.31
283.513	82.31
283.745	87.31
283.976	80.31
284.207	91.31
284.439	81.31
284.67	96.31
284.901	99.31
285.132	77.31
285.364	89.31
285.595	92.31
285.826	70.31
286.057	84.31
286.288	77.31
286.52	75.31
286.751	94.31
286.982	74.31
287.213	79.31
287.444	74.31
287.675	79.31
287.906	88.31
288.138	85.31
288.369	80.31
288.6	86.31
288.831	84.31
289.062	84.31
289.293	78.31
289.524	67.31
289.755	82.31
289.986	81.31
290.217	89.31
290.448	76.31
290.679	75.31
290.91	94.31
291.141	88.31
291.371	100.31
291.602	92.31
291.833	79.31
292.064	73.31
292.295	83.31
292.526	86.31
292.757	92.31
292.987	69.31
293.218	81.31
293.449	79.31
293.68	75.31
293.91	81.31
294.141	89.31
294.372	81.31
294.603	73.31
294.833	81.31
295.064	84.31
295.295	78.31
295.525	85.31
295.756	97.31
295.987	73.31
296.217	88.31
296.448	77.31
296.679	75.31
296.909	79.31
297.14	72.31
297.37	96.31
297.601	82.31
297.831	91.31
298.062	81.31
298.292	74.31
298.523	88.31
298.753	81.31
298.984	86.31
299.214	82.31
299.445	90.31
299.675	80.31
299.905	83.31
300.136	70.31
300.366	92.31
300.597	65.31
300.827	90.31
301.057	86.31
301.288	77.31
301.518	71.31
301.748	87.31
301.979	100.31
302.209	74.31
302.439	87.31
302.669	89.31
302.9	84.31
303.13	89.31
303.36	91.31
303.59	89.31
303.82	69.31
304.051	89.31
304.281	96.31
304.511	81.31
304.741	86.31
304.971	86.31
305.201	75.31
305.431	79.31
305.661	86.31
305.891	82.31
306.121	94.31
306.352	97.31
306.582	81.31
306.812	92.31
307.042	89.31
307.272	85.31
307.502	81.31
307.731	66.31
307.961	87.31
308.191	80.31
308.421	77.31
308.651	78.31
308.881	88.31
309.111	84.31
309.341	66.31
309.571	71.31
309.8	81.31
310.03	70.31
310.26	85.31
310.49	83.31
310.72	85.31
310.949	78.31
311.179	73.31
311.409	93.31
311.639	85.31
311.868	84.31
312.098	69.31
312.328	82.31
312.557	94.31
312.787	87.31
313.017	91.31
313.246	82.31
313.476	71.31
313.706	93.31
313.935	81.31
314.165	91.31
314.394	91.31
314.624	82.31
314.853	83.31
315.083	80.31
315.312	82.31
315.542	79.31
315.771	95.31
316.001	83.31
316.23	87.31
316.46	84.31
316.689	77.31
316.919	93.31
317.148	74.31
317.377	87.31
317.607	91.31
317.836	80.31
318.065	84.31
318.295	91.31
318.524	85.31
318.753	73.31
318.983	89.31
319.212	83.31
319.441	90.31
319.67	73.31
319.9	86.31
320.129	73.31
320.358	87.31
320.587	94.31
320.816	91.31
321.046	89.31
321.275	86.31
321.504	79.31
321.733	89.31
321.962	93.31
322.191	84.31
322.42	89.31
322.649	86.31
322.878	89.31
323.108	86.31
323.337	89.31
323.566	95.31
323.795	85.31
324.024	86.31
324.253	82.31
324.482	91.31
324.71	78.31
324.939	92.31
325.168	78.31
325.397	78.31
325.626	69.31
325.855	75.31
326.084	77.31
326.313	86.31
326.542	70.31
326.77	85.31
326.999	76.31
327.228	80.31
327.457	94.31
327.686	82.31
327.914	82.31
328.143	82.31
328.372	85.31
328.6	89.31
328.829	77.31
329.058	74.31
329.287	65.31
329.515	94.31
329.744	88.31
329.972	81.31
330.201	83.31
330.43	87.31
330.658	81.31
330.887	91.31
331.115	80.31
331.344	76.31
331.572	79.31
331.801	85.31
332.03	66.31
332.258	72.31
332.486	82.31
332.715	82.31
332.943	76.31
333.172	82.31
333.4	77.31
333.629	79.31
333.857	76.31
334.085	101.31
334.314	79.31
334.542	82.31
334.771	86.31
334.999	88.31
335.227	87.31
335.455	77.31
335.684	84.31
335.912	87.31
336.14	68.31
336.369	82.31
336.597	80.31
336.825	73.31
337.053	82.31
337.281	83.31
337.51	67.31
337.738	75.31
337.966	76.31
338.194	87.31
338.422	81.31
338.65	83.31
338.878	82.31
339.106	97.31
339.334	82.31
339.562	73.31
339.79	81.31
340.018	87.31
340.246	74.31
340.474	73.31
340.702	78.31
340.93	90.31
341.158	82.31
341.386	81.31
341.614	78.31
341.842	71.31
342.07	84.31
342.298	78.31
342.526	86.31
342.754	79.31
342.981	86.31
343.209	89.31
343.437	89.31
343.665	78.31
343.893	79.31
344.12	80.31
344.348	95.31
344.576	87.31
344.804	80.31
345.031	77.31
345.259	92.31
345.487	78.31
345.714	66.31
345.942	83.31
346.17	87.31
346.397	91.31
346.625	101.31
346.853	93.31
347.08	85.31
347.308	91.31
347.535	77.31
347.763	86.31
347.99	84.31
348.218	89.31
348.445	91.31
348.673	99.31
348.9	91.31
349.128	86.31
349.355	82.31
349.583	79.31
349.81	80.31
350.037	87.31
350.265	67.31
350.492	78.31
350.72	77.31
350.947	90.31
351.174	91.31
351.402	83.31
351.629	79.31
351.856	92.31
352.083	76.31
352.311	79.31
352.538	82.31
352.765	73.31
352.992	98.31
353.22	97.31
353.447	79.31
353.674	82.31
353.901	76.31
354.128	78.31
354.355	89.31
354.583	86.31
354.81	77.31
355.037	85.31
355.264	76.31
355.491	95.31
355.718	89.31
355.945	95.31
356.172	97.31
356.399	81.31
356.626	74.31
356.853	75.31
357.08	86.31
357.307	80.31
357.534	81.31
357.761	76.31
357.988	83.31
358.215	91.31
358.441	89.31
358.668	98.31
358.895	92.31
359.122	85.31
359.349	89.31
359.576	73.31
359.802	89.31
360.029	78.31
360.256	85.31
360.483	87.31
360.709	81.31
360.936	77.31
361.163	82.31
361.39	71.31
361.616	86.31
361.843	88.31
362.07	85.31
362.296	80.31
362.523	86.31
362.749	72.31
362.976	81.31
363.203	79.31
363.429	76.31
363.656	78.31
363.882	85.31
364.109	104.31
364.335	89.31
364.562	85.31
364.788	79.31
365.015	79.31
365.241	77.31
365.468	79.31
365.694	70.31
365.92	77.31
366.147	78.31
366.373	91.31
366.599	81.31
366.826	75.31
367.052	87.31
367.278	89.31
367.505	71.31
367.731	95.31
367.957	78.31
368.184	81.31
368.41	71.31
368.636	80.31
368.862	101.31
369.089	83.31
369.315	61.31
369.541	84.31
369.767	73.31
369.993	60.31
370.219	67.31
370.445	83.31
370.672	74.31
370.898	90.31
371.124	75.31
371.35	65.31
371.576	79.31
371.802	66.31
372.028	76.31
372.254	81.31
372.48	92.31
372.706	87.31
372.932	78.31
373.158	77.31
373.384	91.31
373.61	73.31
373.835	75.31
374.061	73.31
374.287	77.31
374.513	83.31
374.739	65.31
374.965	72.31
375.191	71.31
375.416	90.31
375.642	91.31
375.868	79.31
376.094	75.31
376.319	74.31
376.545	94.31
376.771	82.31
376.997	85.31
377.222	74.31
377.448	71.31
377.674	78.31
377.899	64.31
378.125	78.31
378.35	78.31
378.576	69.31
378.802	85.31
379.027	82.31
379.253	76.31
379.478	87.31
379.704	95.31
379.929	76.31
380.155	78.31
380.38	89.31
380.606	90.31
380.831	85.31
381.057	83.31
381.282	94.31
381.507	99.31
381.733	96.31
381.958	80.31
382.184	79.31
382.409	76.31
382.634	89.31
382.86	78.31
383.085	82.31
383.31	69.31
383.535	94.31
383.761	91.31
383.986	89.31
384.211	87.31
384.436	80.31
384.662	75.31
384.887	67.31
385.112	86.31
385.337	96.31
385.562	77.31
385.787	79.31
386.013	78.31
386.238	71.31
386.463	93.31
386.688	98.31
386.913	79.31
387.138	84.31
387.363	79.31
387.588	79.31
387.813	84.31
388.038	84.31
388.263	89.31
388.488	73.31
388.713	76.31
388.938	81.31
389.163	93.31
389.387	91.31
389.612	72.31
389.837	87.31
390.062	97.31
390.287	75.31
390.512	81.31
390.736	73.31
390.961	90.31
391.186	90.31
391.411	96.31
391.636	84.31
391.86	94.31
392.085	81.31
392.31	83.31
392.534	89.31
392.759	90.31
392.984	91.31
393.208	85.31
393.433	81.31
393.658	95.31
393.882	88.31
394.107	74.31
394.331	74.31
394.556	87.31
394.78	72.31
395.005	76.31
395.229	80.31
395.454	79.31
395.678	89.31
395.903	82.31
396.127	79.31
396.352	75.31
396.576	81.31
396.801	92.31
397.025	81.31
397.249	83.31
397.474	80.31
397.698	89.31
397.922	80.31
398.147	84.31
398.371	90.31
398.595	73.31
398.82	68.31
399.044	83.31
399.268	78.31
399.492	100.31
399.717	83.31
399.941	89.31
400.165	88.31
400.389	79.31
400.613	74.31
400.837	81.31
401.062	70.31
401.286	71.31
401.51	75.31
401.734	84.31
401.958	88.31
402.182	64.31
402.406	75.31
402.63	78.31
402.854	86.31
403.078	90.31
403.302	69.31
403.526	79.31
403.75	89.31
403.974	71.31
404.198	77.31
404.422	81.31
404.645	93.31
404.869	84.31
405.093	91.31
405.317	83.31
405.541	95.31
405.765	75.31
405.988	84.31
406.212	77.31
406.436	82.31
406.66	78.31
406.883	93.31
407.107	78.31
407.331	74.31
407.555	73.31
407.778	74.31
408.002	89.31
408.226	81.31
408.449	82.31
408.673	90.31
408.896	96.31
409.12	88.31
409.344	77.31
409.567	83.31
409.791	74.31
410.014	76.31
410.238	76.31
410.461	69.31
410.685	66.31
410.908	85.31
411.132	82.31
411.355	81.31
411.578	85.31
411.802	79.31
412.025	79.31
412.249	79.31
412.472	79.31
412.695	96.31
412.919	97.31
413.142	70.31
413.365	73.31
413.589	73.31
413.812	72.31
414.035	86.31
414.258	84.31
414.482	75.31
414.705	90.31
414.928	101.31
415.151	71.31
415.374	77.31
415.597	80.31
415.821	79.31
416.044	79.31
416.267	88.31
416.49	97.31
416.713	79.31
416.936	84.31
417.159	81.31
417.382	83.31
417.605	85.31
417.828	94.31
418.051	85.31
418.274	86.31
418.497	80.31
418.72	84.31
418.943	102.31
419.166	82.31
419.389	81.31
419.611	84.31
419.834	85.31
420.057	76.31
420.28	78.31
420.503	76.31
420.726	89.31
420.948	81.31
421.171	84.31
421.394	93.31
421.617	77.31
421.839	90.31
422.062	76.31
422.285	64.31
422.507	89.31
422.73	70.31
422.953	85.31
423.175	79.31
423.398	86.31
423.621	76.31
423.843	89.31
424.066	79.31
424.288	87.31
424.511	87.31
424.733	78.31
424.956	86.31
425.178	82.31
425.401	67.31
425.623	80.31
425.846	95.31
426.068	82.31
426.291	81.31
426.513	94.31
426.735	77.31
426.958	83.31
427.18	76.31
427.402	79.31
427.625	79.31
427.847	86.31
428.069	89.31
428.292	81.31
428.514	77.31
428.736	88.31
428.958	86.31
429.181	91.31
429.403	79.31
429.625	85.31
429.847	81.31
430.069	82.31
430.292	92.31
430.514	75.31
430.736	90.31
430.958	81.31
431.18	64.31
431.402	78.31
431.624	79.31
431.846	93.31
432.068	82.31
432.29	70.31
432.512	86.31
432.734	82.31
432.956	78.31
433.178	90.31
433.4	83.31
433.622	78.31
433.844	77.31
434.066	75.31
434.287	80.31
434.509	81.31
434.731	69.31
434.953	73.31
435.175	76.31
435.397	81.31
435.618	82.31
435.84	65.31
436.062	91.31
436.284	81.31
436.505	73.31
436.727	91.31
436.949	90.31
437.17	93.31
437.392	89.31
437.614	89.31
437.835	85.31
438.057	73.31
438.278	83.31
438.5	84.31
438.721	78.31
438.943	78.31
439.165	73.31
439.386	82.31
439.608	78.31
439.829	82.31
440.05	97.31
440.272	76.31
440.493	82.31
440.715	90.31
440.936	87.31
441.158	83.31
441.379	95.31
441.6	76.31
441.822	85.31
442.043	92.31
442.264	85.31
442.486	85.31
442.707	75.31
442.928	84.31
443.149	62.31
443.371	84.31
443.592	84.31
443.813	78.31
444.034	89.31
444.255	98.31
444.476	81.31
444.698	90.31
444.919	78.31
445.14	153.31
445.361	103.31
445.582	74.31
445.803	78.31
446.024	90.31
446.245	81.31
446.466	91.31
446.687	82.31
446.908	77.31
447.129	79.31
447.35	82.31
447.571	76.31
447.792	82.31
448.013	85.31
448.234	90.31
448.455	93.31
448.675	89.31
448.896	79.31
449.117	75.31
449.338	80.31
449.559	71.31
449.779	86.31
450	90.31
450.221	70.31
450.442	83.31
450.662	66.31
450.883	74.31
451.104	65.31
451.324	76.31
451.545	76.31
451.766	88.31
451.986	76.31
452.207	92.31
452.428	74.31
452.648	99.31
452.869	70.31
453.089	78.31
453.31	76.31
453.53	86.31
453.751	72.31
453.971	87.31
454.192	76.31
454.412	83.31
454.633	91.31
454.853	82.31
455.073	81.31
455.294	93.31
455.514	73.31
455.734	77.31
455.955	87.31
456.175	73.31
456.395	73.31
456.616	78.31
456.836	68.31
457.056	89.31
457.276	76.31
457.497	79.31
457.717	83.31
457.937	79.31
458.157	84.31
458.377	71.31
458.598	65.31
458.818	81.31
459.038	86.31
459.258	93.31
459.478	77.31
459.698	77.31
459.918	80.31
460.138	84.31
460.358	61.31
460.578	81.31
460.798	80.31
461.018	74.31
461.238	75.31
461.458	76.31
461.678	78.31
461.898	78.31
462.118	64.31
462.338	83.31
462.558	76.31
462.777	91.31
462.997	85.31
463.217	77.31
463.437	92.31
463.657	82.31
463.876	78.31
464.096	78.31
464.316	80.31
464.536	82.31
464.755	88.31
464.975	91.31
465.195	62.31
465.414	78.31
465.634	69.31
465.854	70.31
466.073	78.31
466.293	76.31
466.512	86.31
466.732	85.31
466.951	93.31
467.171	90.31
467.391	86.31
467.61	77.31
467.829	78.31
468.049	89.31
468.268	74.31
468.488	77.31
468.707	91.31
468.927	81.31
469.146	93.31
469.365	87.31
469.585	85.31
469.804	91.31
470.023	86.31
470.243	65.31
470.462	93.31
470.681	82.31
470.901	91.31
471.12	79.31
471.339	93.31
471.558	84.31
471.777	77.31
471.997	70.31
472.216	75.31
472.435	90.31
472.654	85.31
472.873	81.31
473.092	69.31
473.311	93.31
473.53	94.31
473.749	84.31
473.968	69.31
474.187	74.31
474.406	68.31
474.625	93.31
474.844	92.31
475.063	73.31
475.282	81.31
475.501	85.31
475.72	94.31
475.939	75.31
476.158	85.31
476.377	79.31
476.596	68.31
476.814	81.31
477.033	82.31
477.252	71.31
477.471	94.31
477.69	80.31
477.908	79.31
478.127	86.31
478.346	96.31
478.564	75.31
478.783	72.31
479.002	84.31
479.22	77.31
479.439	99.31
479.658	83.31
479.876	88.31
480.095	89.31
480.313	83.31
480.532	71.31
480.751	80.31
480.969	75.31
481.188	81.31
481.406	85.31
481.624	72.31
481.843	75.31
482.061	92.31
482.28	79.31
482.498	72.31
482.717	74.31
482.935	94.31
483.153	87.31
483.372	89.31
483.59	83.31
483.808	84.31
484.027	73.31
484.245	93.31
484.463	80.31
484.681	92.31
484.9	94.31
485.118	83.31
485.336	87.31
485.554	83.31
485.772	66.31
485.99	75.31
486.209	79.31
486.427	84.31
486.645	75.31
486.863	71.31
487.081	81.31
487.299	94.31
487.517	87.31
487.735	99.31
487.953	86.31
488.171	77.31
488.389	92.31
488.607	79.31
488.825	65.31
489.043	72.31
489.261	83.31
489.479	91.31
489.696	92.31
489.914	83.31
490.132	78.31
490.35	81.31
490.568	79.31
490.786	72.31
491.003	80.31
491.221	83.31
491.439	76.31
491.657	77.31
491.874	100.31
492.092	86.31
492.31	105.31
492.527	83.31
492.745	90.31
492.963	78.31
493.18	75.31
493.398	85.31
493.615	87.31
493.833	85.31
494.05	82.31
494.268	83.31
494.485	83.31
494.703	79.31
494.92	104.31
495.138	83.31
495.355	96.31
495.573	102.31
495.79	94.31
496.008	96.31
496.225	80.31
496.442	89.31
496.66	83.31
496.877	75.31
497.094	85.31
497.312	81.31
497.529	82.31
497.746	79.31
497.963	77.31
498.181	88.31
498.398	96.31
498.615	76.31
498.832	78.31
499.049	65.31
499.267	98.31
499.484	73.31
499.701	82.31
499.918	83.31
500.135	80.31
500.352	88.31
500.569	92.31
500.786	83.31
501.003	83.31
501.22	76.31
501.437	82.31
501.654	86.31
501.871	82.31
502.088	83.31
502.305	62.31
502.522	84.31
502.739	79.31
502.956	86.31
503.172	86.31
503.389	84.31
503.606	78.31
503.823	72.31
504.04	92.31
504.256	82.31
504.473	101.31
504.69	73.31
504.907	95.31
505.123	94.31
505.34	89.31
505.557	85.31
505.773	77.31
505.99	79.31
506.207	82.31
506.423	81.31
506.64	70.31
506.856	77.31
507.073	84.31
507.289	82.31
507.506	96.31
507.722	81.31
507.939	79.31
508.155	89.31
508.372	83.31
508.588	78.31
508.805	88.31
509.021	79.31
509.238	74.31
509.454	86.31
509.67	83.31
509.887	85.31
510.103	81.31
510.319	91.31
510.536	90.31
510.752	83.31
510.968	82.31
511.184	75.31
511.401	81.31
511.617	78.31
511.833	86.31
512.049	81.31
512.265	86.31
512.481	80.31
512.698	85.31
512.914	86.31
513.13	92.31
513.346	70.31
513.562	81.31
513.778	83.31
513.994	78.31
514.21	90.31
514.426	91.31
514.642	89.31
514.858	79.31
515.074	92.31
515.29	69.31
515.506	75.31
515.721	82.31
515.937	81.31
516.153	63.31
516.369	84.31
516.585	87.31
516.801	87.31
517.016	78.31
517.232	77.31
517.448	64.31
517.664	86.31
517.879	75.31
518.095	94.31
518.311	82.31
518.527	77.31
518.742	89.31
518.958	81.31
519.173	90.31
519.389	81.31
519.605	89.31
519.82	82.31
520.036	83.31
520.251	74.31
520.467	77.31
520.682	68.31
520.898	75.31
521.113	67.31
521.329	82.31
521.544	78.31
521.76	85.31
521.975	83.31
522.19	81.31
522.406	76.31
522.621	92.31
522.836	95.31
523.052	89.31
523.267	85.31
523.482	79.31
523.698	71.31
523.913	75.31
524.128	84.31
524.343	74.31
524.559	95.31
524.774	69.31
524.989	86.31
525.204	78.31
525.419	84.31
525.634	95.31
525.849	73.31
526.064	71.31
526.28	77.31
526.495	77.31
526.71	84.31
526.925	78.31
527.14	102.31
527.355	79.31
527.57	91.31
527.785	86.31
527.999	81.31
528.214	95.31
528.429	71.31
528.644	71.31
528.859	74.31
529.074	79.31
529.289	79.31
529.503	78.31
529.718	81.31
529.933	80.31
530.148	78.31
530.363	73.31
530.577	71.31
530.792	90.31
531.007	83.31
531.221	92.31
531.436	80.31
531.651	94.31
531.865	93.31
532.08	74.31
532.295	86.31
532.509	98.31
532.724	86.31
532.938	76.31
533.153	82.31
533.367	81.31
533.582	89.31
533.796	75.31
534.011	85.31
534.225	85.31
534.44	59.31
534.654	76.31
534.868	83.31
535.083	83.31
535.297	69.31
535.511	83.31
535.726	72.31
535.94	95.31
536.154	75.31
536.369	93.31
536.583	75.31
536.797	79.31
537.011	75.31
537.225	90.31
537.44	82.31
537.654	77.31
537.868	80.31
538.082	84.31
538.296	89.31
538.51	84.31
538.724	95.31
538.938	76.31
539.153	95.31
539.367	82.31
539.581	89.31
539.795	73.31
540.009	82.31
540.222	83.31
540.436	78.31
540.65	82.31
540.864	91.31
541.078	91.31
541.292	86.31
541.506	85.31
541.72	87.31
541.934	91.31
542.147	86.31
542.361	83.31
542.575	92.31
542.789	77.31
543.002	65.31
543.216	97.31
543.43	72.31
543.644	87.31
543.857	73.31
544.071	83.31
544.285	73.31
544.498	87.31
544.712	88.31
544.925	93.31
545.139	85.31
545.352	96.31
545.566	75.31
545.779	82.31
545.993	80.31
546.206	93.31
546.42	81.31
546.633	96.31
546.847	84.31
547.06	99.31
547.274	77.31
547.487	87.31
547.7	93.31
547.914	76.31
548.127	100.31
548.34	82.31
548.554	90.31
548.767	91.31
548.98	82.31
549.193	99.31
549.407	85.31
549.62	90.31
549.833	74.31
550.046	70.31
550.259	84.31
550.473	92.31
550.686	70.31
550.899	86.31
551.112	101.31
551.325	93.31
551.538	79.31
551.751	86.31
551.964	97.31
552.177	75.31
552.39	85.31
552.603	81.31
552.816	91.31
553.029	80.31
553.242	75.31
553.455	97.31
553.667	93.31
553.88	86.31
554.093	84.31
554.306	73.31
554.519	81.31
554.732	82.31
554.944	84.31
555.157	87.31
555.37	86.31
555.583	102.31
555.795	74.31
556.008	101.31
556.221	87.31
556.433	85.31
556.646	93.31
556.859	86.31
557.071	91.31
557.284	94.31
557.496	80.31
557.709	86.31
557.921	84.31
558.134	92.31
558.346	91.31
558.559	100.31
558.771	78.31
558.984	86.31
559.196	85.31
559.409	84.31
559.621	87.31
559.833	82.31
560.046	66.31
560.258	80.31
560.47	84.31
560.683	87.31
560.895	76.31
561.107	79.31
561.32	74.31
561.532	98.31
561.744	91.31
561.956	83.31
562.168	91.31
562.381	93.31
562.593	82.31
562.805	79.31
563.017	96.31
563.229	95.31
563.441	90.31
563.653	90.31
563.865	80.31
564.077	86.31
564.289	76.31
564.501	72.31
564.713	86.31
564.925	92.31
565.137	79.31
565.349	77.31
565.561	81.31
565.773	70.31
565.985	81.31
566.197	78.31
566.408	73.31
566.62	73.31
566.832	85.31
567.044	80.31
567.255	70.31
567.467	79.31
567.679	73.31
567.891	78.31
568.102	66.31
568.314	96.31
568.526	71.31
568.737	79.31
568.949	101.31
569.161	75.31
569.372	78.31
569.584	84.31
569.795	91.31
570.007	78.31
570.218	70.31
570.43	73.31
570.641	94.31
570.853	84.31
571.064	95.31
571.276	89.31
571.487	73.31
571.698	85.31
571.91	83.31
572.121	80.31
572.333	69.31
572.544	79.31
572.755	84.31
572.966	68.31
573.178	90.31
573.389	93.31
573.6	73.31
573.811	89.31
574.023	76.31
574.234	86.31
574.445	95.31
574.656	91.31
574.867	82.31
575.078	75.31
575.289	88.31
575.501	87.31
575.712	91.31
575.923	95.31
576.134	84.31
576.345	86.31
576.556	73.31
576.767	88.31
576.978	85.31
577.188	80.31
577.399	98.31
577.61	93.31
577.821	84.31
578.032	86.31
578.243	90.31
578.454	95.31
578.665	84.31
578.875	97.31
579.086	81.31
579.297	74.31
579.508	92.31
579.718	85.31
579.929	95.31
580.14	93.31
580.35	77.31
580.561	73.31
580.772	89.31
580.982	75.31
581.193	81.31
581.403	88.31
581.614	86.31
581.825	90.31
582.035	94.31
582.246	71.31
582.456	74.31
582.667	79.31
582.877	75.31
583.087	77.31
583.298	73.31
583.508	90.31
583.719	80.31
583.929	83.31
584.139	79.31
584.35	83.31
584.56	82.31
584.77	102.31
584.981	85.31
585.191	73.31
585.401	87.31
585.611	82.31
585.821	81.31
586.032	73.31
586.242	80.31
586.452	92.31
586.662	94.31
586.872	79.31
587.082	84.31
587.292	81.31
587.502	73.31
587.713	75.31
587.923	77.31
588.133	88.31
588.343	98.31
588.553	82.31
588.762	96.31
588.972	93.31
589.182	93.31
589.392	80.31
589.602	89.31
589.812	75.31
590.022	79.31
590.232	79.31
590.441	86.31
590.651	81.31
590.861	88.31
591.071	93.31
591.281	84.31
591.49	73.31
591.7	77.31
591.91	80.31
592.119	81.31
592.329	80.31
592.539	80.31
592.748	84.31
592.958	87.31
593.167	85.31
593.377	83.31
593.587	82.31
593.796	92.31
594.006	73.31
594.215	87.31
594.424	79.31
594.634	77.31
594.843	85.31
595.053	93.31
595.262	93.31
595.472	75.31
595.681	89.31
595.89	59.31
596.1	76.31
596.309	91.31
596.518	83.31
596.727	86.31
596.937	84.31
597.146	81.31
597.355	81.31
597.564	80.31
597.774	91.31
597.983	88.31
598.192	87.31
598.401	76.31
598.61	81.31
598.819	79.31
599.028	83.31
599.237	97.31
599.446	81.31
599.655	83.31
599.864	91.31
600.073	80.31
600.282	78.31
600.491	101.31
600.7	67.31
600.909	101.31
601.118	77.31
601.327	74.31
601.536	89.31
601.745	86.31
601.953	81.31
602.162	100.31
602.371	85.31
602.58	79.31
602.789	79.31
602.997	86.31
603.206	82.31
603.415	89.31
603.623	83.31
603.832	83.31
604.041	93.31
604.249	85.31
604.458	75.31
604.666	81.31
604.875	75.31
605.084	96.31
605.292	78.31
605.501	84.31
605.709	89.31
605.918	89.31
606.126	87.31
606.334	85.31
606.543	89.31
606.751	77.31
606.96	85.31
607.168	92.31
607.376	84.31
607.585	77.31
607.793	87.31
608.001	81.31
608.21	86.31
608.418	80.31
608.626	96.31
608.834	69.31
609.043	69.31
609.251	78.31
609.459	86.31
609.667	98.31
609.875	89.31
610.083	77.31
610.291	76.31
610.499	81.31
610.707	94.31
610.916	87.31
611.124	91.31
611.332	82.31
611.54	71.31
611.748	76.31
611.955	92.31
612.163	81.31
612.371	82.31
612.579	78.31
612.787	86.31
612.995	79.31
613.203	85.31
613.411	78.31
613.618	75.31
613.826	77.31
614.034	90.31
614.242	84.31
614.449	94.31
614.657	82.31
614.865	84.31
615.072	89.31
615.28	68.31
615.488	74.31
615.695	71.31
615.903	75.31
616.111	71.31
616.318	78.31
616.526	88.31
616.733	79.31
616.941	87.31
617.148	82.31
617.356	87.31
617.563	93.31
617.771	71.31
617.978	73.31
618.185	81.31
618.393	88.31
618.6	80.31
618.807	97.31
619.015	84.31
619.222	81.31
619.429	80.31
619.637	79.31
619.844	90.31
620.051	91.31
620.258	86.31
620.466	83.31
620.673	76.31
620.88	69.31
621.087	97.31
621.294	98.31
621.501	77.31
621.708	103.31
621.915	81.31
622.122	75.31
622.329	90.31
622.536	82.31
622.743	80.31
622.95	91.31
623.157	76.31
623.364	77.31
623.571	89.31
623.778	94.31
623.985	81.31
624.192	84.31
624.399	78.31
624.606	98.31
624.812	89.31
625.019	95.31
625.226	91.31
625.433	77.31
625.639	75.31
625.846	83.31
626.053	75.31
626.259	81.31
626.466	90.31
626.673	73.31
626.879	73.31
627.086	92.31
627.293	87.31
627.499	89.31
627.706	75.31
627.912	79.31
628.119	94.31
628.325	90.31
628.532	85.31
628.738	85.31
628.945	83.31
629.151	83.31
629.357	92.31
629.564	99.31
629.77	78.31
629.976	79.31
630.183	82.31
630.389	83.31
630.595	81.31
630.802	82.31
631.008	78.31
631.214	81.31
631.42	85.31
631.627	74.31
631.833	83.31
632.039	67.31
632.245	75.31
632.451	81.31
632.657	82.31
632.863	85.31
633.069	82.31
633.275	82.31
633.481	94.31
633.688	72.31
633.893	90.31
634.099	77.31
634.305	91.31
634.511	86.31
634.717	81.31
634.923	78.31
635.129	84.31
635.335	91.31
635.541	81.31
635.747	88.31
635.952	98.31
636.158	75.31
636.364	77.31
636.57	80.31
636.775	71.31
636.981	81.31
637.187	69.31
637.392	72.31
637.598	78.31
637.804	73.31
638.009	77.31
638.215	85.31
638.421	83.31
638.626	78.31
638.832	90.31
639.037	80.31
639.243	91.31
639.448	93.31
639.654	90.31
639.859	67.31
640.065	89.31
640.27	79.31
640.475	84.31
640.681	75.31
640.886	69.31
641.091	98.31
641.297	96.31
641.502	85.31
641.707	74.31
641.913	81.31
642.118	92.31
642.323	78.31
642.528	92.31
642.733	91.31
642.939	91.31
643.144	92.31
643.349	79.31
643.554	84.31
643.759	84.31
643.964	71.31
644.169	100.31
644.374	76.31
644.579	82.31
644.784	81.31
644.989	87.31
645.194	76.31
645.399	84.31
645.604	75.31
645.809	91.31
646.014	65.31
646.219	83.31
646.423	80.31
646.628	89.31
646.833	76.31
647.038	81.31
647.243	84.31
647.447	98.31
647.652	84.31
647.857	92.31
648.062	73.31
648.266	82.31
648.471	95.31
648.676	75.31
648.88	71.31
649.085	87.31
649.289	75.31
649.494	80.31
649.698	81.31
649.903	76.31
650.107	70.31
650.312	82.31
650.516	96.31
650.721	92.31
650.925	83.31
651.13	71.31
651.334	81.31
651.539	93.31
651.743	85.31
651.947	82.31
652.152	96.31
652.356	94.31
652.56	93.31
652.764	77.31
652.969	67.31
653.173	76.31
653.377	76.31
653.581	93.31
653.785	94.31
653.99	82.31
654.194	63.31
654.398	98.31
654.602	69.31
654.806	87.31
655.01	70.31
655.214	77.31
655.418	85.31
655.622	72.31
655.826	73.31
656.03	74.31
656.234	72.31
656.438	74.31
656.642	74.31
656.846	73.31
657.049	81.31
657.253	91.31
657.457	92.31
657.661	77.31
657.865	87.31
658.068	87.31
658.272	94.31
658.476	95.31
658.68	79.31
658.883	92.31
659.087	79.31
659.291	79.31
659.494	77.31
659.698	90.31
659.901	82.31
660.105	87.31
660.309	74.31
660.512	70.31
660.716	86.31
660.919	75.31
661.123	82.31
661.326	86.31
661.53	82.31
661.733	90.31
661.936	80.31
662.14	74.31
662.343	72.31
662.546	75.31
662.75	78.31
662.953	83.31
663.156	81.31
663.36	81.31
663.563	89.31
663.766	77.31
663.969	92.31
664.173	86.31
664.376	76.31
664.579	78.31
664.782	84.31
664.985	85.31
665.188	79.31
665.391	75.31
665.594	90.31
665.797	87.31
666	89.31
666.203	77.31
666.406	73.31
666.609	73.31
666.812	77.31
667.015	94.31
667.218	89.31
667.421	89.31
667.624	91.31
667.827	67.31
668.03	74.31
668.232	77.31
668.435	76.31
668.638	76.31
668.841	84.31
669.043	70.31
669.246	89.31
669.449	72.31
669.651	81.31
669.854	69.31
670.057	90.31
670.259	68.31
670.462	82.31
670.665	72.31
670.867	99.31
671.07	72.31
671.272	93.31
671.475	89.31
671.677	87.31
671.88	67.31
672.082	64.31
672.284	77.31
672.487	90.31
672.689	76.31
672.892	74.31
